AF3,AF4,F3,F4,F7,F8,FC5,FC6,O1,O2,P7,P8,T7,T8,time
-0.09866946822760024,0.014074083348150626,-0.0008370290722144513,0.010248411383756241,0.011488510205489206,0.01478270912074029,0.005740559595533041,-0.7116062680123701,-0.010675506816434656,0.8019780790899739,-0.012473454310428659,-0.009438246729372915,0.020420532907774153,-0.035653499973608005,0.0
-0.05643476528512104,0.008276958900930168,-0.0004012564745940621,0.0065725745940440235,0.006458650689185373,0.008092962298085317,0.0036646277085049177,-0.40584024211499775,-0.00525630471421109,0.45668257310330157,-0.0064864329145531445,-0.005961702844724478,0.011244016621621552,-0.020674504750242167,0.0078125
0.03605680554552264,-0.00439846478970224,0.0005528902790975041,-0.0014824538920990712,-0.004543174761878274,-0.006552621434018868,-0.0008772550369752882,0.26332741653528763,0.006612214071349296,-0.2995271414650233,0.006616266651452222,0.001645132868253819,-0.00886412154141117,0.0121073800571171,0.015625
0.07982414732009217,-0.010386890327559404,0.0010042864070665771,-0.005293918583909531,-0.009740114762451289,-0.013480889476606563,-0.003023201218994315,0.5799417312520544,0.012229493339777476,-0.6576912943878456,0.012814717547560925,0.005240476806596982,-0.018380239515645453,0.027613457802047735,0.0234375
0.027863703335464268,-0.0032584675386674792,0.0004682344403095984,-0.0007683108359144811,-0.0035489343297566028,-0.005253990811013541,-0.00046841580711747466,0.204173486661453,0.005564470276667642,-0.2333698915949713,0.00545401061430587,0.0009644097084944277,-0.007080172491751301,0.009198422362776057,0.03125
-0.024786736561743083,0.003952108168920267,-7.468694297341591e-05,0.0038158849707342875,0.0027136679363545346,0.003078377530418012,0.0021152897270393565,-0.1765572187580575,-0.0011914386963788116,0.19686294904902574,-0.0020024760569452367,-0.0033620163253675534,0.004370113576736385,-0.009450019691047029,0.0390625
0.01744980520304517,-0.001848412032881181,0.0003613941333955654,0.00013561626595943655,-0.0023196442469349127,-0.0036136297742217875,3.611800477848359e-05,0.1289897193679283,0.004225961851979444,-0.14836054555890477,0.003983324625168896,0.00011787938280655096,-0.004815501004942375,0.005529545929250863,0.046875
0.020826766434611375,-0.002315936228310146,0.00039634815049598176,-0.00016287550585473298,-0.0027302266094456932,-0.0041449894177654255,-0.00013174696551943897,0.1532876639422349,0.004659542206560646,-0.17527590663320566,0.004458480406464272,0.00039903241457416304,-0.005558167773615036,0.006715048170864682,0.0546875
-0.1744627694913018,0.02445670810343502,-0.0016186852279664445,0.016836428386496453,0.020494716138830627,0.02679107059170392,0.009461335528144063,-1.2596337402317193,-0.02039676445564647,1.4228872404716901,-0.023220226872225986,-0.015662089242537057,0.036894334240665065,-0.06253238229797924,0.0625
-0.3243487142818405,0.04501119544067707,-0.003165501967369741,0.029888524207451653,0.0383276731275041,0.05053356061422059,0.016826293480866807,-2.344007572473295,-0.039629456645661906,2.648954783445174,-0.044462295963510264,-0.027994163930290663,0.0694853204685264,-0.11567355305613013,0.0703125
-0.053088485721159005,0.00783770093819677,-0.0003671114812968338,0.006281293728894876,0.006078787368649946,0.007566883152965355,0.0035075066455698446,-0.38145899731522565,-0.0048227497920446125,0.428801705419987,-0.006016957109642726,-0.005695767272586792,0.010519650417200807,-0.019502699041563664,0.078125
0.41095602853557905,-0.05577306013226614,0.004420878255659451,-0.034113533113219005,-0.04910356323070286,-0.06594053206749716,-0.01928307253834891,2.975945091810642,0.05472688849389269,-3.3686301838193815,0.05975325600554475,0.03246292407262964,-0.09036810216913488,0.145018647110688,0.0859375
0.424462772276779,-0.057641096592206495,0.004560957867818375,-0.03529664243698845,-0.050719798855840895,-0.06808713839913258,-0.019952132098178112,3.0737945868018635,0.056466900994105326,-3.479021704729884,0.06167190501178224,0.033584009201345216,-0.09331647650066256,0.14981622044973086,0.09375
-0.05731398942978068,0.008389534408657225,-0.00040951112424013976,0.006636858790571199,0.006562724628892658,0.008226162336266163,0.003704753064869729,-0.41193618123719944,-0.00535645429943238,0.4637757089045344,-0.006610411475031484,-0.006025200526238471,0.011419992809496396,-0.020986724142223138,0.1015625
-0.3728015313027777,0.051653635010139136,-0.0036653617898408405,0.03410610535558041,0.04408555341008903,0.058212740735839374,0.01920407647463792,-2.6948212453919873,-0.04585334401417595,3.0458196784261986,-0.05133378640582808,-0.031976598978624655,0.08002276004988017,-0.13285442613899937,0.109375
-0.18650562234450124,0.02614108062648367,-0.0017441385562288266,0.017898160609562355,0.021944825366343925,0.02871554743707447,0.010062858556038931,-1.3471100157723197,-0.021957641060776346,1.5213054921068212,-0.024938422414742395,-0.01667142483710107,0.039536245293889515,-0.06682492821036674,0.1171875
0.10164432821455481,-0.013364971930796577,0.0012292013609741187,-0.00718784399904802,-0.012321865845295257,-0.01693382594538803,-0.004090331913542549,0.7379370754642458,0.015025670909914907,-0.8370602493203252,0.015906075109767406,0.007025648541071915,-0.02311566067223683,0.0353416869062942,0.125
0.12712848363631532,-0.016888738954289623,0.001493253156996989,-0.009416762940332443,-0.015366266020630459,-0.020987464894757196,-0.005351109716432396,0.9225653243312528,0.018311606769038404,-1.045806923782946,0.01953101148977512,0.009136912065292832,-0.02867551571889843,0.044401596971780664,0.1328125
0.04898799905197695,-0.006186034268112247,0.0006873251750676858,-0.0026154799439652653,-0.006078490602931164,-0.008615111376807634,-0.0015158338722323628,0.3570445100361206,0.008287422133601088,-0.40620343071548515,0.008460909327212088,0.002716106134805086,-0.011691038752996962,0.016705585440643198,0.140625
0.08409106597005968,-0.010974257180665171,0.0010487153187951014,-0.005660263838473083,-0.010240224466404626,-0.014165297383184563,-0.0032322706374944563,0.6107654292111362,0.012780728229714803,-0.6933930077839557,0.013428618942541477,0.005590104242962107,-0.01930748204187845,0.029134722394163013,0.1484375
0.1288366697658225,-0.017090019465153185,0.0015098218661758302,-0.00955004374724121,-0.015550887893055552,-0.021245713409777742,-0.005424747434720072,0.9346500209277322,0.018516500080180864,-1.0597767110982306,0.019762934119641164,0.009260385951559388,-0.02902700259296206,0.044987217649765494,0.15625
0.039295327044486045,-0.004828147391272024,0.0005862946415891441,-0.0017638805803165776,-0.004910608562307373,-0.0070684645687746454,-0.0010317436954989177,0.28714925342030323,0.007033065835260546,-0.3270155743579713,0.007073905343359743,0.0019055105630524532,-0.009569861133360025,0.013253911903614246,0.1640625
-0.11036116940137806,0.015664257175911033,-0.0009573274278710065,0.011254688083739636,0.012869905118452768,0.01662736613026037,0.006310991299261714,-0.7956068699428065,-0.012166245154229576,0.8981231569633858,-0.014130312663183849,-0.01038673578859979,0.02295660408056765,-0.03978023946460303,0.171875
-0.18363732303086824,0.02570266752355885,-0.001713301922151324,0.017635325093210415,0.02157822719147993,0.02823301871461199,0.009907722594180698,-1.3260148560382452,-0.02157525060558137,1.4979248476238143,-0.024512433917805963,-0.01640854229034436,0.03889176457719677,-0.06574598457522217,0.1796875
-0.15244993042369887,0.02143685585675635,-0.0013915811971690769,0.014927116664157483,0.01787925862615821,0.023299495986963816,0.008378837936184122,-1.1004772288198637,-0.01757906712558272,1.2421518548877895,-0.020094515511199857,-0.013851470148658014,0.03212005389811469,-0.05470049372237783,0.1875
-0.0664830165998996,0.00966499552641116,-0.0005046744370956538,0.007444941535903896,0.00766846459745019,0.009689572489554,0.0041610477371957985,-0.4784462057735763,-0.006544347280616567,0.538234422396286,-0.00791571310249575,-0.0067919884181852986,0.013429972007627055,-0.02425151521964434,0.1953125
-0.0029828809981528354,0.0009692007562804954,0.000150100072389646,0.0019144957025739114,0.00011809879504329164,-0.00036493522445625115,0.001045788092418431,-0.019088752724640622,0.0016073185806807758,0.019116745244754638,0.0010795354277419943,-0.001575016358348684,-0.00038024371647821204,-0.001758503354589862,0.203125
-0.017820756212116987,0.0030030386388385324,-3.45471397148095e-06,0.0032055304304604787,0.0018734156470112376,0.0019847854008740473,0.0017745292677502837,-0.12655208987732572,-0.00030112966673312614,0.14129565568385674,-0.0010238122763654887,-0.002792547051801538,0.0028464394524957744,-0.007009149211599785,0.2109375
-0.05864721204509843,0.008588497330915636,-0.0004244734198606853,0.00676085122444237,0.006723031705782128,0.00844654917792963,0.003776070415544888,-0.42173610991912835,-0.005542313700420658,0.47518605476449927,-0.00680548423763207,-0.006142832723521579,0.011727561293009963,-0.0214587387779393,0.21875
-0.007279982904138339,0.0015369814817703074,0.00010627528524946825,0.002289294613316201,0.0006211122045003417,0.0003042447396578303,0.0012510159473344347,-0.04969642220460036,0.0010578456292389686,0.053936029150732236,0.0004799293604513314,-0.0019153704168959063,0.0005610808540622277,-0.003241225117776103,0.2265625
0.13613761914778988,-0.018116280024297098,0.0015862856617820593,-0.010196212533844428,-0.016423198844231827,-0.022412565096533672,-0.005789544637520624,0.9879686726106651,0.019470908722230007,-1.1199932891093285,0.02080602390751708,0.0098731464831016,-0.0306235824840249,0.04758459308574626,0.234375
0.22737114881553094,-0.030603769172298137,0.0025270665344171825,-0.01813754506776789,-0.027269275977213948,-0.0368557895624785,-0.010265149459589302,1.6475488439682988,0.03117528902335977,-1.8660266148890343,0.03373036332389602,0.01736662693248086,-0.05046303369929127,0.07990601805689547,0.2421875
0.18432438394504605,-0.02469393201354543,0.0020824529874142704,-0.014388539215715253,-0.022154836340546755,-0.030030214193669705,-0.008150356957256445,1.3356431460696456,0.025641135854700018,-1.513364566499883,0.02762470671293669,0.01382317251838955,-0.04110509287909606,0.06463926583835623,0.25
0.083948742656776,-0.010947422625047807,0.0010470800674958773,-0.005650352910756019,-0.0102250801338911,-0.014135045528610468,-0.0032257722117699063,0.6095658400443499,0.01275717178735784,-0.6922640235388766,0.013401782763826536,0.005574601029844499,-0.019281535242963155,0.029070359049642232,0.2578125
0.01263529010297352,-0.0011931098680367203,0.00031181234876055767,0.0005557608102944834,-0.001751313762197817,-0.0028517774884583157,0.0002706339479321874,0.09415147247531055,0.0036109309528227353,-0.10899156303875975,0.0033025545397442073,-0.00027933590999726734,-0.0037769593937408714,0.003817449806839492,0.265625
-0.03723260675593563,0.0056363381445639505,-0.00020272991540728168,0.004894887203204691,0.004174682030986533,0.005041117902484728,0.0027185320652897333,-0.2664084115208838,-0.002785496966722795,0.29941075590805305,-0.003762540708360686,-0.004374354272402341,0.0070656062367541765,-0.013843997247819675,0.2734375
-0.08532504093678131,0.012242685324074529,-0.0006994436648882004,0.009081818166379091,0.009897815304691684,0.01266689758372578,0.00508494071858606,-0.6146514375549199,-0.008960734369106951,0.6934026732811345,-0.010584679396987977,-0.008334015343465683,0.017524173483276295,-0.03090763867207815,0.28125
-0.116848405331799,0.016578110159304542,-0.001024953251972653,0.011828040537380215,0.013656541965600804,0.017669939700354746,0.006638010667040822,-0.84299192995798,-0.013008965681265429,0.951149502233463,-0.015057899263874566,-0.010935349590626267,0.02438015533124846,-0.042110774078706135,0.2890625
-0.14162012614827044,0.019967262869551045,-0.001280136557877283,0.013984350192256405,0.016604439816212662,0.021590469779801603,0.007853242767700145,-1.0219991092976088,-0.016183918263271587,1.1532810741733177,-0.018565082441055692,-0.012971629437258596,0.029763803547814386,-0.05089404096519717,0.296875
-0.17086265266095768,0.023956179434051653,-0.0015812366167117255,0.016526338103456724,0.02007071128592997,0.02621225621717579,0.009282958470308956,-1.2332543481640412,-0.019931140470937487,1.3926088863169694,-0.022702927418022115,-0.01536441919972636,0.036115733427914735,-0.06123714303420688,0.3046875
-0.15031532699902722,0.021135622210651746,-0.0013692057867506068,0.014735100934992019,0.01761825720125127,0.022958419166426696,0.008271574213061399,-1.0847684989029858,-0.017295901477247033,1.2251792536507553,-0.019792614084068082,-0.01366880084294542,0.03164592053954375,-0.05394743280198245,0.3125
-0.04401049885783193,0.006583413888029887,-0.00027306967650858697,0.005484331316223379,0.004984173321317713,0.006132407585986821,0.0030570806926361674,-0.3160597142666009,-0.003660536979603886,0.3555808153398525,-0.0047341576426499585,-0.004938058879709968,0.008539301003028087,-0.016285828788366326,0.3203125
0.07858056246881329,-0.010203080155383074,0.0009911403933556074,-0.005180857695321825,-0.009580063544368614,-0.013279086238213597,-0.002956394303488863,0.5709199965142224,0.01206864857479887,-0.6482469953733391,0.012638947166034864,0.00512803902758798,-0.018104769996565306,0.027159449012619463,0.328125
0.1536038549854347,-0.020491899550562936,0.0017652648412808851,-0.011709004131042536,-0.018500021641452178,-0.025169481979086732,-0.006641552583024428,1.1140693072739032,0.02169885722455055,-1.2628418878119132,0.023278800374539103,0.011296501432450062,-0.0344126727347786,0.05377375342045617,0.3359375
0.19600666776942968,-0.026320358833308716,0.002203323065567974,-0.015404193701454022,-0.023552926409255066,-0.031895614041619426,-0.008730232949991121,1.4208589716787703,0.02714242118614976,-1.60956504525697,0.02929321336445863,0.014794332091912865,-0.043637286126248336,0.06882720647746583,0.34375
0.17005639729798205,-0.02277033985826338,0.0019360423240492002,-0.013151558476020347,-0.02047374531628605,-0.0277883819899496,-0.007459964147596253,1.2327958518465036,0.02381290455402594,-1.3965820606951589,0.025613089380031314,0.012668755926793573,-0.038004578999297864,0.0596269689885155,0.3515625
0.0047806768231541934,-0.0001116766335388686,0.0002308894536704814,0.001233743322025939,-0.0008150792923766462,-0.0016085949478108624,0.000657374910418461,0.03701634295561966,0.0026059029430743814,-0.044214940908928406,0.0021861032212440326,-0.0009225901939733525,-0.0020759097442562486,0.0010254490028387229,0.359375
-0.15681623304547632,0.022047656873411633,-0.0014366806776126778,0.015305547523543845,0.018411639550030705,0.023989498272206717,0.008597192321892447,-1.1318760105817052,-0.018130079483996406,1.2775029298390095,-0.02071650035087227,-0.014217591756097473,0.03306232801248086,-0.05626609887390511,0.3671875
-0.05229469185079158,0.007731598776474345,-0.00035877928037026513,0.006212972780385402,0.005989276436787303,0.007437844783138709,0.003468657825027308,-0.37572394010492277,-0.00472109748025001,0.4220665917695999,-0.005903948557574538,-0.005630979310961551,0.010347227432931008,-0.019216700395242366,0.375
0.20487552990293498,-0.027517275339404793,0.002294408804513827,-0.016175441678018394,-0.024596073457816527,-0.03329273778562056,-0.009160423107882912,1.484591327005329,0.028277845365030002,-1.6817575621144976,0.030540924971048877,0.01551489449285197,-0.0455640682632636,0.07194447965472668,0.3828125
0.14750247393467908,-0.019671090451667254,0.001703038450950466,-0.011190882208239473,-0.01778891953564036,-0.024205167467976185,-0.006349368770175335,1.069568278354254,0.02092055594852896,-1.2116602936792205,0.022408834597536755,0.010808594129891802,-0.033101523858447494,0.051602762353476814,0.390625
-0.286535762891512,0.039803004099663905,-0.0027745028076257114,0.026587220447495778,0.033812024236654546,0.04454374719507415,0.014959545923181529,-2.070290963317529,-0.03477327130602913,2.3401531139792913,-0.039104373319692375,-0.024869522202137638,0.06125703228788351,-0.10226459156760606,0.3984375
-0.49891507407051633,0.06892309647920808,-0.004966077344130471,0.04508397904352747,0.059074302811204515,0.0781878279394803,0.025393092871887856,-3.60676415984087,-0.062034136718876996,4.07767700500633,-0.06920496982298639,-0.042338261793542005,0.10744281326982343,-0.1775557696036518,0.40625
-0.10345456380319033,0.014746846078649522,-0.000886913272568065,0.010671307424028626,0.01206817971982174,0.015553335873508344,0.005982491265389093,-0.7458819675544217,-0.011296265652617309,0.8411470283797439,-0.013160396004846428,-0.009838076981679688,0.021481403616441706,-0.03736461416739471,0.4140625
0.41589326896102286,-0.056433464662339415,0.004471297455878161,-0.03453995409898092,-0.04968430796543678,-0.06671337377081014,-0.019520245325106638,3.0115284038142422,0.05535326416534474,-3.408886719661739,0.060446792047800284,0.032861369060513214,-0.09143501123620985,0.1467541023889043,0.421875
0.4092378631679421,-0.055547791363978714,0.004403555117054698,-0.033972959910678606,-0.04890830928679525,-0.06567089001979329,-0.019202270568113525,2.963601660869543,0.054512213710829295,-3.3542604421204154,0.05951101372701822,0.032327864460941234,-0.09000805703822781,0.14440864725825345,0.4296875
0.010736851680190859,-0.0009442263746006382,0.00029259178814653244,0.0007136038874458637,-0.0015321678751897298,-0.0025563859223921323,0.0003618031104393137,0.08049413956181631,0.0033771050112396664,-0.09315266264853546,0.003038418762815994,-0.0004292232956272571,-0.003376357775894118,0.0031470268422197313,0.4375
-0.18921065008612464,0.026478245071793662,-0.0017709242684693658,0.018129260190224372,0.0222532572829885,0.029119858142512667,0.01018613881169294,-1.3663693508188857,-0.022291527728991813,1.542879414541804,-0.025301804177118206,-0.016877616663249634,0.040108120963587686,-0.06773805811062297,0.4453125
-0.08497424701501441,0.01221361072157928,-0.0006961680558250283,0.009061293904061634,0.009869650698393765,0.012617603143233081,0.0050740168438509325,-0.6123589136735137,-0.00892232305887068,0.6897981308207866,-0.010535339186809423,-0.008316865638875239,0.017456378477069733,-0.030795102310227713,0.453125
-0.033727965562925025,0.00518568645078698,-0.00016733330732606448,0.004592470121866783,0.003770440796438237,0.004499851148897918,0.0025556599073811195,-0.2414702950792094,-0.002341705499091743,0.27076102423527076,-0.003274597123474363,-0.004099082107780588,0.006306930800623953,-0.012630539751294986,0.4609375
-0.1188510346488998,0.01683257971989328,-0.001045062893617923,0.011993660128413956,0.013879676048460281,0.017974084851298353,0.00672945371835784,-0.8572243154709249,-0.013258685608233583,0.9676569722880387,-0.015333791507576286,-0.011087056954817287,0.024801701194737256,-0.04279510954278213,0.46875
-0.08446110686271861,0.012110084675527683,-0.0006899636061072194,0.009002022039100407,0.009789148563008644,0.01252116436403435,0.005038133979344707,-0.6084863114027521,-0.00884543258000347,0.6860109997724007,-0.010454507877149709,-0.008256349003166491,0.017325944423744837,-0.030591122529574886,0.4765625
0.09487398466689008,-0.012461781134746188,0.001160315699978734,-0.006602717480098753,-0.011524817297482197,-0.01587923610392946,-0.0037660989041485033,0.6888814778542441,0.014164958533320131,-0.7819387986814663,0.01495884547337273,0.006482741852958683,-0.02165343158453138,0.03297353676188075,0.484375
0.1599820744473901,-0.021372336691358726,0.001831837544634843,-0.012269378208565216,-0.019257169157561607,-0.026179420454247513,-0.0069594071566301905,1.1599031379990314,0.022519252395917636,-1.3146081970155077,0.02417554316168163,0.011827927660540504,-0.03580208997253234,0.05602160592864246,0.4921875
0.04741282943364371,-0.005933890179501962,0.0006699545237607177,-0.0024722014782499763,-0.005870725819881387,-0.00833975973799437,-0.0014279007734564046,0.34549150864719075,0.008074182305998656,-0.3929103163467352,0.00821414058453709,0.002566831691612392,-0.011329242302285263,0.016090593188231046,0.5
-0.044392093316163096,0.006649061510262345,-0.0002774455104344892,0.005519997191647029,0.00503941571127243,0.0062005529737745955,0.00308126883343642,-0.3186420624128678,-0.0037069312834292364,0.35846848209565046,-0.00479272273510111,-0.004981102136598277,0.00862500099484239,-0.01644678093773493,0.5078125
-0.03893798384986194,0.005887773807585154,-0.00022065168928282796,0.005045645927518061,0.004382666134547667,0.005326691546578631,0.0028092187079894393,-0.27900472999959486,-0.003006080282423528,0.31338146393479793,-0.004008987361403544,-0.004524139533923153,0.007434743467789866,-0.014483519974222649,0.515625
-0.04686698567720876,0.006956660164730821,-0.0003017686669455453,0.005732784464843161,0.005321964764985208,0.006572289234664719,0.003192394012799143,-0.3361616744963805,-0.004020959132407655,0.3779019617574783,-0.005127499931115838,-0.005165830174095265,0.009159717163091871,-0.01727185657287077,0.5234375
-0.08410391377710674,0.012059810862282668,-0.0006861228053730329,0.008972592465415648,0.009754620654465643,0.012468918697969521,0.005020474824087712,-0.6055862744921232,-0.008799381803471168,0.6827933415467337,-0.010409426995188644,-0.008227819621453232,0.017262032992121052,-0.030474308971238928,0.53125
-0.04766312588175857,0.007087137339478813,-0.00031106767057966,0.005805312623913695,0.005430563071823537,0.006705520288267545,0.0032378367523083385,-0.34229970677494187,-0.0041287088780999626,0.38494792080024687,-0.0052524329799679085,-0.005244440404277577,0.009343886318728368,-0.01757701381036163,0.5390625
0.058509045541053024,-0.007444541745459632,0.0007838312881171574,-0.0034304623465388124,-0.00719009402394075,-0.010102791168943416,-0.001969826827884711,0.42548683099132784,0.009489577496122125,-0.4838744600362877,0.009792638552717498,0.0034737661822109526,-0.013742626542056787,0.020043251460625938,0.546875
0.11639468887100361,-0.015384995381026178,0.001381520181885461,-0.0084700695887772,-0.014079193178438552,-0.019274616152848135,-0.004814778533264471,0.8444065930499888,0.01691905649335329,-0.9578826517250401,0.018002251157074857,0.008237017764192165,-0.026335667946464945,0.04057284997059544,0.5546875
0.08220182675115574,-0.01072522542503307,0.0010295570600583192,-0.0055011702418667876,-0.010025371324210499,-0.013872167612535317,-0.003143913090150666,0.5975319153489831,0.012539918653449203,-0.6782485347127262,0.01316537059281064,0.005441111345516008,-0.018907808446627726,0.02848475720986831,0.5625
0.021374966901446864,-0.002403197620998172,0.0004022767284805928,-0.00021169103741191007,-0.0027994769171477045,-0.004245433599633375,-0.00016134091594377365,0.15765992394114342,0.004740222362979347,-0.18026420616363273,0.004548356306888483,0.00044943169949824966,-0.005685046077453453,0.006941275695511206,0.5703125
-0.011662880579280966,0.0021384504894196147,6.100087723710342e-05,0.0026664123428276386,0.0011350138749771695,0.000996050310292967,0.0014652617981114856,-0.08174682900836407,0.0004973717888068795,0.09041164518785597,-0.00014018527421237256,-0.002273889225145593,0.0015009454659461582,-0.00479227255805779,0.578125
-0.02043639578579215,0.003362431790999524,-3.0058745509717482e-05,0.0034353955253111036,0.0021911389370216743,0.0023996764290692583,0.0019030827713209374,-0.14555496209484933,-0.000634187661396768,0.16214785349450384,-0.0013926343452574594,-0.0030083520976250016,0.0034159341043099273,-0.007937513638538778,0.5859375
-0.021226577904737094,0.0034704105474191176,-3.818112067031036e-05,0.0035048652622546245,0.0022893438372858376,0.0025259721794542687,0.0019423586911056286,-0.15099945097025755,-0.0007344297670820221,0.1682313549900605,-0.0015054269556712256,-0.0030742432612116057,0.0035936909813796404,-0.008218755369878513,0.59375
-0.015505347912556231,0.0026667877021249405,2.141081229864428e-05,0.0030027664883508737,0.0016000573392018923,0.001609600077647597,0.0016552726127564898,-0.1092075304633934,4.4722822933832515e-06,0.1213242894132714,-0.0006885279159616211,-0.002591949149078741,0.0023481053932665253,-0.0061638496610989775,0.6015625
-0.00606430074550243,0.0013650864904512627,0.00011907125888098039,0.002179158048711262,0.00046951234979866963,0.00011103161239141944,0.0011885213470115813,-0.041087835706422174,0.0012142650277321158,0.0445207488485498,0.0006507823723382737,-0.0018096155859577984,0.0002906675931889465,-0.0028105716558773177,0.609375
-0.01751358492788597,0.0029510002732229955,4.0785465495578434e-07,0.0031801529481074323,0.0018369118263812303,0.0019333923822263894,0.0017559362578469758,-0.124400561937839,-0.0002621747351467182,0.13853823582212435,-0.0009777501088605825,-0.002760944873284952,0.0027810269146336156,-0.006893733740711766,0.6171875
-0.06346452597988855,0.00926681123088192,-0.00047433407323205847,0.007185492262008629,0.0073128479250126515,0.009217338563167284,0.0040189099748896935,-0.4568681438180878,-0.006160784436581874,0.5141573751631201,-0.0074927816440748425,-0.006552111500497519,0.012775550729126827,-0.02319923894993568,0.625
-0.08165907548776094,0.011757791141289161,-0.0006619883147772832,0.00876873899895713,0.009477918731364547,0.012092894431556207,0.0049116666491213976,-0.588178944187358,-0.008490041321386109,0.6625039041192926,-0.01006668049369786,-0.008048495449407344,0.016728144266536443,-0.0296373388827722,0.6328125
-0.0016056832673202715,0.0007714499344223888,0.00016450076886550792,0.001794123929023206,-5.097777520937465e-05,-0.0005946780132527776,0.0009746237759838131,-0.009007943124701252,0.0017867383982487267,0.0076791565426333145,0.0012820994000677045,-0.0014566783015774966,-0.0006848719400256542,-0.0012436091328535106,0.640625
0.08440211416072581,-0.011024898299320884,0.0010522054163830364,-0.005697654945007047,-0.010286321359086928,-0.014217660077979212,-0.003252761112795642,0.6129870983795145,0.012821975042919466,-0.6954308132554664,0.013468864875940487,0.005623168019693975,-0.01938515584348661,0.029247595198899412,0.6484375
0.003313015002409179,8.776135338241375e-05,0.00021560762954525489,0.0013622515876386154,-0.0006430915493631923,-0.0013718426049650178,0.0007294178852561249,0.026434927982271685,0.0024150473450472113,-0.03193513975082099,0.0019758177465099037,-0.0010420519446730872,-0.0017474056092103604,0.0005037247950439665,0.65625
-0.16051836979622647,0.02254361484031914,-0.0014747699565195633,0.015629639160098626,0.01884454505137472,0.02457617444039248,0.008776807464697679,-1.1584290144018132,-0.01860656434380269,1.3078374088313338,-0.02123794902027509,-0.014515681168176977,0.033878127941392035,-0.05756579899170527,0.6640625
-0.10472283027328799,0.01490278026341663,-0.0008993732078023569,0.010777271648009644,0.012215439075584318,0.01573859268537514,0.0060399576865024455,-0.7546577054742952,-0.011446635865504888,0.8508372173062959,-0.013327801446836738,-0.00993461929169018,0.021747944077510246,-0.037785954018942594,0.671875
0.16216868712438928,-0.021670570698832166,0.0018539109301844137,-0.01245836799666246,-0.019521611966252017,-0.026530184212166234,-0.007064784003028612,1.1759671967609142,0.02279899370846995,-1.3325276896659983,0.02449167472050504,0.012006510521234094,-0.036279946755250994,0.05681685880061227,0.6796875
0.23632206588195187,-0.03183992697666015,0.0026191382470310736,-0.01892178404127322,-0.028348745128803268,-0.038271983345878016,-0.010709665738771693,1.7123077726508191,0.03231448956718803,-1.9385501748764624,0.03499544603879633,0.018109991229459936,-0.05240726958174388,0.08309878612737062,0.6875
-0.0035780616568905246,0.001028745408372867,0.00014456330688024063,0.0019585771937477283,0.00016870311219325116,-0.0002745810011972697,0.0010666121276026595,-0.02323790341532651,0.0015328931588453251,0.0245718686330271,0.0009981589600153722,-0.0016073692519698965,-0.00025791227966832377,-0.0019448875074870302,0.6953125
-0.1264031345986905,0.01786847772738031,-0.0011226495133541713,0.012659297384426272,0.014779042324017218,0.01917983174320396,0.007100868076101423,-0.911937911838717,-0.014228551993687862,1.029138568804415,-0.016404389598368055,-0.011712184769059502,0.02644480921458968,-0.04549264050013597,0.703125
0.10896501443032149,-0.014369772997103673,0.0013049858112710849,-0.007819617227673912,-0.013192837357668121,-0.01809816194399155,-0.004449430553223922,0.7906423134873556,0.01596982191163424,-0.8971634072798668,0.016951337280325517,0.007625254002431431,-0.024718406916380897,0.03793373188134318,0.7109375
0.2889439409747361,-0.039031791363655276,0.0031614676589652533,-0.023489927288897733,-0.03458926993298543,-0.04660669584331087,-0.01328621136272555,2.0927495569358046,0.03906285434502799,-2.3697836573248656,0.04245415026563101,0.022420521143564125,-0.06384387313370571,0.10173783546759221,0.71875
0.051496825503446864,-0.006507416925013025,0.0007121612256243791,-0.002831490115879593,-0.006367124585998377,-0.009003884337160201,-0.0016334199856001459,0.37517321687086697,0.008595907007178825,-0.42655341353923226,0.008803671314767798,0.0029110627736966435,-0.012227387593494028,0.01758105422640032,0.7265625
-0.27537317050968313,0.03827743989616995,-0.0026596617899698636,0.025619961230855946,0.032491777268830103,0.04276579828004269,0.01441335674886865,-1.9894893097373654,-0.03334641702378475,2.248178721672861,-0.03751616766808586,-0.02395387647210093,0.05883582940696138,-0.09828021685661102,0.734375
-0.23303385558744721,0.03248503277877167,-0.0022229741908599745,0.02194227808736226,0.02746694162673186,0.03606434232329879,0.012338775607723035,-1.6833041631873604,-0.027914245757814603,1.9015375917327246,-0.03151598423113743,-0.020477760991878594,0.0496442510590516,-0.08327659202304614,0.7421875
0.028574140334649584,-0.0033537880032693023,0.00047570592504367966,-0.0008273004861443059,-0.0036277158296977286,-0.005366608097624887,-0.0005025038760267121,0.20925951765372536,0.0056566157379137815,-0.23924553451979044,0.005554133424796272,0.0010229084104879142,-0.007223032255791721,0.009449187853540368,0.75
0.07656793981726212,-0.009935362902376952,0.0009709490341264124,-0.005011987084290383,-0.009339197841255436,-0.012971714631219693,-0.002861556091049495,0.5565948849706502,0.011819829361420849,-0.6318439873274888,0.012355282659302427,0.004970499195818396,-0.017670757760250646,0.02646223094731436,0.7578125
-0.10170451825988602,0.014480311217526784,-0.0008679475991330465,0.010501303392257853,0.01184244589460233,0.015256597154006726,0.005886700556328792,-0.7330424120706267,-0.011054503803124649,0.8270898754468349,-0.012902236810023365,-0.009678788686155055,0.02106869113644889,-0.03671952327260485,0.765625
-0.19899385502405162,0.027804519858965752,-0.0018715453956238155,0.018973638418049995,0.023402427412971598,0.03066431761627843,0.01066163006201835,-1.4369582603084683,-0.023543570219799734,1.6232201583136618,-0.0266846579200469,-0.017673424954203033,0.04222220892223722,-0.07119559062522285,0.7734375
-0.12748738030686557,0.018008313945260975,-0.001133890444842054,0.012752870503931677,0.014905048446907728,0.019345412711669226,0.007151652952459781,-0.9197013928653344,-0.014372804212196144,1.0380378426355115,-0.01655530009339894,-0.011795775622450122,0.026692815077711884,-0.04585326182332726,0.78125
-0.033077621298574854,0.005080443316790196,-0.0001600163964416181,0.004533107191247333,0.0036901711798597364,0.004399735762085464,0.0025188365345128715,-0.23661977263309472,-0.002256534289221672,0.265406201068325,-0.003184517447977668,-0.0040392625066346345,0.006174498385121247,-0.012407314970682813,0.7890625
0.053085604020684164,-0.006714788690591474,0.0007286479842457453,-0.002967156577619602,-0.006544996701797581,-0.009244634848934112,-0.0017073867693528214,0.3867791491589833,0.008804556721427513,-0.4398525232145067,0.009023316715875973,0.003035184259840307,-0.012564911386461453,0.01811670711610384,0.796875
0.2002656772071785,-0.026876915030814852,0.0022467933103510946,-0.015772486307276,-0.02404109881385335,-0.03255636942518844,-0.008930660965437022,1.451431001883918,0.027690586932735177,-1.6444280459572935,0.029885217775466245,0.015127409060424275,-0.04456852334868586,0.07028644410710852,0.8046875
0.31248106768295686,-0.0422615728539239,0.003404535858960245,-0.025535874203005314,-0.03739090474353824,-0.050331582434830865,-0.014442884317153168,2.2630807903453745,0.04208492375376856,-2.5625918581885716,0.04579260840856539,0.024356140362276017,-0.068963091175191,0.11008097973165239,0.8125
0.21335976764796621,-0.028694575111484297,0.0023822810279033953,-0.01691222394262341,-0.025619832569902967,-0.034637123451015224,-0.00958281173408171,1.5459674723407353,0.02936222313249618,-1.7510204114854215,0.03174697276708477,0.016220809993806255,-0.04741273105136789,0.0749687436707888,0.8203125
-0.02195800647814606,0.0035450807628768506,-4.5222338715001144e-05,0.00356313780407138,0.0023525476158676607,0.002627823684979042,0.001967933738937507,-0.15635835634384182,-0.0008317708705594478,0.17497989872756242,-0.0016020248224057842,-0.003115667543308253,0.0037425285249847954,-0.008434875275809842,0.828125
-0.11652958596419109,0.01651550526919685,-0.0010210998089380254,0.011793435045224019,0.013606294306634854,0.017606726223618856,0.006615587492917608,-0.8405607281411961,-0.012963440912333795,0.9487606351909237,-0.015006370091021369,-0.010896059773423037,0.02430120935685144,-0.041972117522580586,0.8359375
-0.0035662353779879045,0.0010511164521380975,0.00014397470317013903,0.0019655704502074124,0.00018956235740750347,-0.000278277964650893,0.0010754543515319526,-0.023419992445520968,0.0015327872405678066,0.023953536238713023,0.0009996190909579543,-0.0016214299537247075,-0.0002520926413129624,-0.001952556798080596,0.84375
0.08272046443316704,-0.010773581137521481,0.001034191286136265,-0.005541643447339729,-0.010067631775942422,-0.013943211122173184,-0.0031608594193969987,0.600952644259716,0.012604642113492551,-0.6824135851370265,0.013228510668587688,0.005470500432551153,-0.01900599947665646,0.028634225291579368,0.8515625
-0.014082987330864268,0.002472885410605915,3.5989719241054176e-05,0.0028815261383092565,0.0014300547640814555,0.0013783139343418107,0.0015856994917575402,-0.09898637295104049,0.00018614705864052137,0.10972724943892034,-0.0004832684802535421,-0.0024756254977447646,0.0020357675631859995,-0.005650218824472056,0.859375
-0.16705611989223612,0.023419931294118748,-0.0015417251340797006,0.01619160552068001,0.01960781204593426,0.025597335014472304,0.00909124823327699,-1.2055016964675889,-0.01943869065801327,1.3616202123737333,-0.022156127798371904,-0.015041284374861671,0.03528482438209659,-0.059855420150810364,0.8671875
-0.21910469140931543,0.03056280930670102,-0.002078924226638766,0.0207224406095662,0.02580085716510391,0.033850703224799904,0.011649977864290246,-1.5824196729231577,-0.026120609476193733,1.7876947321581436,-0.029537894203254825,-0.019326913425675628,0.04660133103761012,-0.07833139065231641,0.875
-0.18719811012549886,0.02621882871601544,-0.0017505803400971196,0.017951563865260926,0.022020987053629683,0.02881960933385414,0.010092149772156894,-1.352029039973279,-0.02203705667979287,1.526740305944835,-0.02503040405639415,-0.016721246233131197,0.03967602806677949,-0.06706815802199594,0.8828125
-0.12433516023072777,0.01761615345491784,-0.0011024481942201163,0.01248312936254301,0.014552004895078225,0.01887176689627893,0.007008936693650192,-0.8970671973468066,-0.013975035114477783,1.012243216333572,-0.016128068336846612,-0.011560016587441832,0.02601604262764532,-0.04479521821098263,0.890625
-0.015455738745234305,0.0026748694060598583,2.1464708335287906e-05,0.003000308993881434,0.0015964017123551786,0.0016127492273821386,0.0016562406835849157,-0.1088197478233073,5.4410198878980835e-06,0.12104997889865284,-0.0006891650380344845,-0.0025971480112361557,0.0023365507542730825,-0.006166662215655959,0.8984375
0.10621928992824563,-0.014025307499127658,0.0012776219306821354,-0.007597820837545181,-0.012882954671647871,-0.017675233066799575,-0.004325790646366282,0.7715034990766205,0.015628746689236587,-0.8745994562330557,0.01656627104455378,0.007419902379039154,-0.024129551805788484,0.03699242791765683,0.90625
0.14961439720665515,-0.019969945652133694,0.0017252682822855526,-0.011372456252395654,-0.01804113978135288,-0.024548882951461425,-0.0064550753117755206,1.0849136505681982,0.0211933699938624,-1.2294953782335738,0.022717913944448873,0.010986081338219477,-0.033563980264776534,0.052369910385720315,0.9140625
0.12372913938875481,-0.01639868226428027,0.001457402105539968,-0.009108775671100808,-0.014949968443451055,-0.020440928622537647,-0.005176332312156868,0.8973187280328694,0.017859885842585372,-1.017790240200357,0.019043783769977465,0.008845547089469512,-0.027923307933491088,0.04318121279864671,0.921875
0.11946650221033692,-0.015802129548776495,0.001412959051665227,-0.008732819562604468,-0.014435199581977096,-0.01976384697980499,-0.004963665813999693,0.8666854963906432,0.017309972502261125,-0.9832059638886502,0.018436410050329664,0.008488907392367797,-0.026989073904780097,0.0416727793170495,0.9296875
0.13021643614776562,-0.017287216632940652,0.0015241995122216695,-0.009675929769898969,-0.015721170313780296,-0.021470905894704483,-0.005495829930576679,0.9446478152247998,0.018699181993582486,-1.0709196164036952,0.01996137341797444,0.00937934893124267,-0.029335869455217045,0.04548952821398485,0.9375
0.08086942219296488,-0.01054255937847352,0.001015677134267814,-0.005391093283939101,-0.009867218240707226,-0.013658558282343653,-0.0030784804013334914,0.5875520691529343,0.012377332857414724,-0.6664759660071641,0.012970736190906567,0.005332780884358529,-0.01862241902213998,0.02799576340135667,0.9453125
-0.000794997058236303,0.000644175885791711,0.0001733887967252681,0.0017164396679945904,-0.0001593648702285328,-0.0007249066826850952,0.0009303428470530902,-0.0032388626200223866,0.0018987797985512748,0.001717035237427936,0.00139956614436571,-0.0013781963905653664,-0.000868506429767368,-0.0009514897432566018,0.953125
-0.03671987353288045,0.005576251145731191,-0.00019745515465256053,0.004852196489667599,0.0041232223522285885,0.004966321287603405,0.002697660699007726,-0.2629282360426688,-0.002718426237181305,0.29483835667087027,-0.003691137123655605,-0.004338001779260512,0.006956314379349623,-0.013681780231150043,0.9609375
-0.06414763454870745,0.009346177916484458,-0.0004808654664599924,0.007245700672893787,0.007393689304221387,0.009314395840465879,0.004048102715579262,-0.46137654974624376,-0.0062454456642563345,0.5189668687944432,-0.007581493403161061,-0.006600430808068379,0.012930618596136685,-0.02340955538429699,0.96875
-0.14967978927702363,0.02107099447398505,-0.0013636413650469626,0.014686668941698261,0.01755889140998931,0.022865524886032215,0.00824810961657478,-1.0804417950422043,-0.017224507183277712,1.2196992193222502,-0.019708911158382334,-0.013632195426816712,0.031523306477290305,-0.05373890572351601,0.9765625
-0.2041886455715037,0.02853450058901552,-0.0019259837100073292,0.019424440292970604,0.024027768263776738,0.03149947939139979,0.010921116202809025,-1.4748404359431118,-0.02421986842047189,1.6665266583407534,-0.027436725732671488,-0.01810702559662116,0.04336642054901451,-0.07305896195109564,0.984375
-0.10258568008690001,0.014603071114332011,-0.0008774105624228888,0.010581808440390654,0.011943789892979671,0.015406014566831092,0.005929587877608621,-0.7395250715803869,-0.01118090365812792,0.8347263797741895,-0.01303485573674187,-0.009751416793262826,0.021276300268322782,-0.037035194063337065,0.9921875
0.07181922687119933,-0.009295701612020382,0.0009222140445268109,-0.00459190059748909,-0.008782460069798905,-0.01221586581590012,-0.0026316840249479413,0.5223711409940611,0.01120359808188693,-0.5933979649855268,0.011685895972777315,0.004580674969358811,-0.01663755758994419,0.024780140695306884,1.0
0.1253007307698318,-0.016615780763894004,0.001473987182766874,-0.009245960866155516,-0.01513108374102673,-0.020684714267432073,-0.005253302618842966,0.9091801012811426,0.01807275637989831,-1.031304199547339,0.01926577112301593,0.00897115104049823,-0.028266857504039424,0.04372155287805765,1.0078125
0.04474040354788782,-0.005572737328007715,0.0006426924863380045,-0.002240940127271828,-0.005556726739584495,-0.007926645153318564,-0.0012974878561712948,0.32626237380103756,0.007736409752972524,-0.3714762324842323,0.007846457755295641,0.0023506372420990674,-0.010759642503287738,0.015164006671645176,1.015625
-0.020568427245538805,0.003369446291929938,-3.1117765400188786e-05,0.0034385599558604714,0.002195495578629878,0.0024134937015410354,0.001905101851352922,-0.14615557385112868,-0.0006490414489177865,0.16343908624832817,-0.0014090814643320335,-0.0030107590592234855,0.0034346414565534604,-0.007969083167417092,1.0234375
-0.0033851139124685325,0.0010066548631757384,0.0001463939928454449,0.0019458568988511154,0.0001483708106197646,-0.000311169987210397,0.0010589975489727196,-0.021690056602645755,0.0015541396210432326,0.022561668887612827,0.0010304200310957607,-0.00159428305691275,-0.00029850020787580434,-0.001864025324347449,1.03125
0.04536781159161917,-0.0056730916021554625,0.0006496397295596321,-0.0022930933450103857,-0.005639623283917091,-0.008034545132968323,-0.001332722823519712,0.3311576905349798,0.007816878003212431,-0.37691908050526557,0.007943487517234235,0.002412075628390082,-0.010892817957629728,0.015417084986180576,1.0390625
0.07609114357013308,-0.009875919910204296,0.0009665502656117157,-0.0049675603876562936,-0.009284072856942983,-0.012900242521940376,-0.0028383839217296196,0.5534051623460952,0.011765333801888978,-0.6283497947320558,0.012295609828241004,0.004934844880129316,-0.017571170557168735,0.02629973138107057,1.046875
0.048440628730866186,-0.006081326337220576,0.0006808535505149085,-0.0025623549993911855,-0.005995848942366209,-0.00851783857402641,-0.0014801129951491233,0.35306339557089633,0.00821268327182852,-0.401687947109705,0.008371560661887826,0.0026586370917762742,-0.01156112359710335,0.01649133678511056,1.0546875
-0.04262185411124703,0.006397067101224648,-0.0002590274494714972,0.0053662252837761515,0.004829081575103013,0.005907248671789043,0.002990350504030553,-0.3061030478465651,-0.0034822505238376027,0.3436107288593355,-0.004535102794161888,-0.004830527789764982,0.008238849410269223,-0.01578898176125817,1.0625
-0.07726340254987009,0.011137629783879022,-0.0006164350508597946,0.008384783460131853,0.008945492968929483,0.01139193596984974,0.004689826576320872,-0.5568142441302661,-0.007931592904991716,0.6269226210841594,-0.009440476663642538,-0.007677900476901761,0.0157764886565961,-0.028060700878819983,1.0703125
0.024200453894924957,-0.00277472955869182,0.0004305727240041143,-0.0004479341958427649,-0.003124313117494296,-0.004680701160536709,-0.00029457237130278057,0.17737520876190713,0.0050896222279599316,-0.20317794663819458,0.004940561201377096,0.000668238026620035,-0.006279619853080941,0.007914065885856846,1.078125
0.06950243630144673,-0.008983031977628677,0.000898019653170209,-0.0043950282668111,-0.008516011684085,-0.01185268298796375,-0.0025202863599333137,0.5052096852999416,0.010903182667837795,-0.5733656170200969,0.01135552638666057,0.004395456730515024,-0.01613288640875374,0.0239667932236814,1.0859375
-0.11492322525055167,0.016300522013562156,-0.0010047976794638365,0.01165686923515764,0.013416534669345611,0.01736322577069951,0.0065375253017087645,-0.8290025719653052,-0.012762815714834466,0.9358273853525928,-0.014786717237138513,-0.010770039924149743,0.023957745751754047,-0.041424107039923434,1.09375
-0.2521695683014164,0.03511782711510203,-0.0024207970059025234,0.023606313499315763,0.02974581823165972,0.039101333519963685,0.013280272397497538,-1.8217743130224329,-0.030372172451767515,2.0582324840568744,-0.03423543184945107,-0.02205872643689259,0.0537977865351827,-0.09007898238276826,1.1015625
-0.00646518389497332,0.0014429439066549342,0.00011431510822894065,0.0022218783276749116,0.0005337589718429243,0.00017948189618717628,0.0012161266120271417,-0.043961967472523136,0.001160076321168503,0.047067170137371356,0.0005925864702825255,-0.0018578386019274483,0.0003838239010186699,-0.002964539516335514,1.109375
0.31847902367966224,-0.04310045716109181,0.003467134894681013,-0.026065273365503593,-0.03811254666354953,-0.051293438581075074,-0.014743069791788044,2.307031727113999,0.04285989203984511,-2.611818848788641,0.04664868123751401,0.02486485618969772,-0.07026615208897041,0.11224135440909246,1.1171875
0.18315736403336008,-0.024563401856504366,0.0020713872640383216,-0.014292912447875516,-0.02203214213245466,-0.029862695998003445,-0.008101824080851356,1.3280154251370067,0.025499294148124425,-1.5040929628156658,0.0274716769306388,0.013746491625323695,-0.04086007042931686,0.06427102953706697,1.125
-0.20733200535094107,0.02895791401834406,-0.001957377148581663,0.01969457093424466,0.024401483586698816,0.03199033416653365,0.011074127935470674,-1.4972220506632832,-0.024606145648076932,1.6914045305450636,-0.027872047952498064,-0.018360976535794896,0.04402874791033762,-0.07417394880019205,1.1328125
-0.18588330736325676,0.026037201064744987,-0.0017368470678919843,0.017834510632683338,0.021864786557137635,0.02860441763633143,0.010027607282298423,-1.3423471159241607,-0.02185976809946592,1.5158656845448477,-0.02483974183669107,-0.01661122082175573,0.03937971391731533,-0.06659479597397897,1.140625
0.20352240297159796,-0.027318805538295573,0.002279931255469209,-0.01605233684942577,-0.024429005762223555,-0.033066099201717186,-0.009089398916309938,1.4747561953089672,0.028098963035201322,-1.6706337370064854,0.03034209143857144,0.015395095233369223,-0.04525991612852703,0.07144426046672078,1.1484375
0.2813958879499959,-0.03800728617036702,0.003083693721485194,-0.0228325130132127,-0.033697321681053057,-0.04541078567797869,-0.01291871465427848,2.038419556618928,0.03809210681832842,-2.3079711724332497,0.041384255689981234,0.02180675652987185,-0.062191808743923195,0.09907755348968565,1.15625
-0.055158757647271364,0.008087809692958083,-0.0003873933704441216,0.0064521385573366235,0.006304650050950871,0.007878097910914005,0.0035972639572437316,-0.3961393490931773,-0.0050829000783475745,0.4458877602599767,-0.006300971730521508,-0.0058459324266909056,0.010956077556614346,-0.020202327877468333,1.1640625
-0.22047097235614374,0.03073976178843739,-0.0020924864750944093,0.02083775074383152,0.025959495354296376,0.034061897950581406,0.011713289550433038,-1.592275509502901,-0.0262909123733876,1.7986874279402485,-0.029728130408029442,-0.019435101407523997,0.046888057316300996,-0.07881517276324598,1.171875
-0.057490328229080186,0.008432144914331325,-0.0004119118821187996,0.006659792986851137,0.0065955612805981825,0.008267408744079963,0.0037198645249593085,-0.413574312451326,-0.005388564894790109,0.465253685945938,-0.006642897085169096,-0.006051597255659134,0.011473981995875267,-0.021074558925887086,1.1796875
-0.0318554913893991,0.00493973365018554,-0.0001483582906935225,0.004435217526820498,0.0035569008441710417,0.004219924956497179,0.002467733378914666,-0.22816350462574617,-0.0021100587840130417,0.25560352200008396,-0.003019428562372562,-0.003954689590822405,0.0059178730587765805,-0.012000169499039164,1.1875
-0.2450461748649202,0.03414174778324057,-0.0023475498533889446,0.022985446757073088,0.028895965026780535,0.03797742571114156,0.012930853036751932,-1.7701833081731824,-0.02946039032637138,2.000146470869555,-0.033227850407388355,-0.021472745023513047,0.0522571925007887,-0.08755306024254918,1.1953125
-0.2453598750936765,0.03415946809180119,-0.0023499454515829915,0.023003014092950882,0.028919441027071353,0.0380115387625414,0.012938507021663256,-1.7722774024769352,-0.029487332792773636,2.0027820917344306,-0.03326131530906059,-0.021484187096396073,0.05230691713710277,-0.08763961210207682,1.203125
0.07552668531115189,-0.00981491242780603,0.0009606952382775763,-0.004924596414772854,-0.009232126165734999,-0.012816052521115229,-0.002816474531672527,0.5490074935923509,0.011688694208519182,-0.62307772734898,0.012218496921347695,0.004896249606971847,-0.017455594601476564,0.02611603686529929,1.2109375
0.28711722152434427,-0.03878992253461985,0.0031430493321082747,-0.023329459909373795,-0.03437599872703225,-0.04632347550805338,-0.013199030290161163,2.0795609791205547,0.03882867087220778,-2.354916777415087,0.04220129708579079,0.02227897909961513,-0.06344472715251794,0.10111422037635763,1.21875
0.21434583404939667,-0.028806576351459504,0.0023920263093856354,-0.016990876782900694,-0.025715857601693506,-0.03479488823217536,-0.009623481424088018,1.5531636714688593,0.0294875964414575,-1.7598018850564425,0.031884486902588334,0.01628932744389198,-0.04762297548814715,0.07530924441415267,1.2265625
0.15536367979157487,-0.0207344936293762,0.0017838633386108933,-0.01186497725197156,-0.01870950676487064,-0.025455707339648703,-0.006731086011660837,1.1266703614130564,0.021928382407057054,-1.2769576563730276,0.023525819824657953,0.01144602081152092,-0.03480947623061221,0.05439868203159737,1.234375
0.24011821074291453,-0.032364888347461825,0.002658587590107444,-0.019249711272089395,-0.028798568015444483,-0.03888294138776454,-0.010896862596375744,1.739906002061752,0.032810261614237377,-1.9699906690862399,0.03554021269354655,0.01842345676904532,-0.05323898587193009,0.08445217769996155,1.2421875
0.22787505505716987,-0.030692787438663684,0.0025323052964903825,-0.01818227641646806,-0.02734814561393063,-0.03694407330648015,-0.010297499288134254,1.6512306172110023,0.03123415379478918,-1.8697397149565116,0.03380787244058717,0.017420289020205364,-0.05057199821357667,0.0801250147061305,1.25
-0.0042046983043866875,0.0011169078020507354,0.00013791886719740238,0.0020233352321221347,0.0002508896605629799,-0.00018089108611225613,0.001098824686246262,-0.027861154253355513,0.0014473814839844948,0.028949507868293617,0.0009160729004692362,-0.0016641818496203927,-0.00011226525768709476,-0.0021509796105170322,1.2578125
-0.2798855322358155,0.038908822945240444,-0.002706402153828238,0.02601881924686679,0.033037703568119345,0.043492927310083654,0.014638937101335112,-2.0223087299688047,-0.033928057841064035,2.284779590341891,-0.038160752178968756,-0.024336086112068864,0.05982305952877243,-0.09990772864350389,1.265625
-0.43670314446715686,0.060410268775775586,-0.004324641014242699,0.039664226925694525,0.05168436434274051,0.0683382594603571,0.022342640020128604,-3.1568638468909644,-0.05405122485142288,3.5686627773409842,-0.060392741702192346,-0.037231308384669946,0.0939167427266191,-0.1555209379700482,1.2734375
-0.4432691768890117,0.061308516740797056,-0.004392575467077346,0.04023382361868885,0.05245717128013545,0.06937580934432235,0.022663970866163646,-3.2044418076547014,-0.054898070291962885,3.622910763208902,-0.06132323563653935,-0.03776640273191992,0.09534440781725523,-0.15783587731084056,1.28125
-0.27893271939654374,0.03877379213053691,-0.002696749026386323,0.02593187359667277,0.03291299118713027,0.043336611258179225,0.014590330028027383,-2.0153999436671066,-0.03380952935580774,2.2776975242331017,-0.038024896179777994,-0.024249348022239544,0.05961573871295456,-0.09955043915399672,1.2890625
-0.002107770472071512,0.0008267461604750464,0.00015980429165244952,0.0018389958815464547,5.783084650601623e-06,-0.000517501244912903,0.0009964835280815308,-0.012305585156441827,0.001723313308868258,0.01151697719112467,0.001215103776533925,-0.0014898135616092738,-0.0005673017355156555,-0.001407148640739468,1.296875
0.1913585679422042,-0.02568133210427221,0.0021558333576347333,-0.015000938192661111,-0.02298701824219755,-0.03116018060215155,-0.00849950767393273,1.3874884902166307,0.02655727168550001,-1.571857719294594,0.02863329439433593,0.014411245950626312,-0.04262728780902293,0.06716379121668467,1.3046875
0.22661772952884252,-0.030499437219159084,0.002519132820383732,-0.018070994717370337,-0.02717747167685314,-0.036738399456444804,-0.010227377775168849,1.6421443506510673,0.031077061138751923,-1.8598576571727132,0.03362413622066939,0.01730508764866373,-0.050295464808582,0.07964910233288469,1.3125
0.275443793372413,-0.03718471608835445,0.0030225688633297204,-0.02231947553254699,-0.03298737273586546,-0.044467252450817854,-0.012625229296392473,1.9949007262430145,0.03733333982276377,-2.259167346890984,0.04054083200416721,0.021316538599757674,-0.060914807559301926,0.09695483283656774,1.3203125
0.4091157727274396,-0.055513734582299155,0.004401890443948016,-0.033952087179798425,-0.04888536433095451,-0.06564352768824541,-0.019192328953058356,2.9621483140506726,0.05448632223524765,-3.3534750773903497,0.05948993154624982,0.03230759293734776,-0.08997687386599788,0.14435254018829105,1.328125
0.40058785651749584,-0.05436075038279853,0.004314238217238809,-0.03321036157689126,-0.04787662995885084,-0.06430228515483083,-0.018777654123988408,2.9010000784116183,0.053397906580887784,-3.283899664557851,0.05828760346208033,0.03161288525502113,-0.08812087581634892,0.14135037533399433,1.3359375
0.11937846821320183,-0.015823927103744143,0.0014128292257798499,-0.008736178589835532,-0.01444580894782189,-0.0197633035531061,-0.00497048672197618,0.8665476560725605,0.01731153080538132,-0.9820131822423672,0.018431659791026386,0.00849880866199547,-0.02698186429652238,0.04167078065140079,1.34375
-0.18920331518064903,0.0264830365195282,-0.0017713899067991412,0.018123169925215645,0.02224780174341203,0.029124319888266064,0.010186095980894063,-1.366518705068932,-0.022294311822394487,1.5439145763127562,-0.025311063327504997,-0.01687517659905796,0.04010926091300838,-0.06774162985732425,1.3515625
-0.2993673120298379,0.04159527799228615,-0.0029081962223452555,0.02771490712599462,0.0353561571470255,0.04658361881130104,0.01560047503089513,-2.1637657791931044,-0.03643386814923922,2.4451047847451317,-0.04092857203301054,-0.025941093805261634,0.06406292176213814,-0.10682075265993736,1.359375
-0.34070697140544043,0.047252747814998365,-0.00333422286820258,0.031313874713646904,0.04027280688631434,0.0531269887325274,0.01762858371888029,-2.4624110680872318,-0.041734050902191434,2.7825578812080933,-0.04678153698292658,-0.02933881050310858,0.07304845885829,-0.12147045007202929,1.3671875
-0.4288958192062877,0.05931891338936909,-0.0042434330251379165,0.03898649189354269,0.05074689631690312,0.0670844731606291,0.021952033482374286,-3.1000172960252206,-0.053047601924781224,3.504160636709755,-0.05927330869835489,-0.036577482118620906,0.09221535003491986,-0.1527074131616993,1.375
-0.34597694268270074,0.047949746377153976,-0.0033878690041218534,0.03176608788308601,0.04088028275186464,0.05394994319181675,0.01787831656169124,-2.5002214598528565,-0.042408258248411226,2.826216953176099,-0.04752285702885935,-0.02975459007533665,0.07418559631109141,-0.12330788855956927,1.3828125
0.03599108407519628,-0.004384985281172988,0.0005525396073306035,-0.0014795089491012037,-0.004526499053817468,-0.006544025850577124,-0.0008717544747513654,0.26299601584822724,0.006609755234353069,-0.2995419530751256,0.006608245053414072,0.0016395932465044492,-0.008855612337651622,0.012079745578766994,1.390625
0.3856504838689746,-0.05229275946544204,0.0041597119474148765,-0.03191060973729301,-0.04608664112602562,-0.06192578775011234,-0.018035293917418024,2.792732459482268,0.05148544974894547,-3.161667385422909,0.05616553070103775,0.030374749609799263,-0.08487297527492943,0.1360229704663385,1.3984375
0.35406736566270397,-0.04796519485363736,0.003833846625946101,-0.02916055718011136,-0.04233058741869626,-0.056925312680792726,-0.016485189008835055,2.5642839380155578,0.04743090160102026,-2.9033903277254196,0.05169033215334871,0.027777965877185843,-0.07800353277262866,0.1248338614107647,1.40625
0.07316657615991037,-0.00947801454104047,0.0009359067924874369,-0.004714101156426175,-0.008944419368270812,-0.012430364210686577,-0.0026973224719119377,0.531877170736956,0.01137447434793528,-0.6038172034391626,0.011874241739901705,0.004693912384107689,-0.01692801415277503,0.02525904422910688,1.4140625
-0.09979632001368356,0.014216408732106759,-0.0008482741075322319,0.010336311125739156,0.011610409839156184,0.014967064708279701,0.005791494747414685,-0.7195530842298473,-0.01082387738861197,0.8122247819129702,-0.01264195256867339,-0.00951777866846887,0.02067381859951324,-0.036058464679166506,1.421875
-0.05321111368100615,0.007831547320190311,-0.00036743129597501564,0.006281990160943572,0.006075822779950082,0.007581913608583652,0.0035046096604030986,-0.382385018140313,-0.004836934023456798,0.4304858782536913,-0.00603377673058301,-0.005689602207969765,0.010535808630247497,-0.019540042707680817,1.4296875
0.08732470652867878,-0.011414387558174277,0.0010821438777194547,-0.00594354856673139,-0.010618794368349223,-0.014683025425259285,-0.003390496727500223,0.6344101025106849,0.013202194444835003,-0.7203562446941967,0.013888738245354115,0.005854114359107751,-0.020018953403671266,0.03028693318925911,1.4375
0.17390539396496155,-0.023265182374769922,0.001974728208260485,-0.013474014047201263,-0.020904087790295522,-0.02839328067820672,-0.0076367445963596535,1.2606679532274911,0.024305943628646454,-1.4289094294922233,0.026156305532033016,0.012964651310974844,-0.03883011396612766,0.06098089200669862,1.4453125
0.1105418193268861,-0.014589265621040723,0.0013210369686499728,-0.007962886601797043,-0.013378662295392538,-0.018355750877894407,-0.004528244070717891,0.802279842773511,0.01617190831350196,-0.9099908114094685,0.017174315064840996,0.007760967115209997,-0.025052198550411606,0.03852118224500563,1.453125
-0.06489186702111635,0.009428378374759063,-0.000488020242870846,0.00729736371548981,0.007463351519399666,0.00942466041872714,0.004077415060947213,-0.4666750787073865,-0.006331482243624986,0.5257717625146303,-0.007683525246897893,-0.006648877163854512,0.013071347163729279,-0.023663438905585876,1.4609375
-0.1604620377823884,0.022520166153306924,-0.0014736062504761014,0.015614628230863275,0.018822411434473024,0.024562978688212948,0.008767751655406296,-1.1580682198252823,-0.018591830424846193,1.307853199335413,-0.02122740226194571,-0.014504051165061637,0.033841255692800824,-0.05755096886097942,1.46875
-0.07980600471411882,0.011492756413650279,-0.0006423428582300299,0.008604717834221285,0.00924583566763874,0.011805268634856177,0.004815529067975891,-0.5748973520319206,-0.008255075545485584,0.6480019651887509,-0.009808114194129311,-0.007887486028855712,0.016325706945187063,-0.028985780991380244,1.4765625
0.01663674524026696,-0.0017019465282102375,0.00035171617216628857,0.0002174481401974613,-0.0022102340135406085,-0.003455574880175108,8.725347809372342e-05,0.12263083020530281,0.0041088825815643396,-0.14106247211469408,0.0038495379181678136,2.9669339864821978e-05,-0.004622829924237084,0.005184274031676137,1.484375
-0.027487400790040705,0.004331913865221502,-0.00010318301316769751,0.0040505934222592735,0.0030283579701747094,0.00352617794232588,0.002249898658276994,-0.1963189883546716,-0.0015456487006400975,0.21997303832592602,-0.0023995824013572082,-0.003590238190595955,0.004959918074420929,-0.010445504306324231,1.4921875
-0.1307374999982843,0.018453486409498048,-0.0011674390033685129,0.013026736849184654,0.01528974910854791,0.019861403894337496,0.007310994757895155,-0.9429971781865548,-0.014780923936474306,1.064831582376073,-0.017019650268187428,-0.012062460920878055,0.02738679705264338,-0.04701779367759901,1.5
-0.1523208989962904,0.021406668107414678,-0.0013899024065934678,0.014908031449431983,0.01785510979737894,0.02327144196008313,0.008369580882801205,-1.0992861413147892,-0.01755082566839644,1.2413366830200885,-0.02007125531879475,-0.013833581152992153,0.03207850989149067,-0.05464959138542101,1.5078125
-0.08336468931831925,0.011975315989343102,-0.0006789594715636171,0.008917278876947876,0.00966998553167557,0.012353027959063683,0.004989641423216131,-0.6006971870479781,-0.008710858660850924,0.6766540490919081,-0.010299787651302012,-0.00817505470755546,0.017098424732803468,-0.030206930966465362,1.515625
0.040234854642343165,-0.0049521839623267155,0.0005960953717744549,-0.0018392887171229807,-0.005015768024848863,-0.007220976403963158,-0.0010758417459561887,0.2935900712576429,0.007151132751371184,-0.33518974064120904,0.0072137785294502455,0.001979432542969387,-0.009772921797482903,0.013594811488837203,1.5234375
0.17997686349130265,-0.024111710370058475,0.0020381390083929083,-0.014011964629907303,-0.021635051125498895,-0.029357982699840742,-0.007939728498757018,1.3048928879222843,0.025092567417324886,-1.4785835392548667,0.027017833620457506,0.013472904151538567,-0.04016265699467254,0.06312716437877461,1.53125
0.2191867103567316,-0.029497738518182232,0.002442749427373589,-0.0174299654849912,-0.026308221376343248,-0.03557214824919613,-0.009868490633109066,1.5886004572517674,0.030125305509549928,-1.7988843696648977,0.03257681441165261,0.016704233359806604,-0.04868835689937051,0.07703774164309977,1.5390625
0.0878725839948864,-0.011505597606179689,0.001087812080855815,-0.005996385920919883,-0.010701380626915653,-0.014771059337680722,-0.003422419299383096,0.6383231384438589,0.013266477593275674,-0.724003928120771,0.013967025052042186,0.005910145079059292,-0.020133587682783553,0.030495532403880497,1.546875
-0.06234628359076677,0.009084093576467943,-0.000461967260417497,0.007081280330108303,0.007162730747494,0.009030507017390766,0.0039534736336953435,-0.4486336004075253,-0.006014884438466099,0.5051638889635038,-0.007327978143608077,-0.006443556554422298,0.012529023899883276,-0.022774182721852238,1.5546875
-0.04780331297210622,0.007099639893599295,-0.0003119246316436024,0.005813304340828525,0.005443284980330985,0.006736220775618051,0.0032420074890517304,-0.3434111337668039,-0.004146371699601682,0.3860671875731745,-0.005275740495051296,-0.005254156511633105,0.00936945564126247,-0.017651161182829406,1.5625
0.058001764936202994,-0.007385652379494111,0.000779216818838907,-0.0033942384849488935,-0.007127952582850348,-0.010018302018341245,-0.0019476045791688473,0.4220139445621338,0.009432200520397378,-0.47969032433993997,0.009715761481812213,0.0034369108323436975,-0.01363022565689857,0.019842930627946755,1.5703125
0.06630694986809955,-0.008514487261125227,0.0008644852568029538,-0.004110368513459931,-0.008114877397814198,-0.011336738592389645,-0.0023521204076472325,0.48203903099923756,0.010495538369169314,-0.5477498428758752,0.010898055262355382,0.004116068130196363,-0.01543675123452987,0.022803687319934367,1.578125
-0.018188232838880762,0.003054339821011534,-6.898710911549199e-06,0.003245676231592081,0.001922201889884205,0.0020387432545610957,0.0017924069082090382,-0.12904084599607324,-0.0003471688523122196,0.14336157495363572,-0.001068385452495807,-0.0028236707767236636,0.0029266602896483706,-0.007119606533245056,1.5859375
-0.0715216210642717,0.010340497618408934,-0.0005564091560605511,0.00788145546423591,0.0082519545265959,0.010477482182071392,0.004403061471917661,-0.5144551188272197,-0.007186918504288364,0.5796264338908731,-0.008621731209733793,-0.0071950454674058195,0.014517702159796456,-0.02600019604599033,1.59375
-0.09296428469339889,0.013271787071694104,-0.0007775616747000873,0.009743109130302055,0.010798628015877557,0.01387054702474928,0.005453806620842438,-0.6694499961983532,-0.009936612236885816,0.7553401284819634,-0.011661416183205337,-0.00895289041566713,0.019182132324617733,-0.0335954437640114,1.6015625
-0.13876655611737404,0.019567551606361137,-0.0012507814716991787,0.013732168376498812,0.016253304346617585,0.02113307267564143,0.007709447087944007,-1.0012358616983226,-0.015817909007448082,1.130556612178969,-0.01815941125313418,-0.012728610985689826,0.029143756792210387,-0.049859034118735476,1.609375
-0.14702458246931993,0.020719442936732696,-0.0013364481660603582,0.014454769842560345,0.017245821305763923,0.022453003243519922,0.008121863966120147,-1.0614618373900644,-0.016881272967087094,1.1982327855029542,-0.019336755119708206,-0.013420193079936967,0.030939476051597654,-0.052824697542420314,1.6171875
-0.04194724090744877,0.00631217642399085,-0.00025199685534274487,0.005308148803331425,0.004751628361415313,0.005808808771238254,0.0029604401875799216,-0.3011583420821074,-0.0033945201140827353,0.3380124059429712,-0.004442339483103577,-0.004779481573921913,0.008092299620821723,-0.015574132202147185,1.625
0.09400236832995552,-0.01234527149146279,0.0011513461094297575,-0.006528682405954251,-0.011424423995272942,-0.01573989158975582,-0.0037234373970366696,0.682925185665913,0.01405738386997558,-0.7748644113638608,0.01483601133350548,0.006412043365569967,-0.021468461077216235,0.03266420837786861,1.6328125
0.12617399173639665,-0.016765116544436284,0.0014835389115729985,-0.009331545819506168,-0.015257513510416933,-0.020844523643171103,-0.005307269651750811,0.9158397068835558,0.018187215053338916,-1.0379914042240737,0.019400068153132072,0.009065122244590067,-0.028466448575458013,0.04409301277502621,1.640625
0.06019754765021669,-0.007705863398882713,0.0008024349603246393,-0.003588176456665646,-0.007406286596872666,-0.010383818698462348,-0.0020625067531825836,0.4380621934926047,0.009716090370335629,-0.49761664107850384,0.010040702116644646,0.0036322410020137893,-0.01412101381909047,0.02067092832617421,1.6484375
0.014368047477620315,-0.0014052419542622677,0.00032906292030855113,0.00040472231593377187,-0.001944723560588638,-0.0031114153928579243,0.00019492040238885827,0.10612351679686464,0.003831398440248907,-0.1225533193205916,0.0035372767713634725,-0.00014895518953942396,-0.004150423877865055,0.004385321716846291,1.65625
0.06526587369293352,-0.008384080135505689,0.0008541279987051195,-0.004021803284332235,-0.00799465205239751,-0.011175861627387375,-0.0023042730749259187,0.47461226965373887,0.010363924281395178,-0.5395998826986087,0.010755289594880538,0.004034282056610215,-0.015210878475528156,0.022439753700651696,1.6640625
0.15950519300094387,-0.02131645299528344,0.0018267650698158798,-0.012225258040458108,-0.019210124803018928,-0.026112294277687062,-0.006937307681740435,1.1568349281857182,0.022457804140310903,-1.3109742050090056,0.024118434170214042,0.011791957575262002,-0.035700394724916464,0.055880801881592966,1.671875
0.15541236666587305,-0.02076099169788297,0.0017847605163815302,-0.011873497189248168,-0.0187315246971782,-0.025463489660133783,-0.006739496231717668,1.1271592613982244,0.021930110681242197,-1.2768945262466966,0.023534898509003754,0.01146226481858445,-0.034814771293106485,0.05443098540698173,1.6796875
-0.0051599836608648515,0.0012558683548218289,0.00012795443343230874,0.0021010989115123643,0.00036608448741746037,-2.4050768169053342e-05,0.0011477479338184533,-0.03489920549403046,0.0013247538203117837,0.03750722049694468,0.0007711434796264603,-0.0017428732397519271,9.246083842603302e-05,-0.0025129674009050124,1.6875
-0.17087303985272884,0.023978690962227583,-0.0015820437841740857,0.01652939549597264,0.02008254089200306,0.02622212170901736,0.009289547184316018,-1.2338722882236173,-0.019935654606300035,1.3930315275929581,-0.022711853184886804,-0.015375648542036602,0.03612054287755155,-0.061260390575572456,1.6953125
-0.17611883998620387,0.02470033409291403,-0.0016363443833870297,0.016990959864309804,0.020711156779496802,0.027048267172967228,0.0095490824108997,-1.2716722541862098,-0.020606914760424148,1.4353802213972273,-0.0234489688788347,-0.015811016518731597,0.0372636371193394,-0.06310672464326503,1.703125
-0.11535553934957976,0.01636487003222421,-0.0010093094775546123,0.011699410311170604,0.013476014592205302,0.017425398898850173,0.006562348411156296,-0.832043530099485,-0.012813360086670847,0.9385990859724116,-0.01483868745344655,-0.010809882769492024,0.02405374381882059,-0.04156469092723236,1.7109375
-0.15420041858729536,0.021674765673274986,-0.001409629346651656,0.01507223767825505,0.018080619795727806,0.02358087570099939,0.008463955635343343,-1.113079593593601,-0.0177997233704495,1.257253061845054,-0.020348882100263397,-0.013992695636210957,0.03249499412318982,-0.055340679140644826,1.71875
-0.17040172641088458,0.023888870861550233,-0.0015764250152537345,0.016479829017494133,0.020006664970925857,0.0261444063315448,0.009257391945139927,-1.230060753541264,-0.01987460349573015,1.3895973802439276,-0.022643946632519105,-0.015320663068977603,0.03601456004488283,-0.06107933360061926,1.7265625
0.024071905398813084,-0.0027515477072168116,0.0004297078490612835,-0.00043972445381449266,-0.0031022353118169074,-0.004659494851384151,-0.0002866698300497975,0.17711741471824027,0.005082312925460457,-0.20272744863315995,0.004920937542689432,0.0006585209412871113,-0.006259906657628451,0.007865613822589091,1.734375
0.23914490208497668,-0.03220952629533912,0.0026479564013600415,-0.019152643109923626,-0.028664565895441352,-0.038719608024473176,-0.010841157069293107,1.7329581436555999,0.03267546220498625,-1.962904416919408,0.03539948415128435,0.018328879078321477,-0.05301001205204,0.08409959666742045,1.7421875
0.17148948510942108,-0.022939526325184763,0.0019497846209863994,-0.013267926291163542,-0.02062815643202204,-0.02800126988633371,-0.007520869076225373,1.243217664543041,0.023989822162882465,-1.408597905458175,0.025807292762064,0.012768847549232564,-0.038303073965405096,0.06010997224157362,1.75
-0.03764026618456589,0.005699931045729912,-0.00020717460309416325,0.004925291313780852,0.004220917281042061,0.005116308079991481,0.002739995793045877,-0.2697423550887396,-0.002841639194163401,0.3031805121369506,-0.0038279665333801594,-0.004410902697926646,0.007150846265727425,-0.014014437944005774,1.7578125
-0.02669019670591613,0.004187468729212121,-9.361667030270817e-05,0.003971293293414086,0.0029133191851333784,0.003376851171778136,0.002199280059995753,-0.19034054856956947,-0.001429825729822444,0.21330836465491643,-0.0022688397776368012,-0.003504662683493444,0.004761808751070091,-0.010122724263937052,1.765625
0.17384820133663764,-0.02328182983338962,0.001975087202757894,-0.013474858461490945,-0.020919278709327572,-0.028381643982279218,-0.007641346618169042,1.2604094039917462,0.02430435267296051,-1.4280876646631009,0.02615308172493378,0.012972475992013992,-0.03883157709787758,0.060955240145355936,1.7734375
0.24373687865827579,-0.032839443007717635,0.0026954435991087514,-0.019552801732026642,-0.029213797486593394,-0.03944427213207762,-0.011065877539831641,1.765784683091751,0.03326859341080044,-1.999984214472194,0.0360509749904451,0.018706296245474523,-0.05401449952473081,0.08571030800196137,1.78125
0.100406970296165,-0.013195339766167812,0.0012164808163162106,-0.007082720715373682,-0.012169759313526776,-0.01674273868628331,-0.004028987521603388,0.7288187822140264,0.014872382364536252,-0.8268663849401583,0.015731300233992707,0.006923555217324899,-0.022848932181741857,0.034898673705752274,1.7890625
-0.07950416302348641,0.01144528979651789,-0.0006393264638187166,0.00857000433212932,0.009210114269787425,0.011747309659805215,0.00479850693231756,-0.5726364997389876,-0.008216281448912502,0.6455634411386328,-0.009765255970619611,-0.007857335817559742,0.01626011579063928,-0.02886224792458891,1.796875
-0.1750714020543159,0.02453311507882577,-0.001624993034430025,0.016890423856527545,0.02056516609821691,0.026879844746200202,0.009488184931321557,-1.2640892639569918,-0.02047939890956361,1.4276011427594353,-0.02330279481381668,-0.015709165928548274,0.037032003248073035,-0.06272677474588167,1.8046875
-0.20124701393673305,0.028128096894418187,-0.0018951112610253956,0.019176222069797553,0.02368492014428165,0.031026612028007543,0.010777279804504158,-1.45365121360947,-0.02383546087324337,1.6415353946973221,-0.027008742163061615,-0.017866224091218436,0.04272537394364016,-0.0720092540864331,1.8125
-0.23543120368432624,0.03282471975884186,-0.002247987993783539,0.022153260542108807,0.02775992630931453,0.03644627737868088,0.012460077939103422,-1.7009044083465163,-0.028219922187224012,1.9210650842091233,-0.03185741889010024,-0.020682835643257867,0.05016209513816844,-0.08414143792708226,1.8203125
-0.3023587243156096,0.04199644206686737,-0.002938526849894528,0.02797282475861269,0.035712927189733464,0.047051905213201975,0.015745232862166336,-2.184805654997004,-0.0368096675474805,2.4690285720038623,-0.04134880324510409,-0.026183621443767947,0.06470937753965911,-0.10787457550282233,1.828125
-0.21891541903064005,0.030548616957096132,-0.002077491901616486,0.02070546640703873,0.025776954933057056,0.03383339856049474,0.011643343483942581,-1.5809451848633553,-0.026103850844653366,1.786619512333114,-0.029521683667762245,-0.019316675490088527,0.04656003066272364,-0.07828352958509242,1.8359375
0.19578673122812795,-0.026296095035059287,0.002201296339651732,-0.01538843721351274,-0.023535147642004803,-0.03186033047759201,-0.00872239228861597,1.4192913870061703,0.027113983424609703,-1.607255948647416,0.029260158483236567,0.014781306263906564,-0.04359989691075776,0.06874944180108644,1.84375
0.6297434419381366,-0.08576990667202292,0.006678764841163245,-0.053157406207446294,-0.07512287345342465,-0.10060159674430498,-0.030030484438342133,4.558901384650045,0.08280503626228043,-5.1592926974758315,0.09076778051334905,0.05045709133575612,-0.13793876863170823,0.2225977280050534,1.8515625
0.5113136141970446,-0.06953100865420954,0.0054569566813566645,-0.04285083050224796,-0.06103304946652683,-0.0818397560802296,-0.024213142959651282,3.7021880801098375,0.06761009186594898,-4.190453916712464,0.07397888707719737,0.040716988594223374,-0.1121898748328425,0.1806001751243518,1.859375
-0.09099161538874762,0.013027888864329899,-0.0007575532622916354,0.00957211524307154,0.010582224267942971,0.013571274591977102,0.005365766421685756,-0.6555079256355094,-0.00968131423765775,0.7391039155366768,-0.011392133300347995,-0.008805681099750707,0.01875197834613648,-0.032947147645222184,1.8671875
-0.45233217332283143,0.06256119478836562,-0.00448624980696615,0.04102663991695684,0.05354569326151755,0.07081404159629671,0.023113274812682032,-3.2701240238012024,-0.056055331785907915,3.6969013278773946,-0.06260889706814747,-0.038518479960042346,0.09731392289289674,-0.16106219743101116,1.875
-0.24816044919905866,0.03457785874850863,-0.002380032276122623,0.023260295170759313,0.029267900855372408,0.03847498510482262,0.013087718977631172,-1.7931878489923225,-0.02986238393068919,2.026181584453223,-0.033671076914938924,-0.021733054423870014,0.05293552271566356,-0.08867304452863692,1.8828125
0.07990429333826767,-0.010401336958003871,0.0010051455570771644,-0.00529572966251122,-0.009748213678671354,-0.013498398170649297,-0.0030281370676771093,0.580476521361914,0.012234175610710244,-0.6588863965024891,0.012831363140647084,0.005247224416778821,-0.018389193329734523,0.027658396734127427,1.890625
0.13714719184415797,-0.01826261981035262,0.0015963475955762046,-0.010283967579823583,-0.01656301971990989,-0.022577275697439364,-0.00584492788822677,0.9948246539171871,0.019586604011273656,-1.1275475773715522,0.020951660791611305,0.009962277392935084,-0.030848588222752875,0.047972457807465514,1.8984375
0.049170451892575774,-0.006198996096290193,0.0006886604774978037,-0.0026283906645763787,-0.006096675306402902,-0.008642051751202745,-0.001521880866193416,0.35820986370655533,0.008304318136611396,-0.4075519014216602,0.008482926761792353,0.002725700712906,-0.011729415111871012,0.01676902000756518,1.90625
0.026000229899971482,-0.003001750443522273,0.00044905821523870594,-0.0006073954365481766,-0.0033265128261432877,-0.0049586099172174835,-0.0003759210773355642,0.19034901656512201,0.0053288334115419314,-0.21792794019167744,0.005190322813514613,0.0008079190146948811,-0.006682664885764995,0.008518762168857054,1.9140625
0.03682757353351408,-0.004478611167400021,0.0005605257063103478,-0.0015464040656305814,-0.004609742309350931,-0.006665760979948952,-0.0009058869379111272,0.26882906479898444,0.006711853440130497,-0.30669512653443765,0.006718859334943195,0.0016935998465064813,-0.009026348425213177,0.012347634250961187,1.921875
-0.012676294516917623,0.002285742609125455,5.028749773595082e-05,0.002759693804790843,0.0012635985207331067,0.001163786211952599,0.0015170780925261255,-0.08881072725426377,0.0003609202850461979,0.09821354463315712,-0.000290490651639527,-0.002364667362315444,0.0017318211639077681,-0.005165699868437877,1.9296875
-0.11441695088722498,0.016207135210368526,-0.000998745418565327,0.011610491301133202,0.013348420136646928,0.017262414302474376,0.00650553746131872,-0.8246211154992311,-0.012687701622916327,0.9307912239108209,-0.014698997147839435,-0.010715678656021441,0.023840895478233884,-0.04119606720169174,1.9375
-0.1646819556133227,0.02310186387464794,-0.0015173893571980084,0.01598592226382807,0.01932920337938071,0.025226827846734138,0.008976401634829337,-1.1886371284427233,-0.01913812850823476,1.3423481739501846,-0.021823931054312008,-0.01485062280918372,0.0347694646797724,-0.05902810892859808,1.9453125
-0.07426593621679971,0.010736859573928541,-0.000585204049067983,0.008121274417210994,0.008593163231288059,0.01092439613340086,0.004545831278317633,-0.5349650776368301,-0.007543014290032773,0.6025463642893782,-0.00902096539902406,-0.007432268692331306,0.015121854914852784,-0.027020531177227556,1.953125
0.05167650174655136,-0.006512342848302807,0.0007138346535573001,-0.0028382113669185626,-0.006375987209467062,-0.00901532470842068,-0.001634556071864209,0.3763365589021301,0.008616868048996015,-0.42831923426319995,0.008823750963273942,0.002914849309823997,-0.01225530218702701,0.017611500362750405,1.9609375
0.027674135975201564,-0.0032408496693210843,0.0004666441624923346,-0.0007534730575465044,-0.003532948758218141,-0.005224168329390427,-0.00046188023065213765,0.20320780174485795,0.0055440312961241535,-0.23206239002411833,0.005429262447407381,0.0009517638326621058,-0.007044353037217496,0.009131086882057226,1.96875
-0.03482109438253092,0.005304028978806978,-0.00017756040367384693,0.0046800361825963775,0.003884894512476324,0.004663688073722569,0.0025999569514676135,-0.2488696218862618,-0.0024705708701795942,0.27967050089826134,-0.0034216516030793442,-0.004173936558889333,0.006533560361349473,-0.013002253881854726,1.9765625
0.11690498751270391,-0.015483801557462653,0.0013877037015642786,-0.0085253707792586,-0.014152489104880282,-0.01936556206762443,-0.004848493085144318,0.8483065820749855,0.01699670421095174,-0.9616435764387601,0.018079374368073692,0.008296523333012402,-0.026453586100022866,0.04077076207099305,1.984375
0.3079034917111854,-0.0416365935437517,0.003357583321222159,-0.02514228499669311,-0.03684638900215782,-0.049610369551236516,-0.014219187703982158,2.2297514760446897,0.041500988315800263,-2.524920222472402,0.04514436319059909,0.0239847892375969,-0.06797014779722169,0.10846146888185461,1.9921875
0.14040223347416012,-0.018669130714534316,0.0016289678566010924,-0.010558325594095383,-0.01692192677042362,-0.023077780918494935,-0.005990571744450502,1.0180222646915675,0.020002300601603067,-1.1545065564945147,0.021403624441088565,0.010207627593615199,-0.03154460382035614,0.04908590777823886,2.0
-0.23986549530294232,0.033435788854254175,-0.0022941708152732884,0.02253553186497625,0.028282663931101362,0.03715160063967108,0.01267734257534254,-1.732938852469206,-0.028798233441745077,1.9578145263963682,-0.032491948102059104,-0.02104698648881261,0.051131382067339165,-0.0857086590876621,2.0078125
-0.305035134295215,0.04234937372492729,-0.0029660104928242456,0.028200221498510095,0.03601696438536475,0.047471439678164196,0.015870677237978175,-2.2043681105155994,-0.03715929938434323,2.4917457669567846,-0.041728912397915326,-0.02639300792247667,0.06529374173515061,-0.10880765190473017,2.015625
-0.020246567106804624,0.0033109281683736977,-2.7416971785180476e-05,0.0034122967321782985,0.0021538017636822523,0.0023579808792441696,0.0018848137623307755,-0.14382206037432874,-0.0006059069165803094,0.16084039817083798,-0.0013609342925577676,-0.00297736554269109,0.003370865013330738,-0.007843215984704865,2.0234375
0.16801983257117106,-0.0224851978471817,0.00191482071010253,-0.012966183813736718,-0.020219979021523973,-0.027466162037227647,-0.0073558070552891324,1.2184511421584079,0.023558997487447362,-1.3808351818273539,0.025329210140150906,0.012492511274546151,-0.037558910118580764,0.05890529422687839,2.03125
0.08824783589414627,-0.011540516838220636,0.0010912600351219665,-0.006017288820054106,-0.010726050055884045,-0.014826998585045431,-0.003434130406530085,0.6412073945082742,0.013317270572202979,-0.7282419365749172,0.014021546491441387,0.005925637521789107,-0.02020690549661313,0.030619171091031926,2.0390625
-0.048183087682373026,0.007161710913489695,-0.00031664097700619587,0.005853264829413229,0.005491324373475193,0.006790133075170329,0.0032648707550347895,-0.3461274307874345,-0.004200262968669451,0.38905672582248535,-0.005324193791190078,-0.005289735483097001,0.009459435128576625,-0.017759090691130523,2.046875
-0.09456976170964214,0.013509857693012998,-0.0007948876597237551,0.009882693913940496,0.010993988403391407,0.014138006211378973,0.005537481958499899,-0.6816918197287425,-0.01015569482387679,0.7692701058930225,-0.011902476160490042,-0.009094061535285065,0.019537624513710453,-0.034201196829435385,2.0546875
-0.052937696796730015,0.0077938318068111415,-0.00036475373683905065,0.006257886020962727,0.006038228357302649,0.007539525023778907,0.003489784907473514,-0.3802064262712647,-0.004806445190418651,0.428234833247377,-0.005996466225197928,-0.005666445651641432,0.010474856331524444,-0.019435254996022028,2.0625
0.046145066262993834,-0.0057809415138907515,0.0006576897951094877,-0.002360676627967142,-0.005733774841670143,-0.008153271054893715,-0.0013719959608232142,0.3366551717765902,0.007916701038094052,-0.3832096976908078,0.008050862477884585,0.002472922509107386,-0.011071256969215073,0.015676781587690664,2.0703125
0.09984074310756257,-0.013125277438249539,0.0012113774836905685,-0.0070317757738709305,-0.012106095151292576,-0.016652386414994044,-0.004002523073100815,0.7248224420191578,0.014809504827327334,-0.8226295020297563,0.015657903052825897,0.006878744523295235,-0.022742253895469862,0.0346892191212332,2.078125
0.032571906518567895,-0.003901406702261868,0.0005170864315553138,-0.001181320265065492,-0.004109023460042529,-0.0059968114828711765,-0.0006989321945044236,0.23794614542312162,0.006173377251165993,-0.27164740011541366,0.006119772581250026,0.0013495359257863586,-0.008115812909163694,0.010842095852640768,2.0859375
-0.04705713566382244,0.007000459948350141,-0.0003043631349861293,0.005744837251047511,0.005346678401940588,0.006609469861180269,0.0032059282878837705,-0.338023195227819,-0.004048944927747042,0.38023232596170964,-0.005163554524422646,-0.005188627186784378,0.009193895574624043,-0.017363172832234413,2.09375
-0.051358466674996994,0.007578136436447655,-0.00034845911597120884,0.006120840886748978,0.005852662244580669,0.007285249946734377,0.0034137253992116497,-0.3688413292664993,-0.00459972113298039,0.4150526182642469,-0.005766787843252685,-0.005537426953654353,0.010130653648510358,-0.018868553363206385,2.1015625
-0.06447346691508322,0.009377000591471419,-0.00048368352054930255,0.0072671150020227095,0.0074200637709972705,0.009363381902860055,0.004059691331196529,-0.46346628009804564,-0.006279039380335198,0.5218527807271894,-0.00762362395895886,-0.006617537972047174,0.012992416316631172,-0.023516058274002792,2.109375
-0.07071484352158455,0.010243718589071124,-0.0005483905559120374,0.007812337580384799,0.008172444998181141,0.010356740415479114,0.004370254653057036,-0.5085801118697975,-0.0070803109056801015,0.5729261692205014,-0.008513393505764704,-0.00713537630405302,0.014360744669568446,-0.0257367842740252,2.1171875
0.0683814081215621,-0.008810098285453791,0.0008861899412799864,-0.004294702186010811,-0.008362806331139512,-0.011672649007436123,-0.002457249680537438,0.4974860339431379,0.010765044782156837,-0.5649544670346857,0.011195378176679777,0.004295246694211214,-0.015878710883191788,0.023565685285914212,2.125
0.22603549825063385,-0.03041704466018402,0.002512550687887718,-0.018015591418117826,-0.027109937418792408,-0.036647625593283904,-0.010198854761354388,1.6376993209404203,0.030993280689368106,-1.8549587856827088,0.03354172815449174,0.017253965927764982,-0.05016250010910742,0.0794555768410514,2.1328125
0.12162423838200491,-0.01611734189985852,0.0014356353032293058,-0.008926316140565287,-0.014701536858210218,-0.02011558782562575,-0.00507572626432825,0.8821356458502203,0.017593334712900977,-1.000632755444192,0.01874935987522465,0.0086737035903334,-0.027470457255198883,0.042452170059724854,2.140625
-0.13776944350890946,0.01942174987325184,-0.001240204708925231,0.013649085124972551,0.016130170736626648,0.020970745880026346,0.007656074542718796,-0.9944305266148492,-0.015696404761549442,1.1223471483400083,-0.01801496693601855,-0.012644320782567442,0.028922437945097124,-0.049497987156442554,2.1484375
-0.2060929502548469,0.028784622187258174,-0.0019451308870852557,0.019591944828916918,0.024248083136615733,0.03180035872842766,0.011009838613907284,-1.4885879409101384,-0.024465020170658363,1.6820018559728371,-0.02770562936187876,-0.018259391773210117,0.04377754115137991,-0.07373294261851132,2.15625
-0.09465243416469078,0.01352245927738498,-0.0007956542895485373,0.0098916606667156,0.011005593523062795,0.014155632182818772,0.005542893380860479,-0.6822633060817158,-0.010159384535288127,0.7699996880093322,-0.011915085252342762,-0.009104582092076707,0.019549662013540282,-0.03424968133355909,2.1640625
-0.02662782672267438,0.004210611833345881,-9.397363759618022e-05,0.003974272961827862,0.0029306296847682925,0.003380695490197214,0.002208191903984655,-0.1900924851438173,-0.0014255135716046228,0.21262634972073935,-0.002270755288452622,-0.0035195037723323537,0.004763169004516904,-0.010140142340315912,2.171875
0.05869017755715112,-0.007483989276584657,0.000786423828719043,-0.003450264157860078,-0.007212418358790212,-0.010138322933660163,-0.0019819976653115893,0.4272199577663717,0.009521339303179015,-0.4860246454894158,0.009825853334281187,0.0034969688137218217,-0.013781394623051597,0.02012400488464096,2.1796875
0.2502791415909782,-0.033755600667133144,0.0027635353144127863,-0.020130594951434155,-0.030004168562935342,-0.040492141791206165,-0.011395430783482265,1.8134904250014565,0.03410750744482329,-2.053753083455541,0.036983400193417997,0.019258670121211536,-0.05543881909998555,0.08806692664216192,2.1875
0.2649899644421327,-0.03578388119544279,0.0029158411270521073,-0.02141706016157811,-0.0317620371446814,-0.04282893985313581,-0.012121490959542321,1.92011001263394,0.0360045650617335,-2.1740103245393967,0.039073395993491654,0.02047564321756188,-0.05865280391229849,0.09328899601676022,2.1953125
-0.08348612770110511,0.011980836885052804,-0.0006794681716817283,0.008914891817187779,0.009676523776451949,0.012370312964415433,0.0049924656021551736,-0.6011391864937935,-0.008708739985122036,0.6776911261656187,-0.010315544765313068,-0.008178634085826482,0.017100386799757426,-0.03026551180672772,2.203125
-0.3906461058374765,0.0540990347294805,-0.0038493878546050223,0.03565851857467985,0.04620922799456601,0.061038572127039295,0.02008141022158902,-2.8238101401973235,-0.048137688764778676,3.1915764328378677,-0.05386023922398747,-0.03344507275657534,0.0838949554742931,-0.13918455396206067,2.2109375
-0.2289334586131865,0.03194899052791473,-0.002181849779632609,0.021590086845924984,0.026986314541143353,0.035436535175911964,0.012143896675793901,-1.654078055108572,-0.027401689273926617,1.8685791025898282,-0.03095237744229143,-0.02015741431678773,0.04876003624782757,-0.0818653083768973,2.21875
0.14054318319661127,-0.018704101612857914,0.0016304440640557212,-0.010572371690601502,-0.016951510705151163,-0.023096740155901845,-0.006003225834936245,1.0193736746870552,0.020015468331389213,-1.1551936660099626,0.02141868098905073,0.010227698825328826,-0.031567834768113534,0.049142678251985476,2.2265625
0.18711912249634338,-0.02511515662348838,0.0021121525862272035,-0.014635638837735611,-0.0225000784269295,-0.030495184863901043,-0.008297871317239,1.3567583191895465,0.02600934203587061,-1.5368155816826625,0.028035920042051986,0.014071780784561056,-0.04171456683523251,0.06568386487847117,2.234375
-0.05366594498130418,0.007882764022760549,-0.00037170804124646246,0.006319897258663703,0.0061288290313243204,0.007641783372268401,0.003524896634593168,-0.38549351931327774,-0.004886718977104218,0.43371539761631245,-0.00608740669737427,-0.005723342026319341,0.010627652767351463,-0.01968391185004955,2.2421875
-0.1149720225220081,0.016313193365454802,-0.0010051440594129346,0.011663840955452183,0.013430731648683766,0.017370867653413235,0.006543365602021238,-0.8295314463807802,-0.012768807291048703,0.9358382771507076,-0.014790012196072708,-0.010778595449229654,0.02397490794939728,-0.04145049800322266,2.25
0.11578245038620269,-0.015292575364298884,0.0013748040060385378,-0.008415203184458273,-0.013995442935485929,-0.019169834257977865,-0.0047814440065155365,0.8400285691887271,0.016835385772732636,-0.9526355447027838,0.01790608935653684,0.008182532230736526,-0.026178853592415816,0.04034478950968262,2.2578125
0.2741302747752325,-0.037010035583857286,0.0030089639907446763,-0.02220363593766518,-0.03282901110501238,-0.04426403469941255,-0.012561197851473459,1.9862409629187068,0.03716734609912105,-2.248926233035336,0.040356831141201685,0.021209752052799746,-0.060616879138211975,0.09650720415168354,2.265625
0.14815233417739138,-0.019770313896559318,0.0017100941735573093,-0.011247376607901524,-0.017865186067848534,-0.02432365172185056,-0.006383180186407978,1.0749576659960014,0.021013045454883715,-1.2178875678736543,0.022512917242987384,0.01086779257793231,-0.03324652227218944,0.05187102710647854,2.2734375
-0.05381468522149848,0.007909707526479622,-0.000373621896846256,0.006333767015843697,0.0061447891591830716,0.007670395563981627,0.0035336044757550253,-0.38679591908729377,-0.00491009840373338,0.435392786657198,-0.00611206439217886,-0.005735170666072745,0.010663297696777176,-0.019732298502546368,2.28125
-0.14514887638558413,0.020448021445595033,-0.0013165512857501057,0.014293485324287388,0.017015429542660807,0.022148337070961362,0.008024252027141047,-1.0480417880030815,-0.016643008133045766,1.1827351381430296,-0.01906335191388648,-0.013255801832106886,0.030531324997448196,-0.052128259622001384,2.2890625
-0.21580977679641278,0.030143149231777338,-0.0020458161503332005,0.020447286289359906,0.025426226532495086,0.033343881705142527,0.01149673720466864,-1.5590951690923622,-0.02571171953756026,1.7604843054876942,-0.029081706115054742,-0.019073275406309785,0.045894129723665994,-0.07718918173377057,2.296875
-0.28394753874067835,0.039473396301697994,-0.00274856912622662,0.02637119670746793,0.03352257696094818,0.04413355999738019,0.014839602854076647,-2.0517094883584748,-0.03444782648609814,2.3182426716082554,-0.03873963944290739,-0.024671488298648153,0.06069899254028077,-0.10134810810390235,2.3046875
-0.14671280214316632,0.020652718090128492,-0.0013325498125065969,0.014420107451393372,0.01719310561858918,0.022394122259995215,0.008097278814315767,-1.0588100829449838,-0.01683407157612991,1.195900962948701,-0.01928899848509384,-0.01338103166748664,0.030860335450707748,-0.05269275208240082,2.3125
0.17870362386175714,-0.0239522297450877,0.0020248309299768052,-0.013902055811934816,-0.021502835236014445,-0.029152220127514967,-0.007882771511334014,1.2954090054681384,0.024922517251122916,-1.4671070204978611,0.02683577166865138,0.01337526372926666,-0.03988232983563557,0.0626821570133255,2.3203125
0.32010136106149006,-0.043329889891548644,0.003483776874553987,-0.02620386083296728,-0.03830675757378007,-0.05155090574323349,-0.014824448846473898,2.3184753496397645,0.04306735996363449,-2.625058984772447,0.046880398821256254,0.024996308037763794,-0.07061846162092653,0.11281343136095168,2.328125
0.12768924651136507,-0.01695068736983977,0.001498613447926691,-0.009454985357517254,-0.01541906254022669,-0.02107052841448972,-0.005372897771686871,0.9265244038398452,0.018377896524199754,-1.0508287252065982,0.01960814047625641,0.009171761684869363,-0.028784383367489712,0.044587550367211196,2.3359375
-0.07231048589222595,0.010470487093438403,-0.0005652202131239919,0.007949854792165,0.00836059409329775,0.010616176941859899,0.00445100438153637,-0.5205612084880774,-0.0072904283152320695,0.5865548199791357,-0.008744858393393845,-0.007273386043127313,0.014698719093945958,-0.026330710773975353,2.34375
-0.04660142328779308,0.0069462788668303846,-0.0003002152713999358,0.005708920861245768,0.005293882944571485,0.006546615897412862,0.0031873518684141845,-0.3347138168054834,-0.003997187745372625,0.37681051850251224,-0.005103885546352322,-0.005156288752289071,0.009107688304556178,-0.017213061128440076,2.3515625
0.02204645310641399,-0.002476463202639025,0.00040852723094929815,-0.0002668901340958993,-0.0028751910785341384,-0.004334039575088841,-0.0001886199660711465,0.1621953540825817,0.0048145271151600645,-0.18538604364908243,0.004631651464715124,0.0004945071503820067,-0.005822239704364775,0.0071432766782793125,2.359375
-0.011149879635078675,0.0020630609915740132,6.674776857113461e-05,0.002623419272348905,0.0010774993146950439,0.0009144514296660559,0.0014391864447322036,-0.0774409020991124,0.000566046598092745,0.0853693134794436,-6.56896495326685e-05,-0.00223053430948158,0.0013929490624126658,-0.004610177161403878,2.3671875
-0.013103211951591361,0.0023392559451453116,4.6608895295066624e-05,0.0027941651967818767,0.0013223152770712914,0.0012216557253532758,0.0015389424230183755,-0.09148647435095546,0.0003220660973767673,0.1011142857958729,-0.0003425986817046735,-0.002394030641382748,0.0018216213373199806,-0.0053051685557817235,2.375
0.05303010665918071,-0.006706903617570608,0.000728253248962271,-0.002961272218549258,-0.006534298875025507,-0.009246833231090195,-0.0017036183636277343,0.38629372911379695,0.008801596412598466,-0.4395617190329868,0.009023432354254303,0.003035346462152534,-0.01255377937465653,0.018123567835149693,2.3828125
0.046935536305072564,-0.0058647362959715,0.0006648671192252404,-0.0024286609841842606,-0.005813562236652755,-0.008274012709106318,-0.0014041397683478094,0.3414607750469382,0.008008026002788179,-0.3892112204800282,0.008154498924309302,0.0025283840345296134,-0.011232229595581308,0.0159480039922327,2.390625
-0.00018515706077491145,0.0005834936333308447,0.00017881718894950397,0.0016748618585863536,-0.0002200404627106937,-0.0008107315865408173,0.0009058597832676257,0.0006083698705505424,0.001959019645126016,-0.0035856195713874998,0.0014782711614073519,-0.0013445236199898843,-0.000991700607481065,-0.0007547432019218152,2.3984375
0.026935929544665525,-0.003148086755870068,0.0004589668594716202,-0.0006866205984507415,-0.003452747690415822,-0.0051125975972840625,-0.00042978707134810066,0.1974395765137476,0.005444509906521173,-0.22554997655254388,0.005326435249616703,0.0008918592867803072,-0.006886888160382867,0.00887583972382667,2.40625
-0.008348727699924216,0.0016839212304310862,9.496037591861857e-05,0.0023814111003614712,0.0007399522913926522,0.0004754212195594088,0.0013017568630820184,-0.05760230528127464,0.0009176370973820986,0.06351079206878905,0.0003238940822892561,-0.002004513436189547,0.0007886372748747855,-0.0036264317865606016,2.4140625
-0.2194067968074842,0.030619101303567105,-0.0020828056665383203,0.02075087748244789,0.025839854353708943,0.033911641278140135,0.011667941730244135,-1.5848757857890432,-0.026169776365833734,1.7908819509157798,-0.029594088036924173,-0.019359194008090018,0.04667711696266649,-0.0784595864636629,2.421875
-0.32453256636084465,0.04503470691282994,-0.003167417543609075,0.02990332436507517,0.03834752078595268,0.050563498211739034,0.016833195913466107,-2.3455583690202535,-0.03965813990798599,2.650660785450609,-0.04449100042786633,-0.028006729173285026,0.06953094219749575,-0.11573270631994263,2.4296875
-0.08485019586140474,0.012179946216520516,-0.0006941690147680592,0.009042944791351658,0.00984984939082586,0.012590909052863636,0.005063572279091875,-0.6111460183576399,-0.008894988615688675,0.68849563059217,-0.010511856054052996,-0.008299390461009018,0.017418882032225903,-0.030747808730077437,2.4375
0.21466585096022409,-0.028880686302576022,0.002396314786320785,-0.017028952684229274,-0.025771906340500274,-0.03485386442034253,-0.009647143263871795,1.5560377559396945,0.0295389320687542,-1.7625011645393147,0.031940563141763016,0.016332513639430453,-0.0476978283457742,0.0754454984182115,2.4453125
0.22192160814491466,-0.029875254242182896,0.0024710059156201353,-0.017663586008760227,-0.026640851929948826,-0.0359949300748463,-0.010004306514012578,1.6083263375133052,0.03046318632900878,-1.82110956171453,0.03296091229199477,0.016931749989585482,-0.049271643527161624,0.078005895987695,2.453125
0.06925459238039483,-0.008940220126607307,0.0008955392112981556,-0.004375416891033948,-0.008481272741697897,-0.011807941197186728,-0.002503839369433755,0.5035800854984089,0.01087413800299024,-0.5715513626472088,0.011318880340140513,0.004373999967679087,-0.016081689829364112,0.02386639579084758,2.4609375
0.04170868827603147,-0.005154689403761863,0.0006111308053593872,-0.0019740191739915807,-0.005193217785364117,-0.00744982978556619,-0.0011468356946150375,0.3043227725055054,0.007348102204579393,-0.3467602476937938,0.007419426992893845,0.0021004890035361077,-0.010098253063855629,0.014100298056990007,2.46875
0.09994701644985729,-0.013135728767586235,0.0012118561638941635,-0.00703952423722644,-0.01211604304100015,-0.016677239709254797,-0.004006604236134875,0.7256768213117257,0.01482022143026522,-0.8236527741363446,0.0156757769325679,0.006885827061732743,-0.022758178272266682,0.034753774301329074,2.4765625
0.07881813770199131,-0.010249155294274288,0.0009938947612426147,-0.005202244777395578,-0.009615575489939786,-0.013326124802688561,-0.0029737932930339428,0.5726820196702247,0.012098994987168217,-0.6501890155637922,0.012676522162940827,0.005154801849749112,-0.018158725507226022,0.02726543237920783,2.484375
-0.01239468935143894,0.002237548693949782,5.3366185356656934e-05,0.0027302944865341314,0.0012188011561097163,0.0011197474072837943,0.0014995334921697244,-0.08720801310408333,0.0003956296398700352,0.09664914356469191,-0.0002511950928026792,-0.002334851264898308,0.0016651916341207358,-0.005068680001642025,2.4921875
-0.10024550981890007,0.014273123404103878,-0.0008524173906158585,0.010373501446057365,0.011667719228726035,0.015026479316778652,0.0058123776796377815,-0.7226174479100109,-0.010865598373990098,0.8151807157148422,-0.012696261425761506,-0.009555618941347219,0.020750736649982577,-0.03621151695979283,2.5
-0.1418199189904467,0.019987881707848393,-0.0012816958577410815,0.01399783399607043,0.01662576935296432,0.02161485415677263,0.007859795272243147,-1.0234116545278966,-0.01620053196373018,1.1549884422464525,-0.01859058250166806,-0.012983960164328782,0.029794404367764562,-0.05096059601365759,2.5078125
-0.06699926957785712,0.009753830784973234,-0.0005106955160326035,0.007492754844629166,0.007739367770279199,0.009776666691616335,0.004192179445940372,-0.4822238415731372,-0.006612173178192741,0.542802768859569,-0.007996042683001088,-0.00684300492679233,0.01354944024226291,-0.024446680780956152,2.515625
0.09018361728652749,-0.011796868787587188,0.0011110263587366974,-0.006191243792341344,-0.01095683418253597,-0.015122356065070421,-0.003528747905822016,0.655150309774377,0.013557187574267486,-0.7434293223917104,0.014282630152795541,0.006085318712325449,-0.020620233692305062,0.03129053328109378,2.5234375
0.11237677283936975,-0.01486878462366136,0.0013410984535280805,-0.008132561601463292,-0.01361157837067271,-0.018655230330536534,-0.004627685644210634,0.816072275040306,0.016418873848038865,-0.9252426776433178,0.01744154471581828,0.007926154030761485,-0.02546549152313237,0.03918575217948486,2.53125
-0.07995932998172355,0.011483553067997247,-0.0006429429045503958,0.008607624761053376,0.009251761104810876,0.011806823004761975,0.004814466438582224,-0.5755364571987147,-0.008261136901805114,0.6489005783232756,-0.00981451271394504,-0.007882501992334938,0.01634418507365679,-0.02899810456449145,2.5390625
-0.23240149497142867,0.03240455556887431,-0.0022168591217138524,0.021887519538097953,0.027387195620909334,0.03597241683739901,0.012308758798143108,-1.678975754092741,-0.027841303902162898,1.8969848971044516,-0.031432864804741535,-0.020429614102283875,0.04950773151551996,-0.08306858398319616,2.546875
-0.12859298576625042,0.01820127196127996,-0.0011467670824916265,0.012859130374792055,0.015053434828768654,0.019543222690537026,0.007218999268299688,-0.9282194706865676,-0.01453053835569842,1.0476824256292299,-0.01672930449691017,-0.011907077556552192,0.026951421418560766,-0.04628756077020953,2.5546875
0.08213381913363227,-0.010691575402670891,0.0010278656450995402,-0.005490088102405849,-0.010007618017066927,-0.013843818927083206,-0.00313190671201597,0.5966315764771112,0.012522176892449728,-0.677078868512315,0.013142998406486557,0.005423758540286494,-0.018878196457077695,0.028425377115594,2.5625
0.145094771193923,-0.019346296159461172,0.0016783436738842157,-0.010980124916403627,-0.01750517633871591,-0.023831082955304155,-0.006231548907977009,1.0524344587474261,0.020614054497969825,-1.1924770157360145,0.02207593634874134,0.010613270448170528,-0.03258269471232963,0.050767049993339246,2.5703125
0.05778880394726365,-0.007384978817767565,0.0007776263258853453,-0.0033783882328201845,-0.007124442505632841,-0.010005984439805955,-0.0019463542974077137,0.4206810476175166,0.009407973194416034,-0.4780407367110115,0.009704335092394998,0.0034374768132923216,-0.013596919472049452,0.01983079159986168,2.578125
-0.010727862944977969,0.0020200523005829986,7.03684634971049e-05,0.0025944735958625975,0.0010346589001405191,0.000849824355142426,0.0014221717820194254,-0.07521082875989432,0.0006104705803021057,0.0822824047110042,-8.503803960258782e-06,-0.0022046273509868804,0.001307304954037818,-0.004461886853330471,2.5859375
0.014505204650463038,-0.0014292303015773899,0.0003307607417840978,0.0003985512426013367,-0.0019560546489649326,-0.00314414454797041,0.00018619096000601455,0.10747406550697879,0.0038538927026155827,-0.12462694573073109,0.0035652328690915147,-0.00013659512254086156,-0.004183518551451791,0.004464201711408934,2.59375
0.06496552746243436,-0.008349273328288031,0.0008515553093686689,-0.004001767196117009,-0.007959548028422884,-0.011135379906753975,-0.0022923109952596287,0.4727964071208365,0.010336427084716856,-0.5373177994522218,0.010714335943793719,0.004014844876483423,-0.015160534888238642,0.022339012933009814,2.6015625
0.06622629272724587,-0.0085306484233201,0.0008644537147759988,-0.004115737927889372,-0.008120625342628189,-0.011336771592448345,-0.0023568440460979586,0.48192815458472943,0.010495875331341059,-0.5470333737040322,0.010893573933728737,0.0041256654226356475,-0.015431771274507127,0.02279892247282638,2.609375
0.03134594797852722,-0.0037567750885873375,0.0005045440919191919,-0.0010764865757788046,-0.003979836942816473,-0.005815482258689762,-0.0006468553444163573,0.22942108622027202,0.006012924069393255,-0.2615124197030061,0.005953874395266504,0.0012620041695499083,-0.007844077635558678,0.010455381816231223,2.6171875
0.0007799288099241997,0.00043049607313998094,0.00018943967127744554,0.0015867707215215128,-0.00034265775531452345,-0.0009722398110063719,0.0008529145803413951,0.008270145333307853,0.002088649925180106,-0.011766011690678632,0.0016216803653374878,-0.0012527956795077818,-0.0011988598633597778,-0.0003854973106248693,2.625
-0.04989402606440411,0.007383152475829013,-0.00033336422915446873,0.0059965114855644475,0.005690241740910355,0.0070621787436636945,0.003343857061264512,-0.35825345477188336,-0.00441216155938832,0.4028372116975216,-0.0055668217971885465,-0.00542477286813296,0.009819193084382687,-0.01837721143410576,2.6328125
-0.13507074593794466,0.01907286053049346,-0.0012126618483432234,0.01341092624674785,0.01582400658244066,0.020558744614931304,0.007531871970808464,-0.9746009702073134,-0.015343260545481028,1.100213275034162,-0.017643608152437987,-0.012433648833120092,0.028341460593219004,-0.04858697788373057,2.640625
-0.14559949917519938,0.020525903663694136,-0.0013216676605818786,0.014331045455973359,0.01707705489431815,0.022224047101118725,0.008052012282393477,-1.0510448527948133,-0.016697811259899737,1.1865167854827485,-0.01913328034106344,-0.01330124990649985,0.030631941428498954,-0.052308936274969124,2.6484375
-0.0019413197709746035,0.0008277230469663334,0.00016082907196597485,0.0018281288100597732,-8.79290709038422e-06,-0.0005359210346855326,0.0009945640924902124,-0.011677500594980348,0.001736332182503588,0.010603587059276106,0.0012328386461883947,-0.0014851286530803713,-0.0006022318127337693,-0.0013621662705844454,2.65625
0.15113948563613927,-0.020173367397433518,0.0017408042730736421,-0.011499639600901779,-0.018218407050480376,-0.024787687664691634,-0.00652889300622299,1.0962704703428612,0.0213835574380422,-1.2423895355753125,0.022932290396524706,0.011110003851041291,-0.03388313751390537,0.05292359650062194,2.6640625
0.15245357511469698,-0.0203608341933971,0.0017543661951378157,-0.0116167084905618,-0.018378472613846935,-0.024997718636544,-0.006595371461870374,1.1060279175469783,0.0215546160220708,-1.252974798433846,0.023118562821685788,0.01122159201173192,-0.03416717565389991,0.05339680476756966,2.671875
0.09228446563782747,-0.012097746796464914,0.001132959280661919,-0.006377404737603349,-0.01121765959296658,-0.015462294907447407,-0.0036350829698999125,0.6703263210539706,0.013832001633259618,-0.7602104536015263,0.014586804734673466,0.006265659485690972,-0.021086785535711198,0.03204721780204243,2.6796875
0.07795931070029163,-0.010115672641892552,0.0009847416894460605,-0.005127201288147243,-0.00950402807435354,-0.013184443048547293,-0.0029253734848315965,0.5661665014833808,0.011991663309458705,-0.6429165702917135,0.012551303300419531,0.005075768200993419,-0.017975482726506325,0.026934927675319596,2.6875
-0.03853768241096651,0.005844175585935772,-0.00021683633889456956,0.005012345995060067,0.004346772586297033,0.00526814617990663,0.002792986350089524,-0.27655536619769766,-0.0029565369308100914,0.31012206784883756,-0.003958580163089239,-0.004500587701579735,0.0073491195190460365,-0.014368141296500093,2.6953125
-0.3215202899676728,0.0446034731189162,-0.003135769929915314,0.029640024667588295,0.03797991181360806,0.050079941015494754,0.016680059098222653,-2.3233590474413317,-0.03926799551507912,2.625739997805915,-0.044057732378463915,-0.027751396667960813,0.06886945538910055,-0.11465235879486646,2.703125
-0.4407626994728398,0.06093693983761302,-0.004365876617946294,0.04001701696065487,0.05214860919689013,0.06896049094140458,0.02253141380794321,-3.1859921198320365,-0.05457115017638896,3.6018807078879855,-0.06095469961325083,-0.03754636748803837,0.0947925250968888,-0.1569011907687277,2.7109375
-0.15652284731781282,0.02199841520815261,-0.0014337780025033815,0.015277885992208412,0.018360492171110826,0.02394511109002512,0.008579431500179653,-1.130029767680408,-0.01809912461016512,1.276099446377729,-0.020675914132318205,-0.01418610949827988,0.032998881350669314,-0.05615608048254115,2.71875
0.21654429263998887,-0.029113192844373012,0.0024148553695363187,-0.01719112266105595,-0.025982394158821257,-0.0351391555402445,-0.009732783121497052,1.5688999831110415,0.029775998426849786,-1.777318590374964,0.032194091358937325,0.016472616401465967,-0.04810496264412298,0.07607399654135298,2.7265625
0.29483014658213447,-0.03984651428266405,0.003222740700162215,-0.02400365578553965,-0.03528844192525541,-0.04754293080038324,-0.013577054637011431,2.135762176106573,0.03982696530315629,-2.4187287467417264,0.04329498419724925,0.022908550453727233,-0.06512503834727616,0.10383733121520489,2.734375
0.19107075874118162,-0.025643536939007804,0.002152718452851145,-0.014975105469186649,-0.022963566327493343,-0.031114951075452056,-0.008487693196171044,1.3854612158812787,0.02651401043251219,-1.569609918708448,0.02859504861756032,0.014389078258388121,-0.042570804874490165,0.06707659801431112,2.7421875
0.14545834182560716,-0.019401109368628947,0.001682362684817622,-0.011010562043468158,-0.017549663007080246,-0.023889053301732185,-0.006251750641446143,1.0552638730723671,0.020659008666781435,-1.1955292169561,0.02212663440626222,0.010647175481133331,-0.0326559216254863,0.05090400120593413,2.75
0.06652552851738458,-0.008576420352840107,0.0008678188584085481,-0.004142079076542231,-0.008158939148085896,-0.011382225233613711,-0.002374129379830211,0.4838860018650187,0.010529983991538828,-0.5492057908353676,0.010933648369871932,0.0041546113404964296,-0.015492977045682029,0.022905794754878233,2.7578125
-0.09187654577717627,0.013147066011258111,-0.000766863329905712,0.009650922598193924,0.010689305554936484,0.01370699222372237,0.005409079945771739,-0.6621373326078928,-0.009795426770002814,0.7464862995508186,-0.011515114871085856,-0.008878425641935622,0.018947852181052424,-0.03324978898537906,2.765625
-0.04246178375914955,0.006384404785475079,-0.00025740029112997817,0.005356107210598267,0.004820670187119109,0.005878865090473064,0.0029861436330492776,-0.3046622988594413,-0.003457491918463071,0.3416547981013423,-0.004509136946044085,-0.00482286789036665,0.008207195257176775,-0.015727401194215094,2.7734375
0.23715208627637413,-0.03194134037668929,0.0026274655338764967,-0.018983998562767175,-0.02843411124946579,-0.03840596760445979,-0.0107458140733552,1.7180364936335901,0.032417845389484404,-1.9459845065948183,0.03511626168046045,0.01816841177488744,-0.0525820899060366,0.0833885314455263,2.78125
0.22181252805811788,-0.02985465115833783,0.002469668857596778,-0.0176565038502284,-0.026625518793866782,-0.035972651129245095,-0.009998378116358874,1.6070049381885354,0.030449394449258496,-1.819695505423556,0.0329390112510964,0.01691731764939168,-0.04925136260152231,0.07794240041996124,2.7890625
-0.2841213390233999,0.039476367398094396,-0.0027498496079161813,0.026380319503912186,0.03352557856488341,0.044161967488293576,0.014842216001298704,-2.053006495325154,-0.03446991102310639,2.3204503412744426,-0.03876211652422422,-0.024673041117592984,0.06073731139079238,-0.10140461129734633,2.796875
-0.6226195343690787,0.08588114957688324,-0.0062426435070207405,0.05585388671543241,0.07378509538249771,0.09777651192244224,0.03146866841263478,-4.501774985015486,-0.07790906856975936,5.089865640813274,-0.08673337965390576,-0.052510440780821385,0.13433482033609215,-0.22139285856251567,2.8046875
-0.2692276567137314,0.037465967227959994,-0.002597336831733043,0.02510164113406986,0.031779971101007394,0.04180386480480348,0.014122516515682497,-1.945180103166511,-0.03256590032099605,2.1976383945861064,-0.03665044986851909,-0.023466818620560714,0.057517607231781516,-0.09611534670142148,2.8125
0.27531869569854517,-0.03716939018654765,0.0030209400960744008,-0.02230269687686184,-0.0329701218978069,-0.044450817832364056,-0.012617599126164062,1.9945109041191047,0.03731549754936292,-2.2584955272097553,0.040526603479632814,0.021305516118294336,-0.06087112127354745,0.09692871221150882,2.8203125
0.28470211182990895,-0.038477591468717764,0.0031186217610469154,-0.023131410678824658,-0.034101165003559024,-0.04594458704729697,-0.013085970544833804,2.0626375783401882,0.03852919400643223,-2.3352141035786644,0.04186201919687399,0.022089507226882955,-0.06292830992395575,0.10026239943259582,2.828125
-0.0657008828947747,0.009536925728272472,-0.0004960771795756453,0.007365938325293169,0.007555891361895206,0.009556438092322523,0.0041162390623423395,-0.47251939288999756,-0.006435154121529826,0.5323537575571038,-0.007798827248819135,-0.006714563682179824,0.013242304770173722,-0.023962888125074078,2.8359375
-0.13874138858812318,0.01956261988110604,-0.001250111671633343,0.013731455503471374,0.016251050097660716,0.021135139594355343,0.0077073133071671775,-1.0013678850265886,-0.01581718023141466,1.1302553609311066,-0.01815846817677194,-0.01272885557939772,0.029133567975084484,-0.04987697402546953,2.84375
0.0668067202870534,-0.008593200063528272,0.0008700254099243972,-0.004155473525915654,-0.008178156424364803,-0.011416819295363402,-0.0023809086376713803,0.48563986544960314,0.010555765880895721,-0.5517929737941085,0.010967662611854466,0.004163020112774214,-0.015540921536661907,0.022985228439840733,2.8515625
0.08167639179981317,-0.010637617910265842,0.0010235959515103295,-0.005455607150477796,-0.009950807980577295,-0.013778506469858657,-0.003113616562724154,0.5936267417359682,0.012470054945485563,-0.6735866241775077,0.013078227188733062,0.005391616137712164,-0.018778647858801307,0.02827778142287899,2.859375
-0.09274062588896863,0.013250178922589204,-0.0007754501855152257,0.009719913349172483,0.010775288771245263,0.013838739545494878,0.005444929502939436,-0.6680196229782677,-0.009906823704249055,0.7537555972025374,-0.011634783289271927,-0.008938201315084476,0.019127738606999338,-0.03353169271259749,2.8671875
-0.037588882286743105,0.005687584732688371,-0.00020638145106788183,0.004923223825640254,0.004215725099972725,0.00509918716425511,0.002736427131541702,-0.26930761425568117,-0.0028300477381337165,0.30237621330019543,-0.0038123251362942585,-0.004404259677530062,0.007133784519911068,-0.013975990831072019,2.875
0.2393395796475392,-0.03225567862876681,0.0026505111159558395,-0.0191727305837237,-0.02870018729346183,-0.03876422131529474,-0.010856242998837796,1.733893146422442,0.03270722787222288,-1.9642667733912529,0.03544005262115564,0.01835428002477849,-0.05306763602939761,0.08418755085356763,2.8828125
0.28414522768470457,-0.03838631105052835,0.003112682535979913,-0.02307129377669949,-0.034017538295232595,-0.04585709958828973,-0.013052343763440341,2.0581204712644716,0.0384598491547181,-2.3312402757786983,0.04178738430570456,0.02203147809176635,-0.06280602211862346,0.10005380285874348,2.890625
0.008569993379458142,-0.0006163790825871541,0.0002695445483034664,0.0009094257404859837,-0.0012535644287067704,-0.0021992997800485705,0.0004786690733979452,0.06462015268749792,0.0030960332038862553,-0.07567880275618051,0.00272099160961608,-0.000623882082189392,-0.002895149365315577,0.0023405428029067126,2.8984375
-0.1566148488536794,0.02201921333501183,-0.001434744235563853,0.015283961535042028,0.018377152674830758,0.023970792292461705,0.008587637186861832,-1.1303433805680492,-0.018106385486642493,1.27674448122641,-0.020695697234238336,-0.014199795230567611,0.033017483615047465,-0.05622036037029147,2.90625
-0.004989096234151756,0.001233304217061251,0.0001295874439700772,0.0020889292256620266,0.0003427985322949287,-4.945493538796686e-05,0.001140465850153477,-0.03333150697866607,0.0013460573747818938,0.035905830316425115,0.0007984973227341298,-0.001729586279182693,5.776175918539138e-05,-0.0024430424810978546,2.9140625
0.13565858397672345,-0.018048905603293135,0.0015807813967529695,-0.010150385617019272,-0.016377850588767173,-0.0223350364828058,-0.005768343248425588,0.984189892927686,0.01939186467247957,-1.1155627631278822,0.020736647488858815,0.00983606721623229,-0.03051305020623379,0.047440959087743234,2.921875
-0.005688610846299317,0.00132221996886533,0.00012245868382631901,0.0021513861863732323,0.00043495285028892516,5.201462478707494e-05,0.0011712364337333133,-0.03860783978392437,0.0012533141478305843,0.04108172053656783,0.0006998212322417934,-0.001786350836047667,0.00022006787008632886,-0.0026756545487323018,2.9296875
-0.22760817361897362,0.031748017132867574,-0.0021674923011939656,0.021465554133202253,0.026827072023772155,0.035209744573012174,0.012072726909834988,-1.6443642039776118,-0.02722138959673513,1.857612119724566,-0.030758781774827815,-0.02003795686580455,0.04846451445839982,-0.08137808746079317,2.9375
-0.24078312780834552,0.033568709004369465,-0.002303815451182152,0.02261346257744416,0.02839571769576202,0.03730521285277949,0.012726463722204087,-1.7396813845053023,-0.028909070553891917,1.965710737637916,-0.03262726968715694,-0.02112773009545123,0.051326616062161524,-0.0860684935989393,2.9453125
-0.09901944818763803,0.014138299466692528,-0.0008410613610867368,0.01027626371191402,0.011534931897256,0.014851547876977832,0.005765168954132197,-0.7137919187891733,-0.010718228498971005,0.8053565188294749,-0.012531436189877742,-0.009470660872190936,0.020506747942678406,-0.03580129185645932,2.953125
-0.018427304339897106,0.003071108779591637,-8.880378172203759e-06,0.003260413282407605,0.001940642873722095,0.0020752467355021915,0.0017990464424053666,-0.13044997896750724,-0.000377327727720349,0.14546122678347628,-0.0011017874289705896,-0.0028333275754841257,0.0029813855376901893,-0.007196646723425832,2.9609375
-0.021314766829292186,0.003449321011942198,-3.8159372341339386e-05,0.0035084864089314246,0.0022758764090337062,0.0025198856123017288,0.0019343007575569659,-0.15134164744294457,-0.0007441043094238527,0.16901643743473366,-0.0015037833539839522,-0.0030620081160085953,0.0035986310447330434,-0.008196480780864714,2.96875
0.017075260587777242,-0.0018022514600473407,0.00035767657755201806,0.0001661767716131249,-0.0022820854391300935,-0.0035586124403741027,5.342107459825917e-05,0.12607143572262075,0.004185689168451022,-0.14494989860760135,0.003935649684705769,8.840094816450436e-05,-0.004751723002732833,0.00539513411655417,2.9765625
0.11023807750973456,-0.014546370973803138,0.00131821628883258,-0.007939398525618898,-0.013344361227477883,-0.0182999794293639,-0.00451255257222819,0.7997657439968807,0.016137042267772485,-0.9072413670015766,0.017129118966268266,0.007733481750916678,-0.02499702249859468,0.038380895948489334,2.984375
0.13851160450596228,-0.01841678550748269,0.0016097112763249516,-0.0103970651562995,-0.01670226635600664,-0.02277367926190321,-0.005900011541662376,1.0044644434510013,0.019760047315800826,-1.1388425565315228,0.02113191935451557,0.010053719590108038,-0.031135989182144937,0.04839802459264232,2.9921875
0.04525640062943448,-0.005657794993305638,0.0006480407049042823,-0.0022821335065669594,-0.0056266722624916795,-0.008017292386152484,-0.001328856734736943,0.33031657415078686,0.007795861312348129,-0.37600477735042204,0.007924169363209,0.0023986230554516384,-0.010867388280926383,0.01538073595970153,3.0
-0.060926944218243566,0.008876697199817828,-0.0004469479513205541,0.006954293993620388,0.006987279060853,0.008789521476475898,0.003879135734574267,-0.43765977316675747,-0.0058229339371082735,0.4929837340601383,-0.00711680154222816,-0.006318973532547424,0.012207582845594792,-0.02223299285771733,3.0078125
-0.036895448439111696,0.005593408859097059,-0.00019906717136065292,0.004860683665795251,0.004136109181397845,0.004991924484162706,0.002702995000613245,-0.2642172885716133,-0.002737723285045829,0.2966639179387024,-0.003716714647723694,-0.004346984619968849,0.0069832112954193075,-0.013742236739102336,3.015625
0.0996394465151512,-0.013093982263589222,0.0012090447529360267,-0.007018019457752172,-0.01208147302978843,-0.01661918918467687,-0.003992412588893637,0.7231134544089473,0.014778783637884558,-0.8205866062396376,0.015624198015473528,0.006863848368090772,-0.022691625036874646,0.034617944870800145,3.0234375
0.18042392084430278,-0.024157326997857248,0.002042156515834007,-0.014043993831374113,-0.02168022064169166,-0.029414804807077703,-0.00795572152669799,1.3077615170666406,0.0251430333697782,-1.4820266414743737,0.027074301535123805,0.013499682527571825,-0.040247993635616285,0.06326033714819956,3.03125
0.11512970141528037,-0.015224360610445605,0.0013687456188712205,-0.00836310774993834,-0.01392701584740413,-0.01908247273970014,-0.004754727168147253,0.8358753675413392,0.016764823149234824,-0.9478323894057763,0.017826874928988087,0.008140886824656813,-0.0260519767663485,0.04014643325904462,3.0390625
0.00742811428459084,-0.0004810223796936459,0.0002580587947623221,0.001004285207193046,-0.0011347471532159967,-0.002025698941557005,0.0005269483011353928,0.056627651230683654,0.002943664849655956,-0.06600171429241647,0.0025628636597650233,-0.0007024845621919917,-0.0026403401135844055,0.0019738027126654767,3.046875
-0.028683741066672496,0.004470152799647503,-0.00011443971494530171,0.0041464175367744915,0.003158754191677752,0.003699696093360734,0.0022998690125458202,-0.20519791933921966,-0.0016916453215659682,0.22995014392217974,-0.002559423340352526,-0.0036725477170601304,0.0052070638844012715,-0.010847854685042048,3.0546875
-0.03333662876515159,0.005125105742499567,-0.0001629531768571681,0.004558769271309859,0.0037243266976509366,0.0044399403388163125,0.002534521629566862,-0.23911290438736843,-0.0022891080838345857,0.2677923715005355,-0.003219422067293415,-0.004066539930722906,0.0062201755702089535,-0.012507548143508592,3.0625
-0.07869700893937824,0.011354063132552987,-0.0006315166023075167,0.008513203381314446,0.009125868272257922,0.011624819246107433,0.0047667897936352795,-0.5670104839615865,-0.008111986189551196,0.6386235829054343,-0.009647032268284127,-0.007803607635019918,0.016088834541522747,-0.02857985886425473,3.0703125
