AF3,AF4,F3,F4,F7,F8,FC5,FC6,O1,O2,P7,P8,T7,T8,time
0.08252088927908177,-0.010750297922337993,0.0010320585002346779,-0.005524410693011268,-0.010049517322797453,-0.01391266365046795,-0.0031542463101642613,0.5997199982724475,0.012573093906593773,-0.6808737963003366,0.013198882918574222,0.005456419392554509,-0.01896170935545098,0.02857729751084358,0.0
0.16327851678888594,-0.021828315010169023,0.0018655818207949152,-0.012562619818210509,-0.01966420146674414,-0.02670389092219328,-0.007122971910304403,1.1837625012291912,0.022943097844356896,-1.340960860515014,0.024644897993996783,0.012102282727021492,-0.0365358782842451,0.05719720686749977,0.0078125
0.10098646915192978,-0.01329869880749388,0.0012233362386499366,-0.00714117876465924,-0.012259642495373703,-0.01683917716983611,-0.004065963039191517,0.7329495034866484,0.014952071093346307,-0.8312027148609151,0.015819980278379445,0.006984495250915367,-0.022995045659210917,0.03511263177265256,0.015625
0.024511046931976088,-0.002811337924093446,0.0004342042466358852,-0.00047526363220962067,-0.0031553129898547637,-0.004727049505582835,-0.0003080096436186906,0.17984590388600885,0.005134434412923532,-0.20613576509550585,0.004983360525866113,0.0006918902819022309,-0.006352790584551535,0.008008888780212105,0.0234375
0.007958075612774385,-0.0005299015490840562,0.0002628158469233751,0.0009720096771915508,-0.0011784498637483762,-0.0021037776796113076,0.0005090890607216236,0.06040501746127905,0.0030054971780495653,-0.07105049846966446,0.002635407325842204,-0.0006756818512627426,-0.002741280071222039,0.0021497298072080335,0.03125
0.011933043961440369,-0.0010731429106159678,0.00030351962748163586,0.000620940675835453,-0.0016573413227502212,-0.0027326964560545203,0.00031429003103199333,0.08920977906533882,0.003516971454999072,-0.10303870403533766,0.0031971193880364485,-0.0003473708500469104,-0.0036132246751876995,0.0035613648166799516,0.0390625
0.024606104048408687,-0.0028227275681702033,0.0004346756569178095,-0.0004905689451098841,-0.0031770313885962414,-0.004743221482271315,-0.000311883072237119,0.1806856268196161,0.005150481252657705,-0.2061758991037742,0.004996992865023463,0.0007025031653962236,-0.006386078785747986,0.008053565265052598,0.046875
0.06192854827855465,-0.007947000013952238,0.0008202951651326055,-0.0037392095095281006,-0.0076172799889575715,-0.010657576065513522,-0.0021472925970021997,0.45064245101605666,0.009944178184247553,-0.511813099602171,0.010291137625435348,0.0037753567245085587,-0.014503144348782675,0.021286921758677003,0.0546875
0.07083344650658023,-0.009160252949988068,0.0009122125638675838,-0.004508520333067871,-0.00866601432585727,-0.012063731516096748,-0.0025828588788242867,0.5152313932218776,0.011082508695054685,-0.5851713725065709,0.011549242039890599,0.004504082994498829,-0.01642429956116658,0.02444089340606827,0.0625
-0.0010427026113485939,0.0007021338414458113,0.00017036852865455742,0.0017490010377688705,-0.00011090956664124875,-0.0006725947308359842,0.0009493696669855304,-0.004746337466209754,0.0018530899910466287,0.0030390391318365286,0.0013539256065738688,-0.0014102327327541458,-0.0007886895006928921,-0.0010521031756461758,0.0703125
-0.097532643135566,0.013924236416954767,-0.0008251790894941482,0.010144130793824764,0.011359522039441117,0.014607381546663842,0.005687107123089224,-0.7030222606634394,-0.010526802819014379,0.7928912319367009,-0.01231965590005192,-0.009343056844156835,0.020178809263167032,-0.035261821493539916,0.078125
-0.1357502717657786,0.019149236044269553,-0.0012192657941279001,0.013469565232604702,0.01589527848488905,0.020649353210806572,0.007561012661194073,-0.9795889203257196,-0.015424952106032858,1.1055007821528207,-0.017724157132269838,-0.012480986316140379,0.028474427971011775,-0.048792424517530714,0.0859375
-0.11438877284967952,0.016214458980742405,-0.0009987778060354352,0.011611228963053803,0.01335125023419834,0.0172617420717521,0.006509924805248635,-0.8249087239439561,-0.0126843137330919,0.9305098117942242,-0.014692551290057813,-0.010721703522784919,0.02383167481536322,-0.041205315595606265,0.09375
-0.06580969746987032,0.009559934971031822,-0.0004976494269477473,0.0073800887364994456,0.007577001496112841,0.009575424403509935,0.004123876675267431,-0.47347980438455567,-0.006455884988347203,0.533370299564471,-0.007818793646701358,-0.006727992910969056,0.01327763502976127,-0.02399993588667166,0.1015625
-0.008605778379625168,0.0017268682287019102,9.241403963740039e-05,0.0023973602761702254,0.0007791626392463893,0.0005237714072961142,0.0013159630673711769,-0.05994744746273414,0.000883921703602529,0.06589257252241992,0.00027709839149172514,-0.0020281569689216306,0.000840801013522686,-0.003751313712748818,0.109375
0.021651825653747077,-0.002412613486423131,0.0004043094502222126,-0.00023215582549561084,-0.002813941884965689,-0.0042669001797080225,-0.00016662506728043293,0.15872138277301,0.004768589953623474,-0.18170931991249412,0.004566106198252984,0.0004537585139488253,-0.005737188582051974,0.006966735288135852,0.1171875
0.014956450536808994,-0.0014885781380192058,0.00033485935285259373,0.00036025899196842664,-0.0020134285438345467,-0.003207948914972532,0.00016534788030243898,0.11042348217339251,0.003905763887317793,-0.1276231363917289,0.0036239430346400557,-0.00010140159977584996,-0.004270525306334108,0.004612814211290311,0.125
0.03160203299729816,-0.0037730420828662116,0.0005066504564735562,-0.0010861736113716445,-0.003994377418375352,-0.005847549474835991,-0.0006531304801358502,0.23119553563008713,0.006037353581254732,-0.26442314178928755,0.005987720801532946,0.0012699309829861634,-0.007882119428458196,0.010538297879525824,0.1328125
0.09014938432613925,-0.011811733190603363,0.0011113307966035585,-0.006190927244642166,-0.010966107098672078,-0.015127246275473427,-0.0035331394080187527,0.6550220547436867,0.01355591666951297,-0.7433848684002817,0.01428888832120677,0.006093497308457075,-0.020623275994486996,0.03130444246303154,0.140625
0.10224100907930503,-0.013477466539007235,0.0012365215224762614,-0.007251526412684303,-0.012411861387912969,-0.017046290406349696,-0.004129270940540972,0.7425621693588431,0.015117205621222509,-0.8417887637986403,0.016004200028744354,0.007093771996373331,-0.02326861783848787,0.03558553733208203,0.1484375
0.03600800300146169,-0.004387138575880419,0.0005527667657146806,-0.0014832402309798737,-0.0045303653169721046,-0.006549836445928218,-0.0008725682761101003,0.2632984971649305,0.0066158653500877716,-0.2996559725473465,0.006612812900862454,0.0016419837109250047,-0.008864206403453147,0.012091825047172988,0.15625
-0.008908754768907642,0.0017894932764083138,8.863414505611303e-05,0.002436164123142886,0.0008241890360824907,0.0005736101176401673,0.001339036184397752,-0.061779493312632015,0.000839757594096665,0.06740047100222912,0.00024053115835604642,-0.0020623886562449543,0.0009200206236288861,-0.00383983748145798,0.1640625
0.008330026663356312,-0.0005718890889394851,0.00026646255002065367,0.0009387810224600059,-0.001222999943873311,-0.002156404342124158,0.0004924168774805261,0.062928527679126,0.003047655290930684,-0.07409710350870562,0.0026842787128506683,-0.0006469923770837122,-0.0028231403034978497,0.0022752290824613695,0.171875
0.008948366087608814,-0.0006770565961806015,0.0002734952410620031,0.0008776082517990271,-0.0013093155450957141,-0.002261471992419103,0.0004559995111979365,0.0674939748419278,0.0031372852275054694,-0.07882503806132116,0.0027780433489079156,-0.0005865756679583328,-0.002972681884193405,0.0025008689782629067,0.1796875
-0.006635925832454411,0.001442601815420222,0.00011317369486045571,0.0022260802452373327,0.0005332470112344735,0.00020243144603574676,0.001217009879645805,-0.04522391040545749,0.0011487245352779006,0.04936316032694017,0.0005721236475491521,-0.0018598564262652692,0.00040196633371228683,-0.0030264438938581344,0.1875
0.0341502525487763,-0.00414078840435599,0.0005337924979617428,-0.001322751763589355,-0.004309867299670834,-0.0062564408407286415,-0.000783174311247614,0.24976450904809,0.006382098875773214,-0.28437231156755616,0.006350118365766393,0.0014900345854758415,-0.00846269143753207,0.011424986913296072,0.1953125
0.045731912619432505,-0.0057103881814600105,0.0006528183354794863,-0.002322962574748991,-0.005672369931025315,-0.008088079070937833,-0.0013464250423118522,0.3334618315181322,0.007859226208353241,-0.3797023762946599,0.007988388884000323,0.002433166118222749,-0.01096934931838601,0.01552871243708607,0.203125
-0.10050896363390527,0.014337709427144874,-0.0008562087915779933,0.010409403191581323,0.011719157345807403,0.015076740574217217,0.005835504790107819,-0.7246135160173756,-0.010913011128581266,0.8169144964834804,-0.012739684069954611,-0.009592618120776162,0.020830134197228123,-0.036311357005861494,0.2109375
-0.2475197896069306,0.03447353213309653,-0.002372777004949052,0.02319942372470007,0.02918677089405825,0.03836164296510536,0.013049552236520188,-1.788312202890778,-0.029774591624895697,2.0206315648467315,-0.03357535418063231,-0.021672130324483476,0.05278507189559073,-0.08842554373415086,0.21875
-0.14410873588846518,0.020287159877900158,-0.001305471039497851,0.01419075552925641,0.016879241595738864,0.02197944505702056,0.00796734812878069,-1.0402873964884176,-0.016496569190051262,1.174941554736847,-0.018916644741056542,-0.013162328496664185,0.03029173891180347,-0.0517653131740699,0.2265625
0.08965838845527542,-0.011750297501463409,0.0011065607396401774,-0.006155476028260854,-0.010912550914794492,-0.01505034415414576,-0.0035105401368430984,0.6509873052996024,0.013502328093066373,-0.7384659609361179,0.01421804767540633,0.006056500636512257,-0.020530545712681102,0.031109752432085764,0.234375
0.1402750795096604,-0.01867514604546354,0.001628507394106999,-0.010551675477285331,-0.016916828580956878,-0.0230675403204715,-0.005991881737938941,1.0174027278212976,0.019988265292345812,-1.1536315650854772,0.021391724856617236,0.010210479454322918,-0.03151811694606808,0.04906129706587077,0.2421875
0.03983218949330044,-0.004900314193346374,0.0005917129810573127,-0.0018026183782636858,-0.004966550867788617,-0.007155679512674445,-0.001057468154933146,0.2909422872231834,0.007090870511402888,-0.3320888376445148,0.007152780084337555,0.0019468481242104893,-0.009667233841585517,0.013459964454986246,0.25
0.03550750291677575,-0.0043099472817485695,0.0005469903114898972,-0.0014311648255649373,-0.004459735017049017,-0.00646842276341561,-0.0008462761906376235,0.25967706866759854,0.006540142390073592,-0.2962149963207343,0.006537807169041212,0.0015931092755551083,-0.008736454425651002,0.01192212188913477,0.2578125
0.07597929680332949,-0.009865137004700548,0.0009649865140723876,-0.00496348166206038,-0.00928434807725329,-0.012876685821445844,-0.002836187091414679,0.5522871963955305,0.01174336365136876,-0.6266933929302912,0.012274426906585591,0.00492638881405724,-0.01755633074315009,0.026254196711483796,0.265625
-0.03614256700886372,0.005497117475624697,-0.00019144052359183544,0.004794978092130253,0.004044255803993119,0.004885197036534014,0.002668208376524691,-0.2590954639989671,-0.002644043207258972,0.29096437079901083,-0.00361562692238819,-0.004289722995246552,0.006816751970578315,-0.013504103507382199,0.2734375
-0.16299343081168033,0.02288782405139737,-0.001500451599713332,0.015845524356460052,0.019135921735352956,0.024978565115707764,0.00889896523826642,-1.1768121658412156,-0.018930428755533815,1.3285487242226592,-0.021594510420037263,-0.014723845628105497,0.03441290589406691,-0.05846888004681424,0.28125
-0.04690706339041745,0.006988266444096439,-0.0003033149567142072,0.005747013128274322,0.005341779903056078,0.006589757854224737,0.003202339222351122,-0.33674716951323125,-0.0040377314345672105,0.37824996545624173,-0.005143029601142321,-0.005186193346700285,0.009185841404861513,-0.017307744316453513,0.2890625
0.18124332320837386,-0.02427803983592534,0.0020504663149238664,-0.014117841914730176,-0.021788465380682298,-0.029550845963186856,-0.00799963839728318,1.3139807596054425,0.025245291516401307,-1.4884844883165775,0.027192454226245624,0.01357201548240934,-0.04042742700917837,0.06357277812176323,0.296875
0.21267052655414825,-0.028596123157158784,0.0023751953762618004,-0.01686269572358702,-0.025535877914417058,-0.034532490882573104,-0.009546098402361808,1.541305271481415,0.029286056237752937,-1.7452703382329355,0.031650363011983214,0.016164075633848897,-0.047276382479920664,0.07471577931320417,0.3046875
0.06457758930683295,-0.008310036494040173,0.000847753153492359,-0.00397226146337554,-0.007931400693893979,-0.011077487831358595,-0.0022773885244076093,0.46992057600371484,0.010283984529258806,-0.5335534863431592,0.01066582601549522,0.003994592426755864,-0.015078489947606811,0.022225942865794813,0.3125
-0.05750652563857581,0.008426981861866939,-0.0004118439663819261,0.006661462155230032,0.006592985621329903,0.008263400705166214,0.003718505485558797,-0.4131994845924792,-0.005386808485288554,0.46507222480291016,-0.006639503341114452,-0.006045816847476125,0.011478272313379348,-0.021052791522418055,0.3203125
-0.13383387438266883,0.01890061921338134,-0.0011996265264615103,0.01330815631845789,0.015677688361623553,0.020358772911228794,0.0074693670776461675,-0.9654474977180317,-0.015186286921363711,1.0897184924780638,-0.017465167966051527,-0.012327746282702667,0.02807884751486948,-0.048125838419271795,0.328125
-0.1956467012073686,0.027372643637716337,-0.0018374613308824016,0.01868541623465004,0.023025686954974874,0.030147078324490508,0.010504644058913465,-1.412812429446531,-0.023117160671638895,1.5958226876955957,-0.02622548443504407,-0.01741022725645962,0.04150822679579689,-0.07004168894051636,0.3359375
-0.13246614747525404,0.01870038405822776,-0.0011854593170747376,0.013184486916703127,0.015505745998924283,0.020128779022432146,0.007399911773697561,-0.9556642643020223,-0.015002909238317583,1.0785607694812525,-0.017258894115410456,-0.01221105932038601,0.027761891101431947,-0.04762108009647238,0.34375
0.0464276965116033,-0.005826778716691148,0.0006603580833219687,-0.0023853699081312517,-0.005767380868068546,-0.008212324498954714,-0.0013861018795765288,0.33876136449459143,0.007956667731321898,-0.3858434341705771,0.008102381076667437,0.002499132543831767,-0.011129964422876115,0.015813392767522333,0.3515625
0.10267306316067881,-0.013532507169229832,0.0012406105299355632,-0.007282371617294302,-0.012452426424297848,-0.017113434835603535,-0.004148708073730557,0.7454805871103686,0.015168717742978323,-0.8457962577095387,0.01606367207343,0.007121711957702135,-0.023351322443479747,0.03573205446149012,0.359375
-0.021384793031093207,0.0034776277840340743,-3.951575276813377e-05,0.0035123298983482805,0.0022992661175397205,0.0025477373023818127,0.0019430500988865936,-0.152593389054898,-0.0007584728298884898,0.17041026127226008,-0.0015335553054959782,-0.0030800445953969376,0.0036225097016698124,-0.008280872816991955,0.3671875
-0.060880712088298775,0.00889862723700035,-0.00044733699130877855,0.006951975822285057,0.006996538558350823,0.00880771997377017,0.003885337965951441,-0.43860286304061746,-0.005828885089477354,0.4940185926499418,-0.007133559876751655,-0.006330601276319364,0.012211051111556901,-0.022291770148706088,0.375
0.09633390340966669,-0.012640063415823322,0.0011743627404736444,-0.006724650532878796,-0.011691836243257007,-0.016095113586230076,-0.0038298492057898255,0.6990694264582155,0.014345849976646523,-0.7932198960742539,0.015155415464385862,0.006589853816788711,-0.02196167347969648,0.033456504115772716,0.3828125
0.20260158407742046,-0.02720470908974596,0.00227083434494845,-0.01597116273234604,-0.02432648070622425,-0.032930050919348024,-0.009047613873618219,1.4682973265738457,0.027981549702439257,-1.6636277304914278,0.03022232102039611,0.0153268883439253,-0.045061109259990045,0.071147712413874,0.390625
0.09762079414557283,-0.012830916898579904,0.001188290233300571,-0.00684012153106299,-0.011853935617051751,-0.016308240923932453,-0.003898303617119751,0.7090180742740574,0.014512058925579089,-0.8044578128188266,0.01534661859446606,0.006705648408328315,-0.022246601196045105,0.033946498100443,0.3984375
-0.04706265801113143,0.00698680452914689,-0.00030401072603733367,0.00574524147502231,0.0053396643512718285,0.006602868467377467,0.003202004351607509,-0.33766843847799544,-0.004048056564099036,0.38010320544527515,-0.0051575877921281755,-0.005180678505972858,0.009195616382490708,-0.017339094217642806,0.40625
-0.08432540488511779,0.012103646848782016,-0.0006887317253696346,0.008989537564004812,0.009775777531337654,0.012509311687617354,0.005035181387129836,-0.6073253163069603,-0.008828313648593425,0.685175267009517,-0.010442452991332422,-0.008249228516297695,0.01729746689062267,-0.030562593751356188,0.4140625
-0.10066817459916802,0.014362299172737571,-0.000857889745384682,0.010419585708818662,0.011733013837056739,0.015107878103367094,0.005843526659159986,-0.7256598231951722,-0.010931559609615654,0.8184163936191019,-0.012764944217961515,-0.009605172913584066,0.02086290635589361,-0.036375092519849224,0.421875
-0.15325160278254565,0.021566794829999462,-0.00140030630058401,0.014999405371606954,0.017988052886975275,0.02343632930257235,0.008424634945822322,-1.1059663577796672,-0.017680700271654047,1.2481962944644538,-0.0202159437994499,-0.013929364446012097,0.032299408850589385,-0.055011061330980646,0.4296875
-0.14939177970083797,0.02101380698051195,-0.0013597364848009531,0.014657634491371457,0.017517029231124186,0.02281289432320105,0.008228036394157758,-1.077753319220749,-0.01717523006093504,1.216663738252675,-0.019659596197196882,-0.01359973998857669,0.03144873884193986,-0.053619516129561,0.4375
-0.05549014859585214,0.008130948199611207,-0.0003905355092601942,0.006478488492121595,0.006342385782719687,0.007933408455264445,0.003613584997438397,-0.39838966372951634,-0.0051162060783425485,0.4487805899840706,-0.006347294348549425,-0.005872476627306221,0.011020767642412149,-0.0203286395601562,0.4453125
0.057721655205541456,-0.007369195104596039,0.0007769766381755463,-0.0033725807134388206,-0.007112294140009132,-0.009990293476472909,-0.001940448062229757,0.42029649338255615,0.009406649099165243,-0.47735561162459966,0.009691064878763847,0.0034260867646472007,-0.013590477664464586,0.019779459475402935,0.453125
0.15981838956691008,-0.02133693984114911,0.0018295311107491107,-0.012250711248572957,-0.019236724923502705,-0.02615169885297608,-0.006946060506830793,1.1586564324011575,0.022495757509230992,-1.313167510184157,0.024153482584447626,0.011806518113079577,-0.03577243711503462,0.05595643349612889,0.4609375
0.2400823042924815,-0.03233222522787057,0.0026574368828509425,-0.01923406285750512,-0.028774236297504835,-0.03886512216053403,-0.010885702591221421,1.7393810886981118,0.03279152672700461,-1.9703379378374397,0.035528991728307785,0.01840419411288133,-0.05321240690224881,0.08442206041622873,0.46875
0.23564798121711197,-0.03174098144423029,0.0026121300115720405,-0.01885467709563191,-0.028256970047402838,-0.0381691034275723,-0.010673304479033087,1.7073218701299764,0.032229553990844526,-1.9336642151673002,0.03490447976706487,0.018050098357858004,-0.05225461520263215,0.08286565091462551,0.4765625
0.12615296432449832,-0.016751705586013466,0.0014828977274379935,-0.009331970888315347,-0.015252021577449015,-0.020830151615774322,-0.005302285887521322,0.9150044818526397,0.018185535632702074,-1.0369447973152432,0.0193892215776435,0.009057203548284133,-0.02846213374817075,0.044050264327177416,0.484375
-0.027639817140510423,0.004324063571466966,-0.00010380176245768829,0.00405508418112704,0.0030327527848399054,0.0035284776723001846,0.0022491538218498996,-0.19765774851130127,-0.001553038828210466,0.2215034810686174,-0.002405783566628102,-0.0035868865896207863,0.004975420015550315,-0.010469686861144212,0.4921875
-0.17949781450111968,0.02514824448355011,-0.00167092064441348,0.017281743235867036,0.021101218223160342,0.027582859516432943,0.009709665072366864,-1.29609756182949,-0.02105145049453621,1.4634248524178626,-0.023929606652215035,-0.016078719935529603,0.03800866936802224,-0.06429694347028936,0.5
-0.2763419369112745,0.03843288383515797,-0.0026704626940833387,0.02571721721255508,0.03262523672078337,0.04292604616269607,0.014467961218952701,-1.9966533067222156,-0.0334869819621924,2.2556898239416374,-0.037660392324748035,-0.024047072639753822,0.05907422790671264,-0.09863089356933599,0.5078125
-0.23377653214614275,0.03259931185513767,-0.0022312881020279734,0.022007596201138357,0.02755774452569795,0.03618771365600571,0.012376850261299477,-1.688857395423011,-0.02802041392976436,1.908065540823821,-0.031631959619436656,-0.020547106490851508,0.0498070702056076,-0.08355702578106072,0.515625
-0.10222235772424793,0.014557526889145609,-0.0008734989671757107,0.0105469794520544,0.011902805713432375,0.015349630126673843,0.005913286086276497,-0.7371548026205843,-0.01112577921499999,0.8320434481183557,-0.012984420891973497,-0.009724127068330025,0.021184411461835233,-0.03692772757082452,0.5234375
-0.048161097567730585,0.007137553518901272,-0.0003151940092116414,0.005839036876232887,0.005472299270269137,0.006782568508105949,0.0032561886137309182,-0.3458250446201185,-0.004180019441818411,0.3891083759071714,-0.00531530920546196,-0.005273777136253935,0.009426115226492646,-0.01775105411053476,0.53125
-0.03511890984688404,0.005354459695936033,-0.00018070720415270194,0.004712071302202166,0.003931271209118354,0.004715970327235355,0.0026179218720308326,-0.2512354050967417,-0.002509407300318688,0.2814626978735524,-0.003463819047063736,-0.00420577032780711,0.006602888520955215,-0.013117335697644446,0.5390625
0.1241887078605187,-0.016463472044944822,0.00146224701193672,-0.009147184579745896,-0.015002734967381415,-0.02051254028009002,-0.005199628947500229,0.9013489514657944,0.01792604743136186,-1.0223286788580754,0.01911015062103223,0.008881582220810771,-0.02802292797724235,0.04335013683997417,0.546875
0.3098811280027556,-0.04190621624080639,0.003377632839878327,-0.025313997805609743,-0.03708618473526725,-0.04992107941062007,-0.014316022589660967,2.244684136297215,0.04175201853304571,-2.541218470379296,0.0454226459625284,0.024145767544094632,-0.06839864415207893,0.10916825728495116,0.5546875
0.19927654611281412,-0.026758449057812723,0.00223680688488777,-0.015695212737339682,-0.023945593081792955,-0.032404710020130775,-0.008888781684345008,1.4443820868552548,0.02756082639302904,-1.6355672020811451,0.029748008020183944,0.015061314538470098,-0.044359938448951905,0.06996426212410459,0.5625
-0.09770983554090022,0.013932629461560998,-0.0008266919662770387,0.010154300438701741,0.011364698007544985,0.014631154279816105,0.005690688271560536,-0.7042927169622845,-0.010548180261838975,0.7945906038763804,-0.01233852272776885,-0.009347804397811915,0.02021025417943833,-0.035307120599069444,0.5703125
-0.12909326250339306,0.018239672579837024,-0.0011504140653499702,0.012892647011771407,0.0151074517120334,0.019602792051557724,0.0072339647510572605,-0.931329670558296,-0.014576186965411658,1.0509383154089482,-0.016786952552929255,-0.011932311438079041,0.027044709941802202,-0.046437158553005405,0.578125
0.10896804549039528,-0.014373449333974553,0.0013053316934049308,-0.007825067967632464,-0.0131869945262129,-0.018101395278305277,-0.004451161733880811,0.7910330911552843,0.015972915182230762,-0.8973465381016742,0.01694797289864616,0.007631177015086006,-0.02470655590742629,0.03794386075431277,0.5859375
0.1606385017871844,-0.02145578945427164,0.0018382505420465362,-0.012325292796868113,-0.019332837423090717,-0.026289902964105445,-0.006988459582590125,1.1648770299199507,0.022606317464961938,-1.3200348397008137,0.024272793293014235,0.01187938831923116,-0.035948501534616956,0.05626776437358696,0.59375
-0.060077779306386477,0.00877923301949345,-0.0004387267045205958,0.006883941231912126,0.006899544137639807,0.008660159376576092,0.0038455273878395375,-0.43196440225789895,-0.005714105733014667,0.4861950549243386,-0.006998693346983102,-0.006259309318387517,0.012026803275906918,-0.021952524979473777,0.6015625
-0.15557350105612225,0.021859181801313257,-0.0014238383836741963,0.015197069168233187,0.018249274597609555,0.02378395325849546,0.008532714341768851,-1.1228959878446965,-0.017969358683322428,1.2676006326300568,-0.020528810677518508,-0.014107115856316639,0.03279038205313398,-0.05579786852617508,0.609375
-0.010895041553441443,0.0020363368005784865,6.871819270087697e-05,0.002603502562951432,0.001050850803709529,0.0008777905908171114,0.0014294557065325567,-0.07631918622452102,0.0005929008662846017,0.08392614101960262,-3.394302522934961e-05,-0.002215650096989632,0.0013446607956063097,-0.004532889956476002,0.6171875
0.052289249983396555,-0.006615636728479216,0.000720456423382659,-0.002899177836028202,-0.006458972115632268,-0.009119803062154631,-0.0016722110491727074,0.38057790966816074,0.008698763265648274,-0.43251114405089025,0.008908536209327711,0.0029756706210338013,-0.0123918236504454,0.01783590988194972,0.625
-0.05878745225023616,0.008611327350488657,-0.00042563509520238607,0.006770072756315549,0.006747354660271094,0.008475948633950783,0.003783015207161559,-0.42315240886217415,-0.005555935922090966,0.47668139734063575,-0.006834973944581651,-0.006158337833642174,0.011752180256127726,-0.02154759759105493,0.6328125
-0.07070263553159853,0.010247708277673104,-0.0005486846885324401,0.007813699946221775,0.008165577182208927,0.01036041938387819,0.004370237978063974,-0.509191348986312,-0.007087468784603409,0.5735662333787254,-0.008516226284635362,-0.007140701987849242,0.014345712986787775,-0.025755561690099064,0.640625
0.0593660330974435,-0.00757957334624527,0.0007933277971413998,-0.003504698141638567,-0.007298849283314746,-0.010244926233692183,-0.0020166773766644667,0.4321465923327695,0.009601073072351356,-0.49154129905163685,0.009923278442299373,0.003553425170677254,-0.013926429899103933,0.020373877230795305,0.6484375
0.03493004422627097,-0.004242274846424529,0.0005416745212433688,-0.0013846609271882815,-0.004401421616255828,-0.006379275172471081,-0.0008216581605531184,0.25554842733877225,0.006468227082565859,-0.29142634415687535,0.006461117827957969,0.0015531014512363992,-0.008621270032269425,0.01172285205365969,0.65625
-0.19546024849311747,0.027323246209398376,-0.0018349259490100904,0.018660024086232827,0.022982477786011073,0.03010972699647992,0.01048727522258432,-1.4113293969308915,-0.02309041836390121,1.594623735511224,-0.02619185854058279,-0.017380064868128983,0.04145338664535553,-0.06995202915667897,0.6640625
-0.28831885466721235,0.040059558464686396,-0.002793289816357218,0.026743754230378995,0.034028456452684624,0.04482237557466877,0.01505050638907806,-2.0833132954373017,-0.035006190229573526,2.354607129444884,-0.039355114023021054,-0.025019349184145476,0.061643676615739156,-0.10288303315418346,0.671875
-0.07024398894858101,0.010192254012654504,-0.0005440594547389174,0.007771550405182583,0.008115590247977221,0.010288790979778946,0.004349493950499434,-0.5056707202178633,-0.00702806146916875,0.5693045293516493,-0.008451756332408385,-0.007103897398280268,0.014249961724708327,-0.02558624158300951,0.6796875
0.18620657478329358,-0.024953428169396646,0.0021017486122861247,-0.014546155787336706,-0.02237085870610429,-0.03033174968495789,-0.00824240825375365,1.3498185658112687,0.02587932035518112,-1.5298717732380176,0.027895212738391417,0.013976531088069727,-0.04149710682877874,0.06532996788862726,0.6875
0.20597868254884918,-0.027685638920592375,0.002306495343576753,-0.01627360509781503,-0.024733778101627066,-0.03347341736491469,-0.009220199107037887,1.49309951965728,0.02842536782110672,-1.691413084404851,0.030703853099289743,0.015613120027898731,-0.04580827001066103,0.0723527546361339,0.6953125
0.09446071593228822,-0.012417471987926485,0.0011564268738990745,-0.006573435574435997,-0.011484779332298765,-0.015816046094049296,-0.0037486185301028097,0.6863573912543922,0.01412331724930297,-0.7782478603191028,0.014902610011747634,0.006453499696709099,-0.021575576070561236,0.03282308149935059,0.703125
0.0888222271957342,-0.011630700720053943,0.0010977190728858144,-0.006078442418045521,-0.01080729606796974,-0.014918051449167647,-0.0034666698709611625,0.6453246596982187,0.013395706521324815,-0.7319481035001885,0.014099772453409563,0.005983250864106507,-0.020343464523727803,0.03081313480215663,0.7109375
0.1712776368477753,-0.022905479483892616,0.001947534901421953,-0.013245391574751882,-0.020596116664126606,-0.02796985267175559,-0.00750721418070812,1.2415701800021124,0.02396484452772217,-1.4069667063638536,0.025779680594787684,0.012749318223190375,-0.038254146234644994,0.06003317335954795,0.71875
0.16148032930058726,-0.021557781280736772,0.0018463058898321035,-0.012390320235944927,-0.019428287725090563,-0.026415977602953698,-0.007025051280372756,1.170647122284765,0.022703491540706906,-1.3269235363492244,0.024389513732064882,0.011941685643079679,-0.03612063506802342,0.0565608525000995,0.7265625
0.04720513468936262,-0.005916283091066455,0.0006679671967770904,-0.0024525378256087184,-0.00585440719209875,-0.008320319561769497,-0.001420717153911455,0.3440367548871822,0.008048145961778953,-0.391438477302034,0.008197028315534883,0.002557039347847961,-0.011291165356435559,0.01605572113259129,0.734375
-0.039303692167108696,0.005920359824663806,-0.0002239449576483528,0.005068243175000345,0.004417519990344919,0.00537694871121217,0.0028207942753960217,-0.2818139937225711,-0.0030432338883061493,0.31699082084463376,-0.004059838240270594,-0.004545077775327031,0.007501002299330934,-0.014609915380061593,0.7421875
-0.09180799105208916,0.013116789956811708,-0.0007656168859737357,0.009639379535738455,0.010661526683873877,0.013691982992187495,0.005399320828696,-0.6617706719623474,-0.009783451848157173,0.7466428009894895,-0.011500452684640809,-0.008861218624193673,0.018919902234416267,-0.03322190559307688,0.75
-0.1904492850746145,0.026649819295886393,-0.0017836793406390613,0.01823357347058666,0.022403353099769735,0.029318267281166654,0.010247300460768837,-1.3753582478131583,-0.02245361464289774,1.5531875476931352,-0.025482969570997955,-0.01697756897986725,0.04038480130301553,-0.06818597007346082,0.7578125
-0.25775997881020724,0.03588439683263327,-0.0024784802476783205,0.02409685570761214,0.030414498088184402,0.03998294178509427,0.013554736754310685,-1.8621192798339747,-0.031098274094349974,2.1034971527549136,-0.03502598197476829,-0.02251707133548656,0.055028711186881296,-0.09204407430162583,0.765625
-0.18821679310396855,0.02635042454261358,-0.0017610833204942055,0.018039095015213846,0.02213832252991177,0.02896970654818278,0.010138056986118582,-1.3589408874815578,-0.022169713216635436,1.5347983929143152,-0.025171757677972084,-0.016798949309736095,0.03989805422745544,-0.06739401191798221,0.7734375
-0.12944326767153408,0.01828537066127021,-0.0011544507553307524,0.012916080052204721,0.015137115646007178,0.019660672645766986,0.007248578856723129,-0.9339228022732572,-0.014619653531820207,1.0545959406218948,-0.016841185129746573,-0.011961213599510441,0.02710402896574447,-0.04656536621235807,0.78125
-0.2208456774809174,0.030806396892523773,-0.0020970579252520233,0.020871935074273276,0.026002646291784642,0.034137973623946015,0.011735454823311228,-1.5953388255207976,-0.02634674537843335,1.8025292582008696,-0.02979228020376154,-0.019472431166727946,0.046974348410687046,-0.07897114796211409,0.7890625
-0.2016140476881608,0.02817760100458686,-0.0018986046129667801,0.019206170154351082,0.02372719001096032,0.03109248357203794,0.010794363835981006,-1.4561308886803888,-0.023882299758426317,1.6443220595625128,-0.027064355090021787,-0.017896776229916738,0.04280393789707784,-0.07215491430377045,0.796875
0.18606661550137857,-0.024939383548605382,0.002100650326099167,-0.014532227359637358,-0.022356690062173924,-0.030312067054706817,-0.008236365695611671,1.3487486601686205,0.02586354334787813,-1.528607759076954,0.027878641771231987,0.01396628744412187,-0.041473796895147824,0.06527499713915469,0.8046875
0.5954733313717699,-0.08104307716706617,0.006324126425187122,-0.05017188026692866,-0.07103606369614825,-0.09515948151263263,-0.028337461219209305,4.310713656557246,0.0784007697331825,-4.87841738939272,0.08589905994977054,0.0476236796810362,-0.13048429765818798,0.21041008015630466,0.8125
0.5233628730380901,-0.07117248005102887,0.005580391396927346,-0.04390320690094455,-0.06247205101630984,-0.08374123962255688,-0.024800598605381672,3.7890445185036703,0.06915017081680166,-4.287823302926084,0.07568026398968128,0.04170466069971333,-0.11481154037982264,0.18485784543059333,0.8203125
0.1351933958900288,-0.01798804144613943,0.0015761396038243584,-0.01011616856786492,-0.016323051063863118,-0.022261719131458642,-0.0057447590659580935,0.9808638371943419,0.019341586152397006,-1.1115942846474773,0.020671730627375193,0.009799533620185813,-0.030419515433897933,0.047265059434030206,0.828125
-0.04936471766255397,0.00730908136446956,-0.00032789556420450856,0.005955099039790299,0.005628296124874175,0.006971902687539338,0.00331859618905799,-0.35429356275307095,-0.004341225755181131,0.398201747880037,-0.005484248407919494,-0.0053774583133690485,0.009710479182022221,-0.018162538583774642,0.8359375
-0.014719597744686347,0.0025749399944344237,2.9167924749694745e-05,0.0029415281801737584,0.0015164325767748226,0.0014879286863426098,0.0016209913260877419,-0.10374870985568495,0.00010279497385477218,0.11482214067229267,-0.0005799747511888106,-0.002536606180963395,0.002179090528137899,-0.005895162921547036,0.84375
-0.08412319071901653,0.012087489107321284,-0.0006870368668644897,0.00897670056287789,0.009763185071751494,0.012479099303705362,0.005028358320512701,-0.6060391160627528,-0.008804109424497907,0.6833056036096009,-0.010417893297831899,-0.008241390015805672,0.017258609574479656,-0.030501411455097844,0.8515625
-0.22860816682028856,0.031874289370667934,-0.002177485365244262,0.021549202705817012,0.026929863097998465,0.03535709902517788,0.012118826015105525,-1.6514187041380877,-0.027343873438929755,1.8658317796357897,-0.030887195791568872,-0.02011270369325679,0.048661588040045646,-0.08170496489242418,0.859375
-0.22067874305233762,0.030778561006466202,-0.002095522763648289,0.02086187647770356,0.02598257253189752,0.03409920635584142,0.01172766763723337,-1.594008930253284,-0.02632639054147555,1.8007490223687395,-0.02975796492301816,-0.01945812828026357,0.046941129673326226,-0.07888474268189787,0.8671875
-0.13144612079531398,0.0185563926821435,-0.0011749592231400873,0.013096601367849844,0.015379441906520758,0.019973677774068756,0.007348070885150075,-0.9484084016509283,-0.014877179392612027,1.0705665732195344,-0.017118855653442584,-0.012125565554248622,0.027551032926412172,-0.0472699040720174,0.875
-0.11941992535874361,0.016919217163480493,-0.0010508893034199198,0.012046547639230921,0.013957903814090844,0.018077424390453328,0.006759981230931048,-0.8614548377157817,-0.01333319110566978,0.972387317473607,-0.015425191882170352,-0.011140595913582315,0.024937693468143635,-0.04303377188596048,0.8828125
-0.1021719670117295,0.014560873287074604,-0.0008729413693552552,0.010545171420661642,0.01191207744366595,0.015346649644340193,0.005915004630166168,-0.7367417503821105,-0.011118533696571986,0.8311204162164576,-0.012981487564718416,-0.009725542675360355,0.021183966358352718,-0.036926838206309674,0.890625
-0.012003128067126749,0.0022063153897135335,5.707781447114903e-05,0.00270410583385992,0.0011933291638755465,0.0010634549706070291,0.001489562455844496,-0.08440148095209465,0.0004477467541208795,0.09277851785281063,-0.00019677716516824814,-0.002316329100403584,0.0015857497004683916,-0.004949244512089739,0.8984375
0.03614448199547672,-0.004394040669926386,0.0005536031857809356,-0.0014818781484008878,-0.004534478904740888,-0.006562513628771002,-0.0008752027523287869,0.26403148952716815,0.006618476697370744,-0.30141978818115006,0.0066290426068248524,0.0016424270230442992,-0.008872529517694178,0.012135389517820665,0.90625
0.026009196679698417,-0.00301798740650791,0.0004493840734686805,-0.0006061452724316445,-0.0033395821607426854,-0.004961579958067586,-0.00038272814542117216,0.1908777489233764,0.005318688963319699,-0.21819977140646934,0.005193260570314594,0.000818278144037435,-0.006673719385603591,0.008555196276048156,0.9140625
0.07274613606337149,-0.00943569377129962,0.0009321021865157288,-0.004683882477319411,-0.008904397700019495,-0.012373410252922034,-0.0026818308279897346,0.5290933667756923,0.011326365428859725,-0.6003522827816108,0.011820744391780302,0.004669268661730242,-0.0168508828082268,0.025130105926316947,0.921875
0.14708378607753675,-0.019615126475687694,0.001698855181943364,-0.011153439296935228,-0.017737567040740292,-0.024149842826064156,-0.006328796235049331,1.0667402523133562,0.0208702921115217,-1.2087110961839505,0.022357548563886193,0.010776008975016352,-0.033017258710918165,0.0514769975358595,0.9296875
0.15508931841307055,-0.02069088738290918,0.001780708221608315,-0.011840442359160989,-0.01867647216573386,-0.025409817141292784,-0.00671538498408639,1.1243897423399658,0.021889963676434695,-1.2745421025286774,0.023487390840856395,0.011421050383789893,-0.03474508938942104,0.05430213253032706,0.9375
0.15177667578145965,-0.020234720614333415,0.00174644182653912,-0.011548363324479161,-0.0182797074714126,-0.024881004900460284,-0.006552834682113307,1.1004625167269086,0.021459312216201207,-1.2477541491541921,0.023015402744020547,0.011145833432886049,-0.03401572155444382,0.05312637157550398,0.9453125
0.1605486080179382,-0.021460290649305835,0.0018377663767985821,-0.01231979962015232,-0.019334096835892937,-0.02627733244445734,-0.006990667723758516,1.1643204216778915,0.022593310713011253,-1.3195159955930416,0.02426379762200365,0.011878709575854041,-0.03593124608392355,0.05624776126483597,0.953125
0.058739936509008515,-0.007523063305218758,0.00078790281784093,-0.003465498626707667,-0.007239052462080232,-0.01015690985739037,-0.0019952358108040464,0.42798900627159103,0.009539514917167638,-0.48592522162797624,0.009839109401937758,0.003517617001645218,-0.013809351420988502,0.0201595270185541,0.9609375
-0.12990753867022423,0.018346868480966946,-0.0011590181989272806,0.012959454055609443,0.015196437525005395,0.01973076642219541,0.007273649210551544,-0.9370934625770677,-0.0146723319017697,1.0582608949193983,-0.01690193623327196,-0.011998768652646536,0.027207720751859323,-0.046731790124760635,0.96875
-0.2002987478912435,0.028020043966318544,-0.0018861469250248707,0.019096489255332565,0.023579623054713096,0.030891101426252992,0.010738119089172415,-1.446679759091002,-0.02371838915797431,1.6341288155708342,-0.02688559646632808,-0.01779855293265831,0.04252662643242318,-0.07169921588992491,0.9765625
-0.1299802596771406,0.01838484654752889,-0.0011606298232081699,0.012976442679418408,0.01522269851332347,0.01975265310842379,0.00728554679480595,-0.9378218076043486,-0.014697926928885462,1.058173521670749,-0.016919101719202048,-0.012017714502855312,0.027244555213261315,-0.046763147781436254,0.984375
-0.07754842853846639,0.01117649507463675,-0.0006188637428324639,0.008402695111273293,0.00897782688554094,0.011436708359690557,0.004703709791535419,-0.5581982183661086,-0.007958610473789667,0.6290145959908948,-0.009480632844159944,-0.007694891622086101,0.015832996773160656,-0.028157127613468287,0.9921875
-0.05294032838580236,0.0077862592039132745,-0.00036442422269888436,0.006253618490134802,0.006040879503733735,0.0075312397861483135,0.0034896965064331524,-0.3802640442203296,-0.004791986568466977,0.4280703954695365,-0.005988151716150013,-0.005663223577196041,0.010468548535932033,-0.01942870332736623,1.0
0.010338049534614506,-0.0008801228571245728,0.00028821680344684095,0.0007503746340822813,-0.001479847502545903,-0.0024876022617260005,0.0003842876170770306,0.07715976433034324,0.0033219767918133618,-0.08954605501477293,0.00297693487915479,-0.0004657577536501986,-0.003285163706325811,0.0029899693425639393,1.0078125
0.03477713834251129,-0.0042106638332362525,0.0005397855121664411,-0.0013666181439712744,-0.0043724985498786,-0.006349145217008945,-0.0008101237130681499,0.25385144659415176,0.0064440921650876,-0.28989324602376254,0.006433316934481579,0.0015322337434347973,-0.008580177479231359,0.011639778341625774,1.015625
-0.003697445165128986,0.0010723502236254935,0.00014247687718354178,0.0019862238402269024,0.00020855257941122856,-0.00025136984737536913,0.0010816727227277235,-0.02432293511923473,0.0015010396453501139,0.02471246586946384,0.000976226726857624,-0.0016361212531807578,-0.00020598996636310635,-0.002000411764263174,1.0234375
0.023219365702073475,-0.002623545123946425,0.0004202664587547167,-0.0003628784950629836,-0.0030003916634067994,-0.004519081960902788,-0.00024259875198708549,0.1704788539913186,0.004962808719039414,-0.19508881561914118,0.004792798680882076,0.0005815611132143083,-0.006070172218092489,0.0075479821970094625,1.03125
0.06263992842940262,-0.008040664939549396,0.000827399677125602,-0.0038031193855565287,-0.007700810654211388,-0.010768145052494864,-0.002182573777904411,0.4555731542995741,0.0100333053212084,-0.5170643262098277,0.010384663014156859,0.0038314172390297723,-0.014659378857701312,0.02152707579016519,1.0390625
-0.06893516080429281,0.009984427663755261,-0.0005296781876656663,0.007648049799431188,0.007941304016215409,0.010071338730190208,0.004276524013402872,-0.4962540263679693,-0.006846651909856542,0.5594010622350016,-0.008258832654890299,-0.0069815206277523915,0.013943901861862363,-0.02511189647361958,1.046875
-0.1862184178347957,0.02606472296242569,-0.001739736822153477,0.017864350088125272,0.02189796441323534,0.028648907642744685,0.010038198352246362,-1.3444243515362826,-0.021901883038637694,1.518118138308732,-0.024879373933166648,-0.016628434672909625,0.03945748214128309,-0.06668163480975163,1.0546875
0.05017622809480351,-0.006320051266040314,0.0006987254672878826,-0.0027053247888832125,-0.006197745692891336,-0.008794210692672624,-0.0015649102325576492,0.36606344284758563,0.008427074018773592,-0.4169947070947348,0.008622581705758341,0.002797854951302195,-0.01192491912396723,0.01712325306784435,1.0625
0.39095430688173655,-0.05301898105797141,0.004214218412611537,-0.032370800935290864,-0.04671899014433232,-0.06277028317799495,-0.018296755459264586,2.831395582715309,0.05215613534023537,-3.2051657033284497,0.05691662816386315,0.03081237346902197,-0.08601804671255901,0.13792409316760995,1.0703125
0.27138706627071885,-0.036641443124812496,0.00298075117529004,-0.0219713218721036,-0.0325164481868726,-0.04382968927277408,-0.012429453989966642,1.9660910166979833,0.03681447526139571,-2.2257912238010737,0.039969009267168905,0.020989636750468207,-0.06003449636871848,0.0955337955684945,1.078125
-0.1876363174934952,0.0262575816258302,-0.0017547084580067725,0.017982653419890273,0.022053668226899983,0.02887836252872064,0.010105745663939647,-1.3549803695049667,-0.022090248184439935,1.5307710092210858,-0.02508628861487178,-0.016741590232243843,0.0397609150068722,-0.06718831122649518,1.0859375
-0.32504895135773515,0.04509365054122339,-0.0031723518993193945,0.029950203440127016,0.03840003300502792,0.05064532310713863,0.01685417969897056,-2.3491208670507913,-0.03972599892356391,2.6548421513997678,-0.04456221392962275,-0.028041870769233524,0.06964605314777235,-0.11590463132408238,1.09375
-0.04534573990965774,0.006771808554620471,-0.0002868450688310726,0.005607122861254488,0.005155537923297706,0.0063425648790668854,0.0031243444940796646,-0.32547722764438025,-0.0038317926062910452,0.36568330345036026,-0.004923447566168348,-0.005053921972134033,0.008840832954513132,-0.01675945000222744,1.1015625
0.11604467567277549,-0.015346015532597033,0.00137813704549732,-0.008444947909706806,-0.014033650046648699,-0.01922495115508552,-0.004799271038654367,0.8421639842255949,0.016883455113607226,-0.9548829927081345,0.01795187429558464,0.008214176183897208,-0.02625510563691107,0.0404559123052036,1.109375
-0.014199623414845226,0.0024922947939610856,3.455331906820389e-05,0.002888827641350373,0.001442641510038768,0.001397962069352102,0.0015929576594581325,-0.1001701605307751,0.00017194390115308326,0.11102897140473221,-0.0004995351738400942,-0.0024876171292731956,0.0020523960137425134,-0.0056984792397504515,1.1171875
-0.0645513928152349,0.009386472969624188,-0.00048474462443075554,0.007273637227758994,0.007425366694990474,0.00937230256408668,0.004063214374827381,-0.46453175926420526,-0.006291855876972692,0.522920239913216,-0.007632537551924653,-0.006624854174602359,0.013001495036989006,-0.023543172345087553,1.125
0.08909244456441538,-0.011663813218194279,0.0011004919355181182,-0.0060993406547774605,-0.010836805909216178,-0.01495725987752032,-0.0034799068294759103,0.6469957903714426,0.01342391164901599,-0.7344201127459821,0.01413585287529626,0.006002898451533628,-0.020396995270086322,0.03090198719221499,1.1328125
0.1426196621165743,-0.018991288995717164,0.0016527749417929425,-0.010761962703295033,-0.01719499778367241,-0.0234301331187972,-0.006106316447867251,1.0342420076570353,0.020297234399244107,-1.1722492358320646,0.021714499663388995,0.010399959026989591,-0.03203848618041188,0.04985352860453136,1.140625
0.0011411547537039477,0.0004003117481815507,0.0001930643298970212,0.0015527770151882267,-0.00037228265085868323,-0.0010215871280675685,0.0008418825121523372,0.010701224836480965,0.002144341226950218,-0.014505283250917034,0.0016649470309437924,-0.001232689495645935,-0.0012856402151458514,-0.00030043933805862336,1.1484375
-0.07416373633629325,0.010720799084960214,-0.000584152010690471,0.008114444542605353,0.008581301541730984,0.01090415851453379,0.00454090179402881,-0.5340074410327333,-0.007525564248038216,0.6013527693268408,-0.0090017075864799,-0.007425322300295034,0.015094253333149031,-0.026976881406204474,1.15625
-0.006492032566252606,0.00144496539824532,0.00011372979299087374,0.0022284806181371315,0.0005329467132960847,0.0001849285457194323,0.0012177627723555932,-0.04422657356642957,0.001148995941204145,0.047441832050115346,0.000590433571742808,-0.0018606798824018303,0.0003969895436177721,-0.0029667204927880633,1.1640625
-0.03005386089929693,0.004665589116649163,-0.00012927087918002247,0.00427332879905237,0.0033246841844934176,0.003914716157175521,0.0023705637281996148,-0.21456531320335748,-0.0018763948983238194,0.24083859679570757,-0.0027513511026678794,-0.00378939255134781,0.005520060116331108,-0.011306166817521595,1.171875
-0.1931350795496683,0.027006905298036146,-0.0018114384279199736,0.01845921826051596,0.022704872767380216,0.02974294764741441,0.010374069808864898,-1.3945259834483152,-0.02279819770102163,1.5760683376859947,-0.02586551301362825,-0.017188687814722985,0.04096013854631874,-0.06911972818758068,1.1796875
-0.2165551120255875,0.030222775370014564,-0.0020530076787271044,0.020497831745400354,0.025494033744747218,0.03345555837119952,0.01152589714211408,-1.5642184627667803,-0.025800423680392367,1.7675687205402904,-0.029185802623170377,-0.019118510813836993,0.046044239823375424,-0.07744010423041277,1.1875
0.004163616025724824,-1.0357823470841191e-05,0.00022383406727135614,0.0012941876726093415,-0.0007337175605627146,-0.001498472359187246,0.0006936822584950394,0.03252777562432286,0.002520441347239272,-0.039506453721649536,0.0020938545136461252,-0.00098495410333294,-0.0019317663560357412,0.0007892578586026067,1.1953125
0.17179980415448246,-0.02298415632553185,0.0019533026848343052,-0.013293431026446041,-0.02066049130287288,-0.028052065077104553,-0.007537265811468812,1.245557514349767,0.02403170988514951,-1.4118862370003784,0.025853809330076822,0.01279461388203659,-0.038368499937144786,0.06022509273734925,1.203125
0.08695509753943957,-0.011377654033642355,0.001078558297810071,-0.005914267265145246,-0.010584514186102324,-0.01462284856022973,-0.003377675826762179,0.6320596731145016,0.013151790720364548,-0.7173714626493393,0.01383559179910035,0.005830853918584227,-0.01993148219161091,0.030167832033822988,1.2109375
0.0036367545199603606,2.6666881772902543e-05,0.00021946735692010447,0.0013320575303009928,-0.0006875064178154134,-0.001430725034489246,0.000709803170824295,0.029304368016359623,0.0024684508052751084,-0.03511128115284758,0.002031307712724462,-0.0010116333572804544,-0.001831152552673035,0.0006300597681283079,1.21875
0.16173770888244457,-0.021624127697113832,0.0018501390169862078,-0.012425016239905067,-0.019476969623355708,-0.02646495964364671,-0.007047054564389963,1.1727499313165468,0.02275383284360702,-1.3287748033376208,0.024433891298594797,0.011976580551661238,-0.036200719769390356,0.05665156262727464,1.2265625
0.30718779045970646,-0.041528026265334486,0.003349727839248007,-0.02507542248697218,-0.03675512711696016,-0.04949221386206647,-0.014179468402800592,2.2246681506982915,0.04140650399473369,-2.5191777535919155,0.04504012156086722,0.023919487968869897,-0.06780630527522465,0.10819699598803839,1.234375
0.1083286321229476,-0.014267920600554145,0.0012977463825534425,-0.00776416826536177,-0.01310814107341423,-0.01799428364673878,-0.004413696839968692,0.786014017886842,0.015882069846765677,-0.8919331416153364,0.016855089113260852,0.00756942144213691,-0.024565673872202973,0.03771232632376636,1.2421875
-0.23258560206743545,0.03243254375901383,-0.0022188255267595607,0.021901212502080405,0.027413741422691453,0.03599396008359444,0.012318472876721605,-1.680122220971598,-0.027857774862903646,1.8980756834607362,-0.03145565553878297,-0.02044574717888453,0.04953972364695582,-0.0831218721479732,1.25
-0.2849498000103833,0.039588689237430676,-0.002758367596760576,0.02645085223618029,0.033627337641679605,0.044281637132991804,0.01488316772357154,-2.058899166973654,-0.034567518879600925,2.327007165372086,-0.038872717245348805,-0.024740624877566418,0.06090961486276331,-0.10168135109693834,1.2578125
-0.07796441237640322,0.011223505755637624,-0.0006228615270010238,0.00843560870881244,0.009018081981727235,0.011501364594409483,0.004720538112645251,-0.5615785446275164,-0.00800828770829279,0.6333243803801314,-0.009540269210179373,-0.007725195007067128,0.015912237599402416,-0.02831670971686827,1.265625
0.03007777174725262,-0.0035694084337948595,0.0004914949771960645,-0.0009614202255506123,-0.003816041249540712,-0.005603953768582208,-0.0005801521544522715,0.22009367964782142,0.005845469730517838,-0.2513252946845556,0.00576661252180226,0.0011498264931831116,-0.007560481382399641,0.009976367659008157,1.2734375
-0.024169684812218487,0.003871658985400514,-6.833704922544214e-05,0.003764005847338391,0.0026414266149414043,0.0029891848258300447,0.00208521961933872,-0.17216439633465802,-0.00112117947823086,0.1920288714053668,-0.0019230711983171042,-0.0033140574804473846,0.004241872656163841,-0.00925077729340108,1.28125
-0.018442582684116873,0.0030808405468476393,-9.225249796703396e-06,0.0032615140056305772,0.001953444260184932,0.002077655874681457,0.0018018690533757463,-0.1307517401788838,-0.0003812634114386013,0.1454535522289331,-0.001108788443702532,-0.002840780720508641,0.0029869297848990916,-0.0072163996269861835,1.2890625
0.07866382480469265,-0.010237848536215515,0.000992771825393396,-0.005197610235612529,-0.009605454741190808,-0.013305519004183215,-0.0029693148092919206,0.5715290236893447,0.012088058440738776,-0.6484095099788694,0.012656419333068278,0.005148459261107726,-0.01813950417378968,0.027205681741050335,1.296875
0.09592806746264168,-0.01260981262215973,0.0011711456665172055,-0.00670153133023312,-0.011660434943209645,-0.016040235467201652,-0.003818193440350224,0.6964440306892518,0.014307055965494397,-0.7897593168605316,0.015105754085872692,0.006571289882111413,-0.021894241406756932,0.03332802454304864,1.3046875
0.009796806731342313,-0.0008012924865240299,0.0002825484768613581,0.0008025103652451849,-0.0014085058778364995,-0.002399527980743918,0.00041299532101774644,0.07368288429909843,0.003251231079898128,-0.08597456169070541,0.002901664818819759,-0.0005131263726463289,-0.003156439055498602,0.002807648348255265,1.3125
-0.057772505087493174,0.008471684693444809,-0.00041508572480907847,0.006691097099710317,0.006634564311081769,0.008301982182775043,0.0037345410402950187,-0.4149870362518223,-0.005426631471733687,0.4664604742876856,-0.006675125577264692,-0.006075617111359759,0.011543386622006782,-0.021136397599153756,1.3203125
-0.0805212438024658,0.011597084100027522,-0.0006503433125228441,0.008669152148063772,0.00933431418073773,0.011908506501046374,0.00485293012318085,-0.5798514428609693,-0.008351044682119347,0.6534573662613976,-0.00990450938637825,-0.007948041480424155,0.01648528242707426,-0.029207360193444897,1.328125
-0.09761603603897653,0.013931957965880712,-0.0008265515741533383,0.010149146445802193,0.01135394944110601,0.014619165812453282,0.0056890390713803494,-0.7037873914265523,-0.010543085382906695,0.7942990551978945,-0.012330147752302024,-0.009346549266256238,0.02019101927320103,-0.03527488511645842,1.3359375
-0.0698089747513089,0.010107963517281824,-0.000539013062443436,0.007727101358403851,0.008043381465250734,0.01021291506693857,0.004319868633614475,-0.5024535607896887,-0.006968469488186009,0.5665187488188698,-0.008384956296247357,-0.007053797804386368,0.014142403420554063,-0.025411742207692507,1.34375
0.0340173811957098,-0.004119707200598138,0.0005324106293597067,-0.0013036955493551975,-0.0042914469901200285,-0.006233839388959248,-0.0007769230567325011,0.24897467327404646,0.006358822253753549,-0.28394849748260464,0.006332860999365042,0.0014784526147838802,-0.008422850531395689,0.011396052905176098,1.3515625
0.12466787883437427,-0.016528797732102436,0.0014673159002607248,-0.009190924773963872,-0.015057687619798737,-0.020588372373716173,-0.00522339705412971,0.9047658877629736,0.017990385672814753,-1.0258562587689486,0.01917445273472147,0.008922240013105424,-0.028125401455249086,0.04351265550942686,1.359375
0.1127374999644872,-0.014887937440026618,0.0013439560128538836,-0.00815742344022662,-0.013639404185291703,-0.018695518609097343,-0.004636081342465396,0.8181733816019342,0.016457204896979705,-0.9275760940303109,0.017477250597740537,0.007939520028179164,-0.025536470345435866,0.03926523667811134,1.3671875
0.04410661821729427,-0.005491302706669571,0.0006359992199838079,-0.0021874123197433175,-0.0054878819991801735,-0.007828039160146126,-0.001268626478929454,0.3214494799287594,0.007649698891091896,-0.36567651575327187,0.007754283639974069,0.002302161129206228,-0.01062222124184573,0.014941598143337642,1.375
0.020730517745024594,-0.0022944183027075174,0.00039504147090367136,-0.00014966780858129657,-0.002709724774640977,-0.004129091818009482,-0.00012203961829415973,0.152302534571864,0.004650752665301469,-0.1748657255826217,0.004448496557655982,0.0003820412651248737,-0.005537890094553223,0.006666209822160887,1.3828125
0.05568259295249962,-0.007079253285545871,0.0007557949983710624,-0.0031897111847614683,-0.006856502269242051,-0.009663619592800583,-0.0018365740774751664,0.40521492052569497,0.00913811961255805,-0.4613220446885019,0.009400660824687298,0.0032523436007101995,-0.013131364910028679,0.019048096801382954,1.390625
0.06712054182272166,-0.008641533052188679,0.0008739285607195334,-0.004188808063886395,-0.00821084453900949,-0.011473895863745016,-0.0023972618692537618,0.4880350050194308,0.01060938503494248,-0.5547650551932999,0.011016224706361691,0.00419230695617135,-0.01561979861293459,0.023091681964090845,1.3984375
-0.008452826994497063,0.0017115550014704614,9.416105528304722e-05,0.0023875152115210604,0.0007699220222044874,0.0004922018888281584,0.0013123440595244691,-0.05859574428334274,0.0009124423944778269,0.0638789958438743,0.0003082549242255433,-0.0020172700865057546,0.0008068438306321354,-0.0036828267001482746,1.40625
-0.11508521937125749,0.016319086201283705,-0.0010063388550006194,0.011674179026006226,0.013440859310209007,0.017377641782176174,0.006547000268792573,-0.8298865711515205,-0.01277616786547673,0.9362129842804415,-0.014795902715096442,-0.010782496099991082,0.023994330578116445,-0.0414517754081301,1.4140625
-0.12308288593698195,0.01741216231550023,-0.0010890655833106927,0.012374161766005575,0.014386392896761283,0.018645171956603406,0.00693822835039039,-0.8876365827993925,-0.01380973930899605,1.0014501137887482,-0.01592732647729537,-0.011440070870031165,0.025739155222206253,-0.04427259828348075,1.421875
-0.01450437773432957,0.002527379455668497,3.145324061041127e-05,0.0029183844624732272,0.001469636497873471,0.0014491102279728992,0.0016035205598777913,-0.10217968860542945,0.00012133042792774138,0.1134572422268727,-0.0005442850375875868,-0.002509178118278712,0.0021271541348988165,-0.005791379728259684,1.4296875
0.054910996025520235,-0.0069887045981964786,0.0007479687931299684,-0.003130481903254637,-0.006789080341851347,-0.009545206104714583,-0.0018067932713482307,0.3997730814080066,0.00903214111777915,-0.45379608754336015,0.009289169409037488,0.0032024125649569787,-0.012976064599518262,0.01880025213185868,1.4375
-0.022688263676788632,0.0036557012046287874,-5.2907857488812364e-05,0.0036253971469953302,0.002443181315490713,0.002750076225017823,0.0020074501906708945,-0.16178365656738292,-0.0009242603719839137,0.1812204768641069,-0.0017103166138052559,-0.003181877599339379,0.0038963090459409287,-0.008720554359943311,1.4453125
-0.12255955187822394,0.017359879578964517,-0.0010839271706836067,0.012325856576563985,0.014330976886964292,0.01857717200367282,0.006917868357877203,-0.8841492067919694,-0.013743215740828452,0.99771659139997,-0.01586677297580536,-0.011403587488638869,0.02562422585273384,-0.04413135525710063,1.453125
-0.08532363175875089,0.012259536307893561,-0.000699854249490559,0.009087523804946955,0.00990830852136139,0.012682271993138207,0.00509053674547037,-0.6144291844940271,-0.008965989290460679,0.6924860036319206,-0.010590453214065043,-0.008345525214160147,0.017536996714742736,-0.030929925187744935,1.4609375
0.012349575863375288,-0.0011432369633576002,0.0003084783046856591,0.0005804809874258431,-0.0017126614184994082,-0.002795327919077951,0.0002891603089807661,0.09231664038579533,0.0035745170140714347,-0.1065333908773331,0.0032555092253118783,-0.0003074609768045291,-0.0037069553557441052,0.0037004233393834805,1.46875
0.005985270715540881,-0.0002843212941101884,0.00024333903293010048,0.0011287786041695213,-0.0009615445863965933,-0.0017954055935769113,0.0005977348905998298,0.04606827248954759,0.002766429147110537,-0.0539657574434121,0.0023569411625599464,-0.0008243112698418776,-0.002336248797176754,0.0014421469498286468,1.4765625
-0.05849930151724848,0.008562643402677976,-0.0004221808734538599,0.006743850754813808,0.006712999469944842,0.008417933268412607,0.0037672192180666715,-0.4207136443975648,-0.0055087996626481915,0.4737383500107179,-0.0067835703249928365,-0.006130963952558011,0.011682882713887694,-0.021427463371201355,1.484375
-0.034982709905179064,0.005359169985677681,-0.0001801294792626274,0.0047047598576228054,0.00392963121489033,0.0046965781408507936,0.0026185780750179913,-0.2506390450533888,-0.002499890679224545,0.2808451226592429,-0.003453701482759549,-0.004207062606749993,0.006581015218986031,-0.01309293880070036,1.4921875
0.054136198510673535,-0.0068519367125980625,0.0007392198890574448,-0.0030489965966094983,-0.006663688622142963,-0.009420598085853708,-0.0017563050190648412,0.39421995234443613,0.008932097156565582,-0.44881977189085226,0.009179101115286064,0.0031194219150420116,-0.012788288792205095,0.018514579554259687,1.5
0.11770336627870777,-0.015582371027100073,0.0013955555578113743,-0.008588053455097047,-0.014232866626848558,-0.019495922483187916,-0.004882933978507671,0.8541888067886443,0.01709754814036351,-0.9689248566711375,0.0181957609322329,0.008355606796756386,-0.026617409280932557,0.041067920258485734,1.5078125
0.1901765136906567,-0.025531052932982884,0.0021437524468051646,-0.014904091634421173,-0.022862608228698046,-0.030978515122603287,-0.008446507023537688,1.3784185484780214,0.026407559207069463,-1.561601963131908,0.028471710665042883,0.014322039927936127,-0.04238748726806857,0.0667613990104067,1.515625
0.27580228773852217,-0.03726011981054197,0.003027093027907352,-0.022356398053787075,-0.03304300962985896,-0.04453495182101947,-0.01264952765076747,1.9977424913559068,0.037391901466636054,-2.2621477071959966,0.04060294530792419,0.02135823317752641,-0.06100233760564413,0.09709837117823354,1.5234375
0.2326025559406732,-0.03132028416814811,0.0025809041737083487,-0.01858802382560764,-0.027894675644467178,-0.03768190848738674,-0.010523002980891621,1.68523824840447,0.03183361638981216,-1.9089218432604185,0.034471171910311904,0.017796594952926927,-0.05159285894294435,0.08176788871669623,1.53125
0.03213739808510873,-0.003837864437090379,0.0005122660995635413,-0.00113471274564947,-0.00405380844741355,-0.00592461587647195,-0.000677692293020065,0.23513608351584625,0.0061003015559690146,-0.26862253587210416,0.006054311685255073,0.001311162063834206,-0.007997553262123777,0.010703398739909215,1.5390625
-0.1430012330867462,0.0201548632494303,-0.001294678254611749,0.014104183940919028,0.016759504476252147,0.02181341620741759,0.007918476934263539,-1.031899305545691,-0.016368758189819664,1.165129702594383,-0.01876631966551267,-0.013082319871300837,0.030070262934457238,-0.05137590109352008,1.546875
-0.2176779275349795,0.030374637715806934,-0.0020647884340865793,0.020595429707905774,0.025623754629124935,0.033637579589183335,0.011580817758241654,-1.5723761225733723,-0.02594184742188656,1.7770051885750735,-0.029346011916110304,-0.019213417617171605,0.0462880895570129,-0.07784900606148946,1.5546875
-0.29593606841833775,0.04109509948263642,-0.0028718040703734266,0.02740564289931738,0.03492714710083424,0.046031143568361035,0.015422504423287691,-2.138611679661176,-0.03598199064321157,2.4173434844739807,-0.04043403307008837,-0.0256438086027154,0.06329910836209741,-0.10559158361716019,1.5625
-0.3414428296369369,0.04733736611040763,-0.0033412671585377443,0.03137340296785961,0.04034993843928357,0.05323647964983199,0.017659250121440255,-2.4675304108648715,-0.04182564473294376,2.7887704690426904,-0.046881199937044364,-0.029388267075653264,0.07320559482789933,-0.12171118159221357,1.5703125
-0.20103208120439978,0.02810295727468577,-0.0018930544190366543,0.01915776463815041,0.023665885434253763,0.030993152865072718,0.010767678304551944,-1.4514785516498725,-0.023810695523727228,1.6391507908156762,-0.02698112539672456,-0.01785075656911528,0.042688701436344505,-0.07192360935947999,1.578125
0.0352461392053161,-0.00427370526306941,0.000544193514058535,-0.0014099775389447898,-0.004428701038944339,-0.0064310919828246375,-0.0008327780356123585,0.2576560378290792,0.006508967355468451,-0.293822144861617,0.006502376521278228,0.0015714139754686657,-0.00868457924997129,0.011830522974450941,1.5859375
0.13107867495855435,-0.01741063329148809,0.0015329492742966117,-0.00975602732620295,-0.01583200310864213,-0.021606843755050405,-0.0055396554080382205,0.9506362586629458,0.018807012628005697,-1.077277054894598,0.02008219632299098,0.009453250284673533,-0.029528020170276684,0.04579242406342713,1.59375
0.1130271614646703,-0.014944565290806806,0.0013472107638949746,-0.008183569029540143,-0.013689326308913683,-0.0187473553155815,-0.004655481538818489,0.820228418990815,0.016492843655123737,-0.929864308199754,0.017527867321218776,0.007973711465889379,-0.02560391451569426,0.03939967576011598,1.6015625
0.16185782801323556,-0.021637478079812027,0.0018513518652467605,-0.01242785765512249,-0.01948732422447155,-0.026484081147567614,-0.007052694756572706,1.1739909249458893,0.022763459021029237,-1.3304666776176484,0.024453047896661376,0.01198647310116487,-0.03621408930618705,0.05671858949005715,1.609375
0.21367625552031932,-0.028729446524467545,0.002385816602292696,-0.01693686407452615,-0.025638209381997144,-0.03469038549514361,-0.009593860877971068,1.5489727799552313,0.029415763070189872,-1.7547528413636841,0.03179357472138464,0.016240039329385874,-0.04747781360367817,0.07507423607779717,1.6171875
0.09446517489333177,-0.012385950207030916,0.0011555994113180337,-0.006566378784187708,-0.01146555370669383,-0.015804592965871733,-0.0037390461301220665,0.6861510626841534,0.01411610693186944,-0.7784346102809754,0.014891679381355282,0.006437837933553194,-0.02156567629379648,0.032795200428902,1.625
-0.08759527627154018,0.012556811249641578,-0.0007227265192340225,0.00927548281245041,0.010169607978855737,0.013031571231868681,0.005197665571078229,-0.6312824835530877,-0.009250430554321388,0.7119758855524796,-0.010909404321991086,-0.008523723726988734,0.018010514298172988,-0.031739169495196055,1.6328125
-0.0887661682496616,0.012707421557235424,-0.0007345416886508754,0.009378131159872656,0.010303283899950038,0.013213806875927844,0.005252456716922436,-0.6397524710716653,-0.00940136035302142,0.721249987907511,-0.011069105711376924,-0.008615653635246362,0.01826617185220267,-0.03214079977200097,1.640625
0.050192760677052334,-0.0063325159770387975,0.0006992601356106091,-0.0027155577034916234,-0.006211308615793917,-0.008794308447606343,-0.0015694449257110602,0.3655430408509833,0.008433227928421237,-0.41622883352199863,0.00862318214016093,0.0028050521297241513,-0.011941467480678966,0.017107236170764272,1.6484375
0.08701291620656555,-0.011367664530155084,0.0010790453122985222,-0.005921576539853233,-0.010580398693791569,-0.014621946306249366,-0.0033746099608585045,0.6317664351837026,0.01316070079320126,-0.7172799734364433,0.013833895406852667,0.005827220876375431,-0.019947538034503783,0.030137241228646017,1.65625
0.0064251182480938585,-0.00032174007040354085,0.0002474245762454192,0.0010938775325548997,-0.0009985998589294221,-0.0018596078790653887,0.0005829668233319321,0.048778463494231254,0.0028187528803325546,-0.057636604009717436,0.002413082934673976,-0.000797919634182431,-0.0024282599006353526,0.0015784547472310587,1.6640625
0.029619886081534794,-0.0035082140749868383,0.00048655929523108753,-0.0009194330572361614,-0.0037610622759475317,-0.005540862196900634,-0.0005571742019135205,0.2169431462026029,0.005791852651586971,-0.2479438212595971,0.005710162576329843,0.0011116071403029953,-0.007465080667598149,0.009838358899683528,1.671875
0.18461008376091698,-0.02475586273057638,0.0020855254200705274,-0.014406660889150855,-0.022194190981543307,-0.030093247186014947,-0.008169168566233996,1.3385330746846817,0.025676942481942234,-1.5166405124811497,0.027681601967692832,0.013855824698665795,-0.04115417997669145,0.06480519732359438,1.6796875
0.1956416521303238,-0.026270912611021706,0.002199393599274219,-0.015371496310904753,-0.023514244081870524,-0.031836879255979084,-0.008713422346356563,1.418212368162494,0.02708976365497986,-1.6062471599854957,0.029239819470768928,0.01476664695215213,-0.04355603674369254,0.06870859493809858,1.6875
-0.06767894444489649,0.009816646864868774,-0.0005172479431027579,0.007541335830178343,0.007786486689780985,0.009876941135126802,0.004214296962182892,-0.48717982454811937,-0.006702123697064229,0.549642861826653,-0.008087819688105895,-0.006877830108610796,0.01368257955952468,-0.024657597562975257,1.6953125
-0.34176574317249303,0.04738827567207787,-0.003345186837881406,0.03139817808119711,0.04038034701266121,0.05329569149391184,0.017675167290026026,-2.470269264014306,-0.041874857021096855,2.7926863031920757,-0.04693763023611784,-0.029415361894210994,0.07327195463955703,-0.12183872245485881,1.703125
-0.3958251051163764,0.054810261649169155,-0.0039031556919941293,0.03610966952317235,0.046823828792750176,0.06186177418186105,0.020334998758486215,-2.861246946144813,-0.04881187340768159,3.2341689395506146,-0.054599707967959286,-0.03387003859519447,0.0850352749068051,-0.14101465136104074,1.7109375
-0.36786995341930223,0.050978586663364855,-0.0036145354081570207,0.03367912831546356,0.04350619169841071,0.05743080967408939,0.018962849131244235,-2.65880117365718,-0.04522150888428923,3.0046684061155164,-0.05063380536168504,-0.031574039973190866,0.0789592865024687,-0.13110175999404453,1.71875
-0.3597576651961418,0.04984751045951189,-0.0035301452160177,0.03296804154799103,0.042531013712237144,0.05613598556715826,0.018558335488866935,-2.5999836358990365,-0.04417274291077602,2.9383424262923876,-0.04947658677045808,-0.030896607501665316,0.0771826030047204,-0.12820869960951423,1.7265625
-0.11970381528631822,0.016934573483587664,-0.0010530512284115446,0.012068269468543233,0.013980744028245477,0.01810557703615685,0.006767205119695969,-0.8632102918736729,-0.013359292021138038,0.9741846341262843,-0.015449714356610796,-0.011153364151908157,0.024982714236374635,-0.04309948966912735,1.734375
0.4231846677290407,-0.05745452555926754,0.004547565882777103,-0.03518180670705736,-0.050558145633873994,-0.0678815195894105,-0.019884563389453,3.064429515821996,0.05630733365340939,-3.4685848380896345,0.06148923338431124,0.03347097044130978,-0.0930385008561586,0.14934431266775844,1.7421875
0.7622215247864735,-0.10389437529949479,0.008044658323309918,-0.06468268693763286,-0.09085414287629143,-0.1215741925647115,-0.036523608461781196,5.517249753293754,0.09980473734063146,-6.243395666566789,0.10953371373539027,0.06133074936238663,-0.1667325385226082,0.2695208136266873,1.75
0.49655551581388147,-0.06748115937726522,0.0053035473270991,-0.04155616259130904,-0.05926808156949323,-0.07949122209308351,-0.02347806576910585,3.5952520863098587,0.06570548650234154,-4.0693800817606895,0.07188077809531715,0.039489587235698814,-0.10897072224091432,0.17534933661494315,1.7578125
-0.0173927138187841,0.002933984466590667,1.5935262733292036e-06,0.0031699904882637594,0.0018227083613910039,0.0019096693888137157,0.001750527335305139,-0.12304898810974124,-0.00024202348444022213,0.1369116470936934,-0.0009543748345530868,-0.0027503650362301142,0.0027530870723101258,-0.006828709355017168,1.765625
-0.2185229010297082,0.03048114033944895,-0.0020730108169830412,0.020667493725436446,0.02572436029044859,0.03376190778439245,0.011620504992985937,-1.578386213127971,-0.026042782419305053,1.7834053913211236,-0.02945633234983116,-0.01927653345805826,0.04646620891513533,-0.07812720757884613,1.7734375
-0.11619357890961708,0.016463680842036692,-0.0010173606215072388,0.011762291112539161,0.01356276400217082,0.01755595038710438,0.00659761377167457,-0.838351577855657,-0.01291448091219329,0.9461328755972555,-0.014957273853756288,-0.010867968409093964,0.024221338362766503,-0.041865829828709,1.78125
-0.04926966251895826,0.00731077405701973,-0.00032734932973375446,0.005946399293184425,0.005620272392852411,0.006963270143808204,0.003316852051680239,-0.35424832426925057,-0.004340886437999574,0.398048203339681,-0.005479981292413751,-0.005376241573717603,0.009689232428590058,-0.018153439985290218,1.7890625
-0.08474711422537541,0.012179555838458402,-0.0006936871965617006,0.009038722052198552,0.009844274174844755,0.012586083591863856,0.005060700418177799,-0.6107562299204738,-0.008900458615144284,0.6880218881074852,-0.010511272193030925,-0.008297620309976867,0.017413593094665884,-0.030730179749147723,1.796875
-0.06812145029155196,0.009889940146911438,-0.0005221054776803673,0.0075861249150559725,0.007857718321078531,0.009948794834112241,0.004241367318541204,-0.4903685143062023,-0.0067579054838551094,0.5522971058633627,-0.008151285701502475,-0.0069268889580689635,0.013789320562728625,-0.024832247475240952,1.8046875
0.0348078027268724,-0.004229793628559612,0.0005401737884101871,-0.001380426448403722,-0.004392914891573706,-0.006359198403929665,-0.0008161394197287135,0.2542613003732592,0.006462504766366943,-0.28942213815935597,0.006441655737588243,0.001542467725062258,-0.008604665106857114,0.01165844586930581,1.8125
0.11256536905506255,-0.01488850584556977,0.0013427836788570398,-0.008148562249985352,-0.013637202690154381,-0.018676031842974596,-0.004634496642646395,0.8169117655519675,0.016442068478239757,-0.9259287447564256,0.017464046243010577,0.007938895783720801,-0.02550914744322138,0.03922982419902131,1.8203125
0.04861711515601603,-0.006116248640373551,0.0006830563047639812,-0.002575378356591414,-0.006020937869837623,-0.008545866176974467,-0.0014918685454564133,0.35457608918479716,0.008229319296096882,-0.4035841365641873,0.008400718473159156,0.0026783103595044246,-0.011590424921777757,0.016570735998444396,1.828125
-0.1638094548810982,0.023006536427455516,-0.0015090191903394813,0.015919637070913307,0.019244294230108497,0.025102190887620526,0.008941687133982116,-1.1821177375918372,-0.01903539843927362,1.334353406926781,-0.021707638744087814,-0.014792958769607007,0.03460088080731561,-0.05873396307545055,1.8359375
-0.33414100369130856,0.04635405998489033,-0.003266835641837111,0.03074262339085248,0.03948995620666307,0.052084226649261905,0.01730594749858535,-2.4146892234047543,-0.04089423567928246,2.729060056794258,-0.04585224905845252,-0.02879929714300286,0.07162298051638567,-0.11913073244222053,1.84375
-0.24002079180577,0.03344850989952866,-0.002295669215411373,0.022543933799583027,0.0282870882615994,0.03717773330638567,0.0126818381831599,-1.7341033697773505,-0.02881462078435346,1.959752595503975,-0.03251454515292138,-0.02105614718345426,0.05114759654756361,-0.085773985955247,1.8515625
0.03786972164330021,-0.00464772770466104,0.0005720497876658528,-0.0016450284446283571,-0.00475670434410642,-0.006843172272973593,-0.0009665275900697245,0.2764199521491357,0.006850531791040189,-0.3146912676236008,0.006876068118820671,0.0017969015442095815,-0.009271078100953279,0.01274927534747196,1.859375
0.19477413646236544,-0.02615462241777164,0.0021913081443419745,-0.015297415474476817,-0.023403607477423285,-0.03170291622876669,-0.00867092477092705,1.4119420901065745,0.026991466096197958,-1.5998036978960684,0.029121083135623897,0.014695716733118284,-0.04337900720926843,0.06838428219149809,1.8671875
0.1369493769244192,-0.018219577149246175,0.0015943984569335738,-0.01026145178122685,-0.016518757049133328,-0.022542919999216565,-0.005828200650578124,0.9937191550703611,0.01957194942593042,-1.1268261669775903,0.02092282291715526,0.009934785148760106,-0.030803336239666006,0.04787749975311257,1.875
0.03345921317285738,-0.004026331697777811,0.0005260180516226942,-0.0012560003336010775,-0.004214670314709158,-0.0061428439842045835,-0.000744527708507132,0.2447231692013686,0.006284379115802993,-0.27903066023702033,0.006245029724867692,0.001423526919463252,-0.008301352258347243,0.011176369910964934,1.8828125
-0.01017084142495748,0.0019490847162033714,7.567565560173492e-05,0.002539089338089889,0.0009638477432111151,0.0007711420660332225,0.001395767570255564,-0.07119424344588422,0.0006777013240179291,0.07866498435178973,5.847079562144947e-05,-0.0021588815989920475,0.0011862767372910017,-0.004285653795544618,1.890625
-0.007426202228113014,0.0015628057202691245,0.00010433813491441918,0.002301078500220582,0.0006323305828198753,0.0003324639539152201,0.0012585613728433192,-0.05128325621593063,0.001030460983859584,0.05585326201184938,0.0004546567142512713,-0.0019288166778268236,0.000590180956611278,-0.0033001294856241275,1.8984375
0.05561853820116483,-0.007076862046873674,0.0007551500588532834,-0.003185825787953558,-0.006858697930910661,-0.00965545203395749,-0.0018357044226070902,0.4050188650030399,0.009128856087692606,-0.46063198883491535,0.009394220304822573,0.00325249767078451,-0.013119146466549757,0.019042539999770663,1.90625
0.1331670850102494,-0.017695157537040592,0.0015552922034367056,-0.009937823089875453,-0.016070770853297243,-0.021935900142073025,-0.005640268389597639,0.9660928430926491,0.01908722629520737,-1.0952557167102746,0.02038118420875438,0.009623808181819633,-0.02998351809529777,0.04651477601766621,1.9140625
0.09572970274277379,-0.012560697692142438,0.001168897444943035,-0.006679540256598344,-0.01161584655009635,-0.01600590062596643,-0.003801075155820632,0.6951569903804385,0.014282964198415663,-0.788789700020867,0.01507330006604767,0.006544468988367021,-0.021844747821260717,0.033243023440867284,1.921875
0.0048190842380778824,-0.00010723352386935974,0.0002307490922169781,0.0012377851972810532,-0.0008078206827098806,-0.0016107500436007257,0.0006615426161256742,0.03745655758724629,0.0026116940876314675,-0.04515210935236935,0.002194141162372991,-0.0009292699471278595,-0.0020724429849669113,0.0010371958511628733,1.9296875
0.08119765706938181,-0.010580974177133742,0.0010185653041234223,-0.00540670253368031,-0.009893682693305955,-0.013710516949876218,-0.0030903161435114493,0.590139426626799,0.01240752674549699,-0.670379936145905,0.013023011681227332,0.0053510102904825345,-0.018669071158930583,0.028131351162005533,1.9375
0.24455629606444027,-0.03297168813028285,0.0027039304434640235,-0.019628824341817928,-0.029326114840139476,-0.0395816111248605,-0.011113686938619239,1.7719687416225447,0.03336724839815075,-2.006568426867549,0.036170820218485646,0.018784814665249325,-0.05418710390255012,0.08603912200631782,1.9453125
0.13647861201252207,-0.018160387461067365,0.0015890477602296125,-0.01022810044515034,-0.016484689282859913,-0.022458723697651534,-0.005809278661942603,0.9898313997743303,0.019497278813542386,-1.1212074293269563,0.020846023786240214,0.009903465549477162,-0.030703332677946445,0.047708930407344,1.953125
-0.24865848216617142,0.03462655320292567,-0.002384354457894087,0.023293795914433205,0.029310636284888267,0.038545280152599996,0.01310246332685302,-1.7967174863610045,-0.02992509221464788,2.030559916657797,-0.033740483159725075,-0.0217620753310084,0.053021909465912356,-0.08883834236282913,1.9609375
-0.4630275069375467,0.06401495676781987,-0.004596150976762992,0.0419585771396041,0.05481258212476482,0.07250012732001064,0.02363271120424949,-3.3475284091489033,-0.05743392426063012,3.783995400096814,-0.06412052635797354,-0.039393476443218584,0.09963723960730642,-0.16483758948279034,1.96875
-0.2886189458874853,0.04011444740987551,-0.0027968044769142615,0.02678125970944901,0.03408203747326813,0.04487533601379262,0.01507066052642864,-2.0854419717867656,-0.03505193107331034,2.356221646083956,-0.039400595063299876,-0.025056266953433888,0.0617309608717818,-0.1030013647437583,1.9765625
-0.028996546557751926,0.004520250618040744,-0.00011789877942984254,0.004178345746291792,0.0032033994587802282,0.0037498361067291003,0.002318298190017093,-0.20694115478299654,-0.0017304867496631402,0.23196430988228345,-0.0026032541662067946,-0.003702978130728995,0.005281539607514428,-0.01095125503863297,1.984375
0.017959970141247714,-0.0019277684266294068,0.0003669578246549404,8.51566299550626e-05,-0.0023898931810685045,-0.003693772125965729,8.397990813478194e-06,0.13275762352174778,0.004302882287569678,-0.15190162389547135,0.004055544694129659,0.0001648560151597503,-0.004942792945620938,0.005701048108556996,1.9921875
-0.06344192179602683,0.00923664700291185,-0.0004730664813661634,0.007174278141642654,0.0072952582428497895,0.00919783459728703,0.004008693727318973,-0.4563210563934867,-0.0061424793501610436,0.5139828944778925,-0.007479127180077467,-0.006533289867664898,0.012752163352224167,-0.023161315988616434,2.0
-0.07921266867785748,0.011419197545648102,-0.0006364348710747134,0.008557098854445552,0.00918560560397738,0.01170114999265955,0.0047903041892150755,-0.5705743769293526,-0.008175696880852536,0.6425449305705427,-0.009717370155642285,-0.007842164116479415,0.01619564671799573,-0.02876089268732588,2.0078125
-0.009460725233491202,0.0018644651846058016,8.297402462477491e-05,0.0024877157493081955,0.000895021964149193,0.0006575416321247403,0.0013664452285500053,-0.06597536813712947,0.0007685557015103198,0.07169714985194603,0.00016449268394258795,-0.0021099649835875384,0.0010407025854097915,-0.004035921033395653,2.015625
0.08427187916535543,-0.011001223082428757,0.0010505954845257035,-0.005680920484180525,-0.01026264486147669,-0.01419337316694122,-0.003242713106783647,0.6122769570258336,0.01280437794894107,-0.6950346378755985,0.013451585333085445,0.00560660127726998,-0.01934829446327828,0.02920003288538254,2.0234375
0.19429200096902632,-0.026096802825636593,0.002186263601225364,-0.015265594036605592,-0.023355048136744817,-0.03162739400667888,-0.008650067574215669,1.4084053533999512,0.026934942368353327,-1.595207772053921,0.029050949572469696,0.014660486856479651,-0.043283083016453026,0.0682115753850089,2.03125
0.3163556234215527,-0.04281639579179512,0.003445354242173948,-0.025885498057089736,-0.037863334313781374,-0.05095954315490938,-0.014639984552429762,2.29155645697799,0.04259704621707289,-2.5942506804951697,0.0463508248578062,0.024691033868455673,-0.06981601309429908,0.11148186197582002,2.0390625
0.370592014719203,-0.05022542929024883,0.004004145101926527,-0.030595201992900917,-0.044297508703794966,-0.05953904437574409,-0.01729520277824903,2.683928166213274,0.049542015850694614,-3.038340486286491,0.054029574145584645,0.029138221435613544,-0.08158505406715671,0.13069774375356816,2.046875
0.2539649963956289,-0.03423290464848223,0.0028005439644877583,-0.020440766863305326,-0.030424902545978454,-0.04105995208529859,-0.011566188350085807,1.8401651831119266,0.03456733503815773,-2.0839533119424667,0.03749431887237606,0.019546066212511398,-0.05621790028412061,0.08934805985956291,2.0546875
0.0018526572812003236,0.00030447091198674826,0.00019982835546851209,0.0014953093372982308,-0.0004595545321710199,-0.0011329585453114406,0.0008076938840974567,0.01609396879993871,0.0022225751471691875,-0.020345292145708075,0.001765769299119338,-0.001172958083840865,-0.0014216169126183462,-2.0471123527010484e-05,2.0625
-0.1728388728217725,0.024227746852954455,-0.0016019566179096257,0.01669184272459672,0.020296311344304846,0.026528830922649786,0.009379151386206444,-1.248042197780422,-0.02018361650718623,1.4098713454366947,-0.02298692085794593,-0.015525391054839926,0.03653568718817709,-0.06194500496018299,2.0703125
-0.14648104708267914,0.020611587200626613,-0.0013298086383216512,0.014397976600890363,0.01716013300346684,0.022353444032639027,0.008083680659454544,-1.0575432707695778,-0.016801304493086994,1.1941712727763079,-0.01924959811548274,-0.013357231914280402,0.03080358871643341,-0.052604952143666,2.078125
-0.11088757455432985,0.01574149136087536,-0.0009627317712178145,0.011307431607241066,0.01293884527938348,0.016719569954684176,0.006338394518325444,-0.7999023765037171,-0.012242742474973946,0.9021424162822825,-0.014207598552727506,-0.010436956633372175,0.023081982959073245,-0.03998923782524301,2.0859375
-0.27483470898447526,0.03821863960848555,-0.0026545172420597844,0.025582145076176108,0.03244040046415221,0.04268931034147127,0.01439045162541005,-1.9858385178217626,-0.033287251125177435,2.2433978977982885,-0.03744717667484151,-0.023920892643728726,0.058735122318393174,-0.0981077021165116,2.09375
-0.4506064203656857,0.06231012721351448,-0.004468204714932924,0.040878042793170526,0.05333509641368805,0.07053067017864177,0.0230211647229765,-3.257598182512032,-0.05584155828422586,3.6824635711913576,-0.06236184205474067,-0.03837120412126172,0.09694079266044035,-0.1604232801158056,2.1015625
-0.3090895800039019,0.042909900826815395,-0.0030079999117245287,0.028554883445564425,0.036498880067102404,0.04811588372222325,0.016071086071482346,-2.233894201670503,-0.03767633699584561,2.525031308631239,-0.04230390156230635,-0.026731761783852545,0.06616187924817103,-0.11025906498995046,2.109375
0.05624638460982068,-0.007168085947382226,0.0007617030096695365,-0.003243743965252113,-0.006940476069147979,-0.009754165530550538,-0.001869021689246537,0.4094475540378933,0.009210761184807365,-0.46524208293196134,0.00948162742409508,0.0033072874432279104,-0.01326589719618018,0.019264134800120427,2.1171875
0.25573750197211464,-0.03451003476497698,0.0028201511302588856,-0.02060260609518865,-0.030649272939056164,-0.04135897782733305,-0.011663612212047151,1.8531469669748155,0.03481540399983598,-2.0989682351006316,0.037762586115079766,0.019705752162582125,-0.056629874289133506,0.09000034260165737,2.125
0.20128612704023705,-0.027036624664342652,0.0022580356226368963,-0.015861020042111897,-0.02416493796122268,-0.032734979952419904,-0.00898610254550824,1.4593340539425934,0.027828446256358056,-1.653586551334862,0.030043519359741318,0.01522317964736436,-0.04478598563721797,0.07069544394523229,2.1328125
0.13597268740298024,-0.01807298986681465,0.0015835942300343297,-0.010178605947320566,-0.016401515604974656,-0.022381144656350282,-0.005775991238211323,0.9865382250713195,0.019439362098000405,-1.1181196387634018,0.020776981075622203,0.009851443833736208,-0.030583195330117167,0.047526331249892174,2.140625
0.15979556701337527,-0.021338263921533866,0.0018292042283750629,-0.012254125593850968,-0.019244526910491902,-0.02614810866040197,-0.006947188492931805,1.1586211318460986,0.02248706689787476,-1.3123207347599442,0.024148126500706028,0.01181394153871148,-0.035761228970630256,0.055968319991063935,2.1484375
0.14762192727561604,-0.019679055548078098,0.0017039891157196398,-0.011193315983327432,-0.017800950178922147,-0.024224359655645723,-0.006352657394294059,1.0705877017048104,0.020926073660522602,-1.2130595739635146,0.022427934597906908,0.010816631969181928,-0.03311765185507404,0.051662216365669554,2.15625
0.06130462809377942,-0.007851933300702678,0.000813858409829372,-0.003679330196480025,-0.007530939595695866,-0.01055848765275666,-0.0021139982649218017,0.44631093379953246,0.009860719886467298,-0.5073576076943226,0.010200268221561736,0.003718539149692975,-0.01435794591935215,0.021060424322217556,2.1640625
-0.008403010640838657,0.0017076409210057227,9.467951008801685e-05,0.0023861135013885067,0.0007637410573536165,0.0004860392690066496,0.0013118108876588584,-0.057981381210182634,0.0009226614049950413,0.06315671207989064,0.0003182616229939319,-0.002015524228434737,0.0007937007629503582,-0.003668171934900109,2.171875
-0.037311086866401624,0.005672619226467903,-0.0002038620295420043,0.004900829723492296,0.00419928553559866,0.005071766271983908,0.002732043584384365,-0.26735665345145315,-0.002791340353059407,0.3002008497534467,-0.003783909927424184,-0.0043926707391741026,0.007081360291737258,-0.013923340126243577,2.1796875
-0.05736788505005789,0.00841548329755186,-0.00041099806132359083,0.00664880617383669,0.0065795594671556705,0.008247247572906215,0.0037142877787875173,-0.41264555050522794,-0.005372612478984117,0.4642837597672251,-0.006624663864918845,-0.00604105319598778,0.011447040771663588,-0.021019629571682935,2.1875
-0.06060188142514096,0.008849161113772404,-0.00044431303155101375,0.006932669537938283,0.0069603205564874385,0.008752306495403178,0.0038695671030551004,-0.43594594422986155,-0.00578978878490978,0.4903700665625872,-0.007077626151058906,-0.006305979952897426,0.012151720080482115,-0.022149245829966028,2.1953125
-0.0625286892939201,0.009106429688406038,-0.000463994547861544,0.007097694507532953,0.007182368463831204,0.009054813841903804,0.003961118774801534,-0.4497428010610726,-0.006036523917703989,0.5064151970216305,-0.007351113526125651,-0.006460072662248791,0.01256576016471864,-0.022829315665193185,2.203125
-0.10843139270487305,0.015396883238180347,-0.0009374534813926885,0.011088168318690516,0.012633467638473818,0.016327935192850217,0.006213794901103236,-0.7819833287771558,-0.01192808751463848,0.8828578188913407,-0.013861668723958344,-0.010228724605293369,0.022538379824675242,-0.03910879415136048,2.2109375
-0.14111393212273893,0.01988378575431572,-0.001274760125220634,0.013933824639083839,0.016524998740327486,0.021506356123706383,0.007821391117536153,-1.01871646009572,-0.01612360021706296,1.1504006199590424,-0.018495091218955786,-0.012917963183923336,0.029645106394227155,-0.05070117508000529,2.21875
-0.04939435313192319,0.007324693670195899,-0.0003287653806846958,0.0059573662407622265,0.00563506472266457,0.006979473473046793,0.0033229276329226434,-0.3551376729871763,-0.004354280504889032,0.3989621892357394,-0.005493988336145187,-0.005386536203019325,0.009716869697859365,-0.018188970349518968,2.2265625
0.11829112054665962,-0.015653605558762832,0.0014011744455851517,-0.00863539272936151,-0.014296313440501909,-0.01957873047954468,-0.004909128952679216,0.8583381789279012,0.017164668716782454,-0.9738276922450239,0.018271448540323015,0.008395660505505869,-0.02673076513784599,0.04125618131170195,2.234375
0.1827181317165144,-0.02449151272873758,0.0020662321859212336,-0.014249717744463847,-0.021965824211818183,-0.0297837224414857,-0.00807596207104517,1.324665274087738,0.025437370321040677,-1.500648426593051,0.02740158301093833,0.01369929909806744,-0.04074739496648756,0.0640971290684239,2.2421875
0.08402491994648696,-0.010972993235698033,0.0010484786173890024,-0.005666210254262758,-0.010239065691067629,-0.014155841233451854,-0.0032325691725963415,0.6106277309955404,0.012781293071698986,-0.6925873723650622,0.013416734127526081,0.0055923050505179124,-0.019307489946988356,0.02911064192521513,2.25
-0.057310126737920394,0.008402124552083343,-0.00040970285034065793,0.006639206205833867,0.0065719546585954825,0.008227832002921263,0.0037095750553252883,-0.4118526961910614,-0.005353587261074629,0.46357086966893274,-0.006611174473229914,-0.006030635391964706,0.01142056220367329,-0.02099217247473014,2.2578125
-0.11106459496170658,0.015782366965001123,-0.0009648405022423946,0.011328719414546532,0.012973796395917836,0.016745777162844446,0.006353559460178259,-0.8005437858211959,-0.0122621194054109,0.9027732901997528,-0.014231118470194364,-0.010458671462806036,0.023126366687766485,-0.04004434710190827,2.265625
-0.0549745241501323,0.008100842342160313,-0.00038658145830197384,0.00645175909596397,0.006303414158347381,0.007866765504360223,0.0036011102728005346,-0.39470457395485486,-0.005074433759777818,0.44384561860818433,-0.006284112551756898,-0.005850068177332718,0.010942727006200725,-0.02015712265552185,2.2734375
0.03216154100769803,-0.0038512211727570857,0.0005125963477945905,-0.0011387428194796294,-0.0040700832940053,-0.005934882683765265,-0.0006803074035261943,0.23536711026369198,0.0061123491391653325,-0.2683947996510119,0.006067444448925343,0.0013193412298406035,-0.008015586804182934,0.010727674427718638,2.28125
0.03533542372157224,-0.00430183266602294,0.000545842474337134,-0.0014249451281841353,-0.004458413510139624,-0.006441403590864949,-0.0008410657160966278,0.2579503424337829,0.0065324966930960056,-0.29366955412160517,0.006519929131029777,0.0015870476727940668,-0.008727314006717593,0.011842009461958097,2.2890625
-0.06796021440334617,0.009851894749346841,-0.0005196845919135673,0.0075630929829175525,0.007826236545033463,0.009918250667119741,0.0042286734771370335,-0.48936293374360423,-0.006721552214303724,0.5515432866914662,-0.008123115302745738,-0.0069044029413983625,0.013728539137889507,-0.024780182093482844,2.296875
-0.14058830191439473,0.019818888034573396,-0.001269289136811387,0.013890582541064038,0.016475431976297285,0.0214242672660597,0.007797550213225551,-1.014530656689652,-0.016053851120899628,1.1451898529351376,-0.018422684598341673,-0.012880227678301617,0.029538387892782004,-0.050518437095140076,2.3046875
-0.048722781981203944,0.007240372584129675,-0.00032188374515702486,0.0059002887586201294,0.005561231826704463,0.0068760921680224504,0.0032906560343096505,-0.34981102650995116,-0.004273956639373662,0.3929888509570669,-0.005404272806558726,-0.005331823800917527,0.009581648890184046,-0.0179425444975108,2.3125
0.1358113733276307,-0.018056074613726963,0.0015819288617786814,-0.010164283254709897,-0.016387202058139733,-0.022352667743030116,-0.005770763745852922,0.985060906259606,0.019412418845122424,-1.11672214119368,0.020753074280272617,0.009840960517309514,-0.030544647995839648,0.04747290246414668,2.3203125
0.22497138340978579,-0.03029110347490317,0.002502146140508611,-0.017932174662275164,-0.027001254306037666,-0.03647726892777747,-0.010152493766465338,1.6300020511150917,0.030866254561880434,-1.845710429070875,0.03339354545357778,0.017176579612778128,-0.04994618589764189,0.0790713894014622,2.328125
0.16345806613789252,-0.021866371332033688,0.0018678949846642914,-0.01257924882286266,-0.01968723850548112,-0.02673752574268383,-0.007133451715605235,1.1851442823204483,0.022976412087643734,-1.3424962459849574,0.024677844195287364,0.012122094150009881,-0.03657548305049843,0.05726590799456233,2.3359375
0.054465813211470156,-0.006920460147765893,0.0007433830215071073,-0.0030850229432407986,-0.006715026662843475,-0.009477216262897546,-0.0017791207154275253,0.3968324985881182,0.008982238939055608,-0.4514709703176921,0.009231857849986327,0.003157952130108834,-0.012864879701223615,0.018641729539688956,2.34375
-0.01708216453976422,0.002895817396334921,4.7187203604672306e-06,0.003148832070941582,0.001799647148308695,0.001855166336156206,0.0017366528031974074,-0.12079413053093528,-0.0002080267082999501,0.13363547728969347,-0.0009100695200775769,-0.0027305745156984756,0.002700169440470549,-0.006714887334484688,2.3515625
-0.06444558345229087,0.009389905707220304,-0.00048433917542159503,0.007268543338787923,0.007423615238368058,0.00936151230776196,0.0040622193101000435,-0.4636012216940097,-0.006286213417929343,0.5218966593182092,-0.007627148381040544,-0.006626841097928503,0.012987958973635133,-0.023517542486702882,2.359375
-0.12635633514273018,0.017869606478824802,-0.0011228566346740358,0.012650864478501878,0.014772645714083654,0.019173114603867492,0.00710017686561422,-0.9116503972802968,-0.014225737612317607,1.0293605406767592,-0.016403891973727186,-0.011712167131824656,0.02643359058608543,-0.04548050885928233,2.3671875
-0.19059433788198166,0.02666510985845616,-0.0017850290404155468,0.01824181277768745,0.022407808878543274,0.02934857316791473,0.010252072232641468,-1.3765038990324396,-0.022467831020330026,1.555031270824768,-0.02550563562508902,-0.016986934193343125,0.04040053849904423,-0.06825045778385862,2.375
-0.1922202918697033,0.02688502829275535,-0.0018016243986885335,0.018388196382025112,0.02260869166443457,0.029602334839077354,0.010331169453921783,-1.3882900025805722,-0.02267927450755225,1.5677410197613157,-0.025733400166883694,-0.017120395076962867,0.0407658599537989,-0.06881498768948073,2.3828125
-0.08801173231558995,0.012611597480420822,-0.0007268830741923791,0.009319604176088764,0.01022646437268311,0.013094741048244382,0.005216832034760739,-0.6342195992284382,-0.009306230598871581,0.7146892816741461,-0.010966195154844588,-0.008559435436576307,0.01811337441095544,-0.031873719287849024,2.390625
0.05970280555540549,-0.00762062685405514,0.0007967322535302611,-0.003540683123868839,-0.007336075721313751,-0.010299627144283117,-0.0020325161510282293,0.434662293412833,0.009652314621926283,-0.49385389783590583,0.009965504055792721,0.0035806955895975557,-0.014008282237775838,0.020482975442902573,2.3984375
0.13361760962947988,-0.017749888298161237,0.0015594007745423318,-0.009976409930949143,-0.016130242776432713,-0.022005987890011246,-0.005661577739523115,0.9694608765799017,0.019136114302211592,-1.0985191641035195,0.020442365364069424,0.0096614286091228,-0.03008105083645928,0.046691710871116225,2.40625
0.11492163016523395,-0.015199313175834638,0.001366823110150161,-0.008348033493967132,-0.013911808613021841,-0.019048172377718216,-0.004747008723089701,0.8341123681171773,0.016734047452426463,-0.9457186727730116,0.017797414546348207,0.008130140117700354,-0.02601165966907738,0.04007820178805387,2.4140625
0.09260792105916352,-0.012149848991732898,0.001136769239399444,-0.006405920258487706,-0.011257134773421558,-0.015516875500760776,-0.0036534689043176815,0.6726520348386721,0.013875147300846083,-0.763326791629449,0.014636682834437987,0.006295374951743624,-0.021159770639541213,0.03216361211431068,2.421875
0.1007673175459941,-0.013263418022917941,0.0012209009881712113,-0.007118640106684923,-0.01222194754749097,-0.016806443843710477,-0.004051979691935816,0.7317087405730993,0.014930260158787874,-0.8299512951544967,0.015789346703465778,0.006961259422746584,-0.022939321300208954,0.03503273020262877,2.4296875
0.07265701915006105,-0.009400814772571415,0.0009307406665386645,-0.004671659084830505,-0.00887505904020851,-0.012348374201998524,-0.0026683223143749014,0.5282881266933609,0.011321976794868151,-0.5997782710669647,0.011801553754433987,0.004646505493429292,-0.01682719081193366,0.02505510719048246,2.4375
-0.01823706228730276,0.003058632067570243,-7.175491621634575e-06,0.0032448290066254674,0.0019334266259224558,0.0020498057484166824,0.0017953006266245917,-0.12936417985110316,-0.00035126734365552434,0.14372561349221594,-0.0010790780853842767,-0.0028268512209277874,0.0029436590707071146,-0.0071537037949174235,2.4453125
-0.10325888910532387,0.014703176077655134,-0.0008843944708907453,0.010648487610463397,0.012037874375388483,0.015511669526132152,0.005966985428887578,-0.7444229474900039,-0.011266130199647131,0.8391925760477973,-0.013124405943792257,-0.0098144714846051,0.02143111295188773,-0.03727289759811503,2.453125
-0.12534138241609077,0.017719730209299806,-0.0011120548666062764,0.01256672193909754,0.014653423327977434,0.019003288626299433,0.007047042672987857,-0.9041312537924744,-0.014095900738775032,1.020350655594138,-0.01625259573183032,-0.011624189118094333,0.02622021321015591,-0.0450925769525262,2.4609375
-0.09522653844320184,0.013589452707332236,-0.0008011480273587846,0.009939350805108901,0.011065936521470828,0.01423210444341924,0.005566718842073631,-0.6863320351752525,-0.010227771609697425,0.7746795974524391,-0.011986947949541821,-0.009142981354345388,0.019661851950130812,-0.034421675654075716,2.46875
-0.042596539362291866,0.006382500257996661,-0.0002582370901625664,0.005358774780685881,0.004813508318620565,0.0059003996903019005,0.0029853579765363385,-0.305667159317099,-0.0034760077023559886,0.34395495392496644,-0.004529735981367508,-0.004818230098308906,0.00822619508670312,-0.01577252377479198,2.4765625
0.0167776646445653,-0.0017464607449199797,0.0003539424779100748,0.00019762132401950606,-0.002234364304506296,-0.003499016732104875,7.409108035661818e-05,0.12387597052709824,0.004138568510404467,-0.1427353666288938,0.003885722431032962,5.448386343694274e-05,-0.004665364795233583,0.00527228545135446,2.484375
0.07322574858823407,-0.00948138330334362,0.0009360845422768406,-0.004712161785186062,-0.00894310743558885,-0.01244002318082997,-0.0026975415487122396,0.5322740173803174,0.011379993084566423,-0.6050230492033072,0.011886231053977828,0.004691133723771393,-0.01693306584410706,0.025286226134593682,2.4921875
0.10791908668287006,-0.014242502779814186,0.00129433738953696,-0.0077379154177539275,-0.013077041458020942,-0.017939287320027066,-0.00440486979981956,0.7832612896437324,0.01583574803047527,-0.8883449347571208,0.016802165331175553,0.0075494665641016034,-0.02449069485070187,0.03758731049397793,2.5
0.07930389748145089,-0.010324888241213949,0.0009996632947053804,-0.005255825261060018,-0.00968144468722911,-0.013408403654416246,-0.003001702895896413,0.5762359103957134,0.012171430033796893,-0.6535909029056942,0.01274586247513822,0.005204126131043242,-0.01828534460155385,0.027435886168020694,2.5078125
-0.022496339766208514,0.0036335749636800087,-5.059881089551242e-05,0.0036057360579979155,0.0024289828078848663,0.002720163951186075,0.002000137850753986,-0.160292645920947,-0.0008904934070222617,0.17925871327611526,-0.00168281286890085,-0.0031681782984764556,0.0038516724012684885,-0.008665281491966178,2.515625
-0.08803920923508907,0.012628336431824833,-0.00072741967462637,0.009321170441737045,0.010234718303418254,0.01310665309778588,0.005223116254798174,-0.634510810886118,-0.009310523827299478,0.7149717490875349,-0.010974129759422843,-0.008566774533972438,0.018122575457377117,-0.03190400264931701,2.5234375
0.0015922373284898378,0.0003465266056625043,0.00019693395546654033,0.0015266057840660435,-0.0004186535517820466,-0.0010909596044536582,0.000822652608212539,0.014103014718681185,0.002184088365414454,-0.01884461438978968,0.0017285352246360034,-0.00120147077565567,-0.0013518563466065963,-0.0001187956949875039,2.53125
0.13160782977778337,-0.017485871797271117,0.0015387651289355845,-0.00979562736123975,-0.015887434613661326,-0.021690555079008803,-0.005565614731885524,0.9550479957797763,0.018875816924967516,-1.0826350638503572,0.020159670435585184,0.009495921191242344,-0.029629847239444118,0.04598535866154932,2.5390625
0.05023303424676296,-0.006348803361260039,0.0006999063211171183,-0.00272262734185359,-0.00622441131434768,-0.00880686419442769,-0.0015743939807454583,0.36643468933235473,0.008446392618882607,-0.416359355573652,0.008632579898247532,0.0028158534361461545,-0.011958575694763088,0.017141830702622495,2.546875
-0.20977413673048856,0.029287524757547555,-0.0019825971983558595,0.01990850169961769,0.02468991951636388,0.032376190988580314,0.011192999058216512,-1.5148570064221474,-0.024919067918409095,1.7114866934492785,-0.028216639054643146,-0.018560905630526273,0.04456413210165402,-0.07503494902983647,2.5546875
-0.30499664187284004,0.04235578901845914,-0.0029656238223295145,0.028206319895037912,0.03602275096273985,0.04746292338576265,0.01587360558724127,-2.2039336724441165,-0.037150986226783325,2.4904769163809615,-0.0417166056717664,-0.026398934288536888,0.06527900209654033,-0.10879409082682086,2.5625
-0.09812998694840455,0.01401496709263607,-0.0008317537182876152,0.01020559964638372,0.011432346975157595,0.014700302143126285,0.005719012205812563,-0.7072651597875839,-0.010612112847079615,0.7974400986424681,-0.012401256130802703,-0.009396747478432986,0.020314625816291808,-0.035458001970672184,2.5703125
0.14120518072880536,-0.018797401917175948,0.0016377346555172222,-0.010633544038621122,-0.017033386276310725,-0.023209625220695942,-0.006036154298201574,1.0242211969287143,0.020107747675572513,-1.1607684742674842,0.02152077195807986,0.010285613787757957,-0.031726617301162455,0.04938755630487647,2.578125
0.19043519229486078,-0.02556235393926857,0.0021461248046272243,-0.014928743527251546,-0.022898333357622393,-0.03101095006588765,-0.008458740411149033,1.380166002128306,0.026437442107386924,-1.5631347952556274,0.028501694988265817,0.014340975631826616,-0.04244499436048022,0.06683588915755055,2.5859375
0.15297928817660766,-0.020429974392302177,0.001759798687848893,-0.011668316425909642,-0.0184412206884085,-0.025078501313591045,-0.00661977691759908,1.1091028130115959,0.02163300389119727,-1.2567625683984835,0.02319284088713919,0.011260566555736411,-0.034301247302770274,0.05355179099368359,2.59375
0.14010796160911004,-0.018649786996169575,0.0016266029294767295,-0.01053843654281812,-0.016895315938151127,-0.02303459245417329,-0.0059830808987361055,1.01614422029261,0.019969667247398164,-1.1520978153132,0.021362776600333557,0.010193511105557638,-0.03148287356799734,0.048985651747432093,2.6015625
0.07967727581315508,-0.010355368770126449,0.001002637805593577,-0.005273201161965585,-0.009703084289911977,-0.013457659388487904,-0.003012530252212538,0.5790408240654366,0.012202835073342595,-0.6577909041302129,0.012792474078755894,0.0052195277843211626,-0.018329963378855535,0.02756229379619977,2.609375
-0.0275598437599905,0.004337451432090281,-0.00010382431261245266,0.004055282611472168,0.003037470167377036,0.0035276854997057985,0.0022517916749281376,-0.19690019412621043,-0.0015569071909234272,0.2203719185379181,-0.002405475315181616,-0.003593559160735005,0.004975111141634284,-0.010454904643294407,2.6171875
-0.05800628550544565,0.0084977294205344,-0.0004175833483629589,0.006698164155388541,0.006644656555088424,0.008346506355268317,0.0037435566291229004,-0.41727524689778583,-0.0054541959209605815,0.4701939894847395,-0.006716070286808589,-0.006089268883261112,0.011577692515692472,-0.02124879697006638,2.625
-0.041196833467647825,0.0061862021530734715,-0.000243742529064958,0.005236520052038108,0.004645781552849322,0.005680726850538283,0.0029159581151487787,-0.29558774021605183,-0.0032945680647949857,0.3325169399325282,-0.004330871241289926,-0.004703203152542174,0.007924412951299616,-0.015282476314514204,2.6328125
-0.09186196763313238,0.013130438587729758,-0.0007662925620530123,0.009653303817042843,0.010680109041433197,0.013702286283763406,0.005403407015337059,-0.6619272767745709,-0.009800596445709922,0.7463120087156514,-0.011510407811326968,-0.008869867317696227,0.018952294301130955,-0.03322961663676526,2.640625
-0.11826545887717961,0.01675563581438163,-0.0010388306637234375,0.01195414295317152,0.013826593306501966,0.017881349740041345,0.006701691426670388,-0.8527811552240149,-0.013188220639421645,0.9617929805242075,-0.015250929316400996,-0.011045010424278238,0.024692793048905315,-0.042584122007863816,2.6484375
-0.018662004299183167,0.0031134967018984837,-1.1571439895941323e-05,0.0032823141823754864,0.0019805971044875447,0.0021069721068975285,0.001813874709342933,-0.13224648790555904,-0.00040279231064445494,0.1470289043418897,-0.0011347111138024803,-0.0028603340391431765,0.003026318860577076,-0.007284680939976828,2.65625
0.008101594449986968,-0.0005518168344563391,0.00026428568490557047,0.0009513875035676385,-0.0012098600536590628,-0.002126085102093919,0.0005007113433412825,0.0611369052281227,0.0030286571951711446,-0.07125918908899193,0.002655840997003643,-0.0006600745131510947,-0.0027963228402745955,0.0021917647610557494,2.6640625
-0.18480829422614448,0.025877960241365763,-0.001725682246865678,0.01774214554193025,0.02172253748700239,0.028429686505968735,0.009970570695794349,-1.3345267553522608,-0.021729286400281482,1.5073899134420135,-0.024682960416257744,-0.016514974072022202,0.039147566982993084,-0.06619143935797085,2.671875
-0.30585808260452785,0.04245703212815442,-0.002973864307047004,0.02827554316489707,0.0361175045329609,0.04759552475942438,0.015911698634588568,-2.2099425321390074,-0.03725336820528276,2.4972525357293307,-0.041832234144272264,-0.0264619763273039,0.06546055607049535,-0.1090945842742216,2.6796875
-0.08179049093864134,0.011751329580337281,-0.0006619713416816704,0.008769288036504357,0.009481755187330139,0.012102394680567782,0.004910638529455045,-0.5886825580296585,-0.00848949136279067,0.6634077999705302,-0.010075803109995712,-0.00804199542672667,0.016739545851334206,-0.02966770352875605,2.6875
0.2480542856985289,-0.03343772932039064,0.0027403285317200016,-0.019938459651138423,-0.02973070783573412,-0.04013276940384646,-0.011281236817953436,1.7973381740883303,0.033829734682280135,-2.0351696037788183,0.03666067862635605,0.019068753800698175,-0.054961449720286694,0.08724716927416902,2.6953125
0.3595971553650492,-0.048714162593602485,0.003890391694456205,-0.02964101465958481,-0.042989355846153786,-0.05779071694263658,-0.016755815458926245,2.60394955586825,0.04812580127778514,-2.947605405745714,0.05246056112898477,0.02823416176161446,-0.07919059220405468,0.12678719717341838,2.703125
0.33936855444103625,-0.04594955453320621,0.0036818405220375473,-0.027877984116996286,-0.040586297124230716,-0.054590237693775946,-0.015765016358632294,2.4576544466771635,0.04552658594947723,-2.7825277515513136,0.049598484367364644,0.02657332700355232,-0.07478764667979396,0.11963160321566775,2.7109375
0.33026383377346574,-0.04471751298231505,0.0035885454563935105,-0.027090191658032937,-0.03951305192665396,-0.05315831222297438,-0.015322983530411876,2.3919743904492665,0.044369433815445974,-2.7081710068181644,0.04831679016131247,0.025831505544167976,-0.0728259353394039,0.11641471645230042,2.71875
0.17658972229117073,-0.023662690721916405,0.002003317991051504,-0.013719914463615347,-0.02124997199463007,-0.028820247428026993,-0.007779567446746696,1.2800879465612551,0.02465622847677605,-1.449908087938591,0.02653743198202629,0.013201674733399804,-0.03943291192720992,0.061929819042806165,2.7265625
-0.18291946673542636,0.025614391629469425,-0.0017060694374954552,0.01757276829150985,0.021497764430588692,0.028128567723754105,0.009875776654844987,-1.3210585815076645,-0.021481488228785043,1.4924137333375822,-0.024418144534835595,-0.01635742454445173,0.03873069177299626,-0.06552810165204104,2.734375
-0.4462332947888366,0.06170924372278929,-0.004423088214544619,0.04049806112467368,0.05281571849395055,0.06983944229901222,0.02280895739386701,-3.2260299161796158,-0.05527738039039361,3.64651251594861,-0.06173602286673952,-0.03801195346469193,0.09599314234228415,-0.15887262355075574,2.7421875
-0.3973685822860308,0.05501190126202109,-0.003919041866773908,0.036247872591746645,0.04700857411620138,0.06209850346324191,0.02040941300830873,-2.872357524007908,-0.04900904108359299,3.246126638789346,-0.05480886342411631,-0.03399694425277799,0.08537579121572925,-0.1415420646826622,2.75
-0.20282025550391392,0.02834238714732187,-0.0019115290618314568,0.01930836462099,0.023868125697576032,0.03128065103959319,0.010852731778764606,-1.464794982734963,-0.024039978729691783,1.6545835275430016,-0.02723787338101385,-0.017996795212643985,0.04306660790015018,-0.07257347107461808,2.7578125
-0.06656078537973735,0.009664217311923231,-0.0005051643092939326,0.007440177647817636,0.007661090708463675,0.009696362673589193,0.004160151021267414,-0.4789564294618838,-0.006546058121923335,0.5399896985696839,-0.007927016548662368,-0.0067880777818227775,0.013426276389979036,-0.02427672220516847,2.765625
0.022549394740620708,-0.0025435453179250356,0.0004143629605171182,-0.0003143243725872164,-0.0029257243411076697,-0.004418270526299512,-0.000212204876498407,0.16586219926560575,0.004893241525540812,-0.1898398298077747,0.004705352852547422,0.0005357582226703929,-0.005943862475577207,0.007309590830748131,2.7734375
0.10875967188410413,-0.01434944159075816,0.0013032713243421997,-0.007806714725624021,-0.013163643869544455,-0.018072006485220265,-0.004440821051787775,0.7897383480827793,0.01594847583114406,-0.8962078847346455,0.016925191497124525,0.007615058333001815,-0.024664643594605514,0.03787930834860494,2.78125
0.15905628246647188,-0.021239229457853448,0.0018215862608695972,-0.012177628059474973,-0.019144306163606413,-0.0260372665234034,-0.006909905086185704,1.1537132917071544,0.022392560825291754,-1.3076974798717984,0.024050870959921446,0.011747103948436487,-0.03558645023200082,0.055720762835386205,2.7890625
0.16032080742056362,-0.02142004088602789,0.0018347597179361236,-0.012294407267726425,-0.019307556804362514,-0.0262388767426016,-0.006975638371760582,1.1627795677800525,0.02255762171649217,-1.3171478807793697,0.024228656367862946,0.01185793577484081,-0.03587477106850462,0.05617160548767136,2.796875
0.1207969119547345,-0.016013899586580355,0.0014276372125733182,-0.008865625913567416,-0.014617285393697476,-0.01998210740563686,-0.005038646260362979,0.8765855478440013,0.017497710344594946,-0.9931648199257375,0.01862973211412511,0.008616924763635543,-0.02730321881452308,0.042154662970375845,2.8046875
0.03583013592166232,-0.004369209891972509,0.0005512906198184823,-0.0014713810873357522,-0.004509489877327409,-0.006525071370716173,-0.0008665001584414409,0.2616863570474943,0.006596940515544726,-0.2981655092826582,0.006588903512128045,0.001631204593668769,-0.008831372168615525,0.012028810611714518,2.8125
-0.04056239417617984,0.006113417950023636,-0.00023730949583467,0.005187435131104577,0.004586355965838737,0.0055791906887378674,0.0028884030264056137,-0.29095134915306436,-0.0032174789714147015,0.32635944519431614,-0.0042418762756189395,-0.004657982813861755,0.0077960990480163495,-0.015054166095235464,2.8203125
-0.026413544163163355,0.004184862799288204,-9.18757705348729e-05,0.003963133590539348,0.002909257897815602,0.0033435831278622635,0.002197030645465192,-0.18854664755225972,-0.0014109472519993065,0.21044632884986214,-0.0022402847409296873,-0.0035017830677866956,0.004732151607951371,-0.010041277322016054,2.828125
0.04148720086283973,-0.005127993541505912,0.0006087180200952424,-0.0019513352511227077,-0.00517265841724389,-0.00741127435746365,-0.0011384358959148563,0.30250011853977055,0.007308567050966703,-0.3446952724063055,0.007385597891940574,0.0020829646828119173,-0.010040991302585647,0.014024501886143369,2.8359375
0.04927949001375732,-0.006212358310816173,0.0006896417129900929,-0.0026391933871774717,-0.006111178542331553,-0.008650141795384928,-0.0015257305251403963,0.3587080178492886,0.00832188441607802,-0.4079526998389587,0.00849504589613752,0.002731249231107076,-0.011755186439887627,0.016783498012135013,2.84375
-0.012868745298139387,0.002302153866027775,4.872753142773757e-05,0.002768133141169058,0.001277746235998987,0.001191844811849167,0.0015240452070441122,-0.09070487828838251,0.00034921425518018295,0.10048476646289516,-0.0003136620757771812,-0.002375963054610954,0.0017528209624651328,-0.00524697653742418,2.8515625
-0.0593114571317843,0.008682208429311555,-0.0004307628309482584,0.0068178290504075974,0.0068110525570769685,0.008551899160873061,0.003807841561819058,-0.42634204010174187,-0.005622528541424598,0.47993286427333715,-0.00690194355791492,-0.006199808900785768,0.01186720293921691,-0.021705486288893867,2.859375
-0.054942320869144176,0.008094953733592007,-0.00038613371527438327,0.006442772325394422,0.006298430458729723,0.007863301857392946,0.003596956511321077,-0.3946659784170233,-0.005071517773416661,0.4438846007172287,-0.006285305438108724,-0.005844906213765627,0.010931375082559383,-0.02015056459578477,2.8671875
-0.03802708749003184,0.005768844677463715,-0.0002115489210784937,0.004965564623398169,0.004279172127843843,0.005182407506052222,0.002765457208652822,-0.27246802087608984,-0.0028943329235398703,0.3058393974587904,-0.00388323582220447,-0.004450471622122332,0.007244977176821832,-0.01415439566133922,2.875
-0.048416201649003475,0.007176580322739342,-0.00031828152360913984,0.005862054788000636,0.005502194333153097,0.006824700889084792,0.0032718084397605316,-0.3477100050096505,-0.004214868317103377,0.39140405545450535,-0.005350600871111801,-0.005297881358262102,0.009486624698854229,-0.017843952357684892,2.8828125
-0.08856187276937316,0.012672886885126753,-0.0007322172621211829,0.009357089915989656,0.010276021306726772,0.013181838510185851,0.005241044857120182,-0.6380784962640474,-0.009366337575151939,0.7199136743740353,-0.011040745743166455,-0.008596753322959208,0.018216595904754135,-0.03207593414436695,2.890625
-0.10629812702570378,0.015110290209570597,-0.0009153348665976584,0.010908817041848642,0.012397564358240264,0.015989137107752148,0.006113033445830242,-0.7663297900388153,-0.011652664205744115,0.864440585774535,-0.013556930534269877,-0.010058590318938033,0.0220902687395063,-0.03835176544258741,2.8984375
-0.03233957727475897,0.00498407719071503,-0.00015259283186239085,0.00447646655792234,0.0036129395736379704,0.004273173754231575,0.002484083999060646,-0.23125868274878686,-0.0021666122937469474,0.25878115031321797,-0.003075879184690271,-0.0039830051865128325,0.006017933838455046,-0.012126446057018311,2.90625
0.10425555610516259,-0.01372917090713847,0.0012563381339555037,-0.007413605529703713,-0.012631543591337495,-0.017358713879534905,-0.00422068818834854,0.7569014821328334,0.015364969910053036,-0.8586798182317268,0.016281867146366074,0.00724337944813819,-0.023688245645992635,0.03628579032988711,2.9140625
0.16867874636039984,-0.022558061958685934,0.001920795096852145,-0.013022461129255064,-0.02030005487471891,-0.027557381631312605,-0.007383595257793282,1.2228602428613347,0.023632150269688384,-1.3852870143848526,0.025410958766680616,0.012539747479520405,-0.0377003482905673,0.059113817273252864,2.921875
0.10243929393056186,-0.013489736434513623,0.001237692244919262,-0.0072580355858267625,-0.012428609410344502,-0.0170688669222584,-0.004133652071795397,0.7436271965205917,0.015130525383374999,-0.8433311298150268,0.016027526142969258,0.0070995326404693655,-0.023296828338816654,0.03564400775237187,2.9296875
0.016985916501826438,-0.0017903245153120316,0.000356771340939085,0.00017560269774220892,-0.002267679131128441,-0.00354419994685475,5.9068201191439645e-05,0.1256149871262334,0.00417204353002988,-0.14467513263823306,0.003924689394205963,8.10848441357688e-05,-0.0047229604976872655,0.0053671803453705135,2.9375
0.01517190981926075,-0.0015397463567353822,0.00033837523886481744,0.00032847415797694716,-0.0020492261552125606,-0.003258890743277885,0.00014851740601622037,0.11265770015705134,0.003949713377154167,-0.12995736251313297,0.0036674968805870153,-6.831332322879866e-05,-0.0043402389747224214,0.004713556265870944,2.9453125
0.02921071665653637,-0.003446426418009105,0.00048270005198335645,-0.0008923046167287122,-0.003713452443441594,-0.005470477078087883,-0.0005365429251046059,0.2140171324805039,0.005748198138265435,-0.24427789359234484,0.005645851440162578,0.0010778222238439752,-0.007390595765489822,0.00966255724084054,2.953125
-0.04661399186942944,0.0069578036443230995,-0.0003002403981272743,0.005713864560750151,0.0053071485219263765,0.006550991326962925,0.003189510997670562,-0.3349320516400844,-0.003996896382619649,0.3765487877041605,-0.00510976623082409,-0.005161724869825765,0.009113005468845841,-0.017225565405478163,2.9609375
-0.15599512841398022,0.021940038010658032,-0.0014286727624281384,0.01523687536500992,0.018310658741776994,0.023873652956291628,0.0085576035879839,-1.1263686957562418,-0.018040116315137866,1.2714178791437414,-0.020609209959464195,-0.014150804361281936,0.03290337763963863,-0.05598502012858417,2.96875
-0.16163074515830714,0.02269358817081747,-0.0014862709788773818,0.015722640955013644,0.01897053640280655,0.024756046391202446,0.008828721405649156,-1.1669278139015236,-0.018754807975121697,1.3175060876062556,-0.021400225555189775,-0.014606558365916289,0.03411530013411058,-0.05797063701133776,2.9765625
-0.06410112436526967,0.009320966634365881,-0.0004798748235509148,0.007229266561596589,0.007367212009527953,0.009303896909547232,0.004038168204817438,-0.4611577227605182,-0.00623010842828436,0.5198136853713311,-0.007575782311635827,-0.006586040707635255,0.012895794086741028,-0.023400256863781534,2.984375
0.02362917800483409,-0.0026905970810113143,0.0004248207186757363,-0.0004038067253525396,-0.0030574064758517663,-0.004587392286880256,-0.0002651271839066902,0.17354329981485972,0.005025288912018681,-0.19808985759109957,0.004854995983940493,0.0006212829333583445,-0.006171691499015809,0.007695782366051562,2.9921875
0.07766587964562528,-0.010083786686276873,0.000981864663541326,-0.0051003451164117275,-0.009469982824292482,-0.013141812655981163,-0.002913530428357201,0.5644928297779828,0.011951856614801514,-0.6410394050852334,0.01251300842464399,0.005056928629989967,-0.017901974246926175,0.026857540320268117,3.0
0.15333694593875294,-0.020457614983940706,0.0017626339535976548,-0.011685140235893919,-0.01846606339444806,-0.025130190063005715,-0.006630017894066281,1.1120792492573284,0.021662803206503673,-1.260852880156187,0.023241496031166976,0.011277360809962344,-0.034351319729862904,0.053692005331406716,3.0078125
0.207081369567192,-0.027836835890014438,0.0023176641795128634,-0.016369430583421652,-0.024867943034873056,-0.033650043268777505,-0.009274117921396943,1.5010283806364055,0.028568865021225076,-1.7002937147796526,0.03086239474628675,0.015702982752383646,-0.046053376379267506,0.07274800864719647,3.015625
0.132307713883671,-0.017594758024427445,0.0015466970947211989,-0.009868102948544498,-0.015985443839719792,-0.02180842315127955,-0.005604686899045451,0.9600534507097326,0.018979856935997158,-1.0877335660740144,0.020264857872438147,0.009562679578162826,-0.02981034473586723,0.04623492624107826,3.0234375
-0.03820841955983309,0.005783905129793516,-0.00021265314105533233,0.004975354090472246,0.004295021914664159,0.0052076560335964864,0.002771892802093978,-0.27370269183522294,-0.002907442778495639,0.30765563783431127,-0.003906037110672298,-0.004458427776355943,0.007270011181020072,-0.014226733142644124,3.03125
-0.15452031767265267,0.02173703231152032,-0.0014133127826846744,0.015108927962825053,0.01813526517415085,0.023639568756671277,0.008487791500575135,-1.1153214035205004,-0.01784642431701846,1.2590088214925708,-0.02039521717718432,-0.01403046647361004,0.03257737981529383,-0.055468580203850655,3.0390625
-0.15449365322105685,0.02173435617377878,-0.001413523234620474,0.015112891429993709,0.01813274205837062,0.02363458961846547,0.008486152553924091,-1.1152134025952396,-0.017849930712524577,1.2587392943634519,-0.020392274488212268,-0.014032241679798248,0.032579288139330316,-0.05545128585393751,3.046875
-0.09610100116181035,0.013720114569040667,-0.0008107905239694409,0.010024595645701974,0.011180134781015084,0.014375730487929556,0.0056140020954390255,-0.6927796122729912,-0.01034972088379879,0.7813709274654456,-0.012112747064171626,-0.00922372791045412,0.019870740966265812,-0.0347338871824629,3.0546875
-0.04760108853546653,0.007061004399211797,-0.00030963863290325096,0.005791966208084469,0.005406287383944668,0.006685306475231931,0.003228145944664104,-0.3418668414899307,-0.004112734302277292,0.38472754465277476,-0.00523458083753046,-0.005226465747161626,0.00930718926451093,-0.01753483286095285,3.0625
