AF3,AF4,F3,F4,F7,F8,FC5,FC6,O1,O2,P7,P8,T7,T8,time
-0.3548518825746944,-0.005992116510155707,0.05039852775254412,0.01850348107491204,-0.027595086716712066,0.005349577600353171,-0.01803762559220685,1.576482529560656,-0.013690175540152437,-0.10247833621537954,0.058688747306359236,-1.5114865627231953,-0.030384023580330394,0.3557205552522568,0.0
-0.2876315475875947,0.0033203902813948825,0.039764016526815216,0.016107587687894945,-0.027467200235370692,0.007404886095351845,-0.015398251110580949,1.6233138856551503,-0.013251235900301243,-0.34991332161354766,0.05924652718162562,-1.3243946846186025,-0.03260880751058376,0.30291733881392197,0.0078125
-0.06686594278662275,0.02923421167066854,0.005407362371325281,0.00760733234191597,-0.02430152566952059,0.012393828421721523,-0.0062264068613319835,1.581422248631826,-0.010564304163131612,-1.0142830534212866,0.05446091614256866,-0.6531441266988909,-0.03551685319601948,0.12135096515611084,0.015625
0.43408035121671446,0.07190542529717626,-0.0706028801450317,-0.01377231744800673,-0.007637158769753893,0.017577194541445088,0.016326416070964602,0.8119548217520794,-0.00018749464055707572,-1.9974521300494321,0.020638824415578506,1.0620582887975054,-0.026858600578769373,-0.31819286961382165,0.0234375
0.5312330958443762,0.06358035991382752,-0.0833551432694976,-0.02007357465465895,0.005364998351885883,0.012261481344218212,0.022494420515543727,-0.032366450519232814,0.006234025208891534,-1.647807556091872,-0.009584252084411313,1.5926531387237146,-0.009474675595433309,-0.43205068124061025,0.03125
0.19534939550235317,0.008363342749688314,-0.02921146159715245,-0.00919025612675854,0.009859081826117716,-0.0013515005614721598,0.010249535874993386,-0.6310766168565888,0.006345294500148931,-0.12159983985700396,-0.024857067816234018,0.7599190970047286,0.009894828162540992,-0.18334219565208693,0.0390625
0.03286228406523095,-0.031124777989528212,-0.0015007621024365132,-0.005577120610050182,0.019565158713868675,-0.012818623789234436,0.00570749895834106,-1.456646712440309,0.009797737790176208,1.0348488086121908,-0.05050442181964819,0.5094583293876673,0.03136823053291791,-0.08525217632349512,0.046875
0.1927081775605516,-0.03562943631570402,-0.023596699050820378,-0.014744001197143527,0.03556194988836635,-0.018087823144649195,0.0148620829360577,-2.462212454532206,0.017930628009382266,1.3136198408469666,-0.08718702159446909,1.2730580652266128,0.05129869073509042,-0.256996277469112,0.0546875
0.28883665331814146,-0.03086638744166062,-0.03776777321879342,-0.019293489148073533,0.04077623278991807,-0.018401309856131365,0.019558793897913845,-2.7535852206618294,0.02083598365818679,1.2361335037330006,-0.09856567555745922,1.6434015305603686,0.05620459725144766,-0.3473070593017723,0.0625
0.02223132854955628,-0.04216949627460138,0.0013353027033569452,-0.0064461867016728375,0.025180412292565416,-0.01679547671387062,0.0063222361120403294,-1.8655431037543935,0.012279536676749822,1.3848522579593034,-0.06424994158552122,0.5948214878988831,0.04077901592772663,-0.09357388115497413,0.0703125
-0.49929223616001595,-0.07460354991864523,0.079037325684685,0.017356294347735484,0.0007624416837722206,-0.017603835013673932,-0.018453404338709747,-0.5615389722528488,-0.0017134951848037897,2.01541680991484,-0.011895125980625932,-1.3336517279064575,0.020395205788079806,0.3848262087389643,0.078125
-0.758311494534827,-0.09152379637815569,0.11771113563681057,0.029077401367587692,-0.010880830963358514,-0.018323360351806664,-0.03067053389255981,0.05171211188344641,-0.008445081658386644,2.3566350336835686,0.012923145020651502,-2.2819033824835304,0.011053753036074615,0.6209829225311809,0.0859375
-0.3243201269692192,-0.03985521895297727,0.05009296801318434,0.012474015585309606,-0.005093791629399675,-0.008241690923927477,-0.012720402655586998,0.0008704018554601458,-0.003361839697212467,1.0277808903821601,0.004564400769576938,-0.9718544237247968,0.004659398393796087,0.2656478309496805,0.09375
0.44030726079344223,0.06270517256222176,-0.07039068176408875,-0.015292289619225918,-0.0017010376460325847,0.013933255764469375,0.017658211188901728,0.3952601885211857,0.0025233073761575624,-1.6921707719766603,0.006340869244976217,1.1988891751984212,-0.017546856570516127,-0.34035510127291313,0.1015625
0.7560885140055936,0.1269444832737137,-0.12274830878566245,-0.023927075516608956,-0.013198401738334585,0.03144485476481566,0.02783697171720134,1.4758491137711283,-0.0008676265108513087,-3.5303496571599413,0.038336098518072514,1.8343495240529235,-0.04744721032659153,-0.5526585909393784,0.109375
0.5402107983619364,0.10900609636470518,-0.09003848344362853,-0.014663707137312501,-0.020651428319955454,0.029388679500436297,0.018066529740535783,1.8265481809544484,-0.005458897883051064,-3.1220094040602695,0.053576109878824045,1.090180960917146,-0.05161236570451783,-0.3624338397018705,0.1171875
0.2785028423220003,0.055421967045915614,-0.04660352480351062,-0.007555511482603579,-0.010918602979937653,0.014742825811275409,0.009667116660897113,0.916366048027792,-0.0025546917039182015,-1.587164409778152,0.026566216550540363,0.567840539636439,-0.026501814660212092,-0.18709770837451858,0.125
0.009904479252533072,0.021428830201513874,-0.004542454336558119,0.002466084955845438,-0.013293276037569138,0.007719703524368844,-0.0012182289830075562,0.8620448251170998,-0.0051576268429620025,-0.6973632812464371,0.028799559680289008,-0.2190235717741217,-0.020603317966471406,0.029139632293586664,0.1328125
-0.43390178152484743,0.017753761513868958,0.05871582193609527,0.02582603354138537,-0.04815687539483648,0.01614875953967222,-0.02488171503359448,2.97371341578569,-0.023423557103502187,-0.9411469479284033,0.10746625036653475,-2.1455639470435033,-0.060574095585901384,0.4775313121221754,0.140625
-0.6023989704366135,0.027085237009712645,0.0814739471565095,0.03608330394840736,-0.06772480201495389,0.023445747303030708,-0.03502818482072884,4.225780074545041,-0.03321501968533674,-1.384230899344262,0.15267638240882433,-3.004949509685977,-0.08591543600412675,0.6664660568270983,0.1484375
-0.13890090138066402,0.011048196589892118,0.017797712886836528,0.009109480470545186,-0.019613981113841016,0.007065845619177579,-0.008165959984822417,1.187658681342341,-0.008857437299473614,-0.48203608835805817,0.04216891283057094,-0.7557472478257822,-0.02536177935572283,0.1637825180836949,0.15625
0.27689503903154783,-0.059466436080950306,-0.03264789712634657,-0.02236304293847654,0.05661946652402948,-0.029038154304747585,0.022000180987918144,-3.8909460628397134,0.02792056365166804,2.1585469966885262,-0.1371017813861463,1.931649110171736,0.0820967143339769,-0.3844891430999094,0.1640625
-0.02088147968569941,-0.13841712949289012,0.018910941778624468,-0.016602870437184364,0.07828469197715174,-0.05255340005297369,0.014387112187309424,-5.679799862547014,0.03600194305473471,4.490581107829885,-0.19348869653760242,1.5515561650903706,0.12767443087725983,-0.21609350743880043,0.171875
-0.45400176838518336,-0.13750368950314787,0.08011276545898681,0.0067819472357503584,0.04160365867444201,-0.042611124871775714,-0.009198361700757673,-3.429603880730463,0.016976652195322708,4.107125260463611,-0.11027880628520148,-0.3824298184204957,0.08439737969888762,0.22943271456437953,0.1796875
-0.23862684604592777,-0.05489060958545631,0.03978309543327454,0.005926558647675444,0.010904396059265433,-0.015874599500874814,-0.006450952522611766,-1.0661717697348714,0.004346017555195147,1.589009837862407,-0.03307940529537153,-0.41201042586862996,0.02727536025910015,0.15184682740016173,0.1875
0.23709353140341716,0.015448104666620876,-0.035944972263436126,-0.010510557898935227,0.009166923694030306,0.0004165307869235803,0.011742675687135032,-0.547234944126634,0.006271330195396608,-0.317238129335768,-0.022636973890185097,0.8609431491950202,0.0072619010289311,-0.2139527766230385,0.1953125
0.25237144237459086,0.025498235597830748,-0.03932338931568348,-0.010036808975914748,0.004528458939218247,0.003917323582699057,0.01148771449160336,-0.20451265766826696,0.004264672961414301,-0.6345286142854044,-0.011183744892295113,0.8089842490430961,-0.0007599187131752694,-0.21229767273083275,0.203125
0.024848777928654024,0.023840177661385277,-0.0069388982627836245,0.0019686879790159245,-0.013478355576337342,0.008327872987255831,-0.0006686475128637817,0.8877933121686359,-0.005158804872652784,-0.7669248816777914,0.02946727627061749,-0.18156376606589447,-0.021458076591188677,0.01809113597341503,0.2109375
0.07584254570624925,0.046802501466070845,-0.01689968595248179,0.00221690853872117,-0.02275301095763628,0.015949382510755398,-0.00038564801178153787,1.5901813327044791,-0.00905376777495542,-1.4722166808502775,0.05258305965683712,-0.22944029125509866,-0.038179184600563076,0.005749540647151259,0.21875
0.2244646566878355,0.06365152765362225,-0.039937918567212294,-0.0035755216113387027,-0.02027462901383306,0.0190728851103286,0.0058525541751007866,1.537122842304141,-0.007087120300914553,-1.8985064414236217,0.04850469177787677,0.22943998643438862,-0.03955801832620574,-0.11742461160896105,0.2265625
0.09842634739185203,0.05027868120839734,-0.0204969867587535,0.0014526054488860497,-0.022905536988650714,0.01676243201493443,0.00046451572100613374,1.6192837172195318,-0.008991324558200767,-1.5662187888818413,0.05324161687685787,-0.17014775911824112,-0.03924294813243071,-0.011613428084943499,0.234375
-0.11181451339527833,0.029637866871615286,0.01172134752721979,0.01005749427802997,-0.028286378541926283,0.013555954879760785,-0.00870649904056588,1.8275237634171888,-0.01261722241942963,-1.0669527747845835,0.06355631417758717,-0.8570099043678123,-0.0403128136280748,0.16803649786728894,0.2421875
-0.08987374136442051,0.020114873364933256,0.00974980973542543,0.007644085253519374,-0.020853842006521742,0.009446774462868558,-0.006491542618903796,1.3173156324884387,-0.009138172827214157,-0.7389136701474303,0.045846500564392774,-0.6461809592533297,-0.02917065170105756,0.1292272020177851,0.25
0.029908442900569366,0.0100557419408408,-0.006003280118766991,-8.27840643410727e-05,-0.0049444599361975735,0.002956237066480986,0.0010897505527700008,0.2850114123223915,-0.0012768164792168724,-0.31158349633012883,0.008848518391591422,0.005142574507967535,-0.007918049735666812,-0.010775046953230092,0.2578125
0.0032078189519767087,-0.005765901672025771,-0.0003382380599739495,-0.0006903575426466771,0.002144542795993714,-0.0024948682411236,0.001355973816027716,-0.24194831460893249,0.001768934667431254,0.18374486586063513,-0.008705278992965533,0.07505322355846027,0.004464000910702908,-0.010859401723104439,0.265625
-0.06992497613043035,-0.013748709558739825,0.010961721868641609,0.002201216491739041,0.0007501882305794036,-0.003925663698569391,-0.0017426231658329125,-0.20402279069123,0.0007234326761944882,0.38413619412503613,-0.0062950744079016225,-0.1541849111864253,0.004874176708410568,0.0500574401413004,0.2734375
0.02187514587205087,-0.010451150053474531,-0.0024225761925763425,-0.0023111231198274015,0.0064732957469982,-0.004699553619139571,0.0028785034525943727,-0.5350638554794014,0.003832414413504936,0.35095037156417996,-0.018948644223390744,0.21460273352984974,0.010739072294931097,-0.03842449115749029,0.28125
0.1912087166088485,-0.011160835954822541,-0.02629506963332938,-0.011503109950579408,0.02102049744976944,-0.008715152112528369,0.012133919617127294,-1.4290363910968957,0.01136469938684007,0.5124851436074173,-0.05196127731883511,0.975140459166838,0.02798016696442145,-0.21308848966484223,0.2890625
0.1643394663494968,-0.02623629085364173,-0.020679524032808424,-0.012008840425968293,0.027656325864228316,-0.013869398354269709,0.012304068032426549,-1.9231007446657216,0.01420485041386548,0.9830005848531675,-0.06838375146071286,1.03537139000998,0.0396132759066739,-0.21148972474234878,0.296875
-0.06062691983478183,-0.04719502434043779,0.013676566047980555,-0.002634203442058367,0.021232290933910145,-0.016888550831009732,0.0023710603993166656,-1.653025279449779,0.010021433899134917,1.4837068406589502,-0.05576970343688232,0.28621383545015655,0.03743146006727262,-0.01721511963013398,0.3046875
-0.1563088989801392,-0.05621930596785914,0.028301242472756033,0.001335259686709748,0.01856883297831049,-0.01821912893630635,-0.0018399193020827878,-1.5434918268844544,0.008275579879505198,1.7002669122997818,-0.05057954418064368,-0.030763793215731455,0.03662077561078097,0.06508072488597873,0.3125
-0.010650015271832208,-0.04107787401831738,0.005865297148817404,-0.004534565072483367,0.021805704734413206,-0.015666177056735335,0.0044229964312587815,-1.6529368357275815,0.010569681213945815,1.3247182072807884,-0.05651475659009725,0.4358151279536707,0.036556445660994086,-0.0580595731838572,0.3203125
0.002588077953328063,-0.005395037536192737,-0.0002893941037791184,-0.0006289372346694611,0.001888958117782682,-0.0023343635782374266,0.0012829194508670481,-0.22432944878533193,0.0016555449720571467,0.16992548962616072,-0.008064309248852167,0.06906308076128001,0.004055817829576783,-0.009765858192565195,0.328125
-0.34332504787415336,0.031307137403827914,0.044275533319703936,0.022707465811220656,-0.048599080297288315,0.019338599026988722,-0.02144270787638515,3.0811001305049457,-0.023107461657951554,-1.311485169719539,0.1097563063207,-1.9049518035000024,-0.0645870621258354,0.4083900263272292,0.3359375
-0.6016323978467498,0.04720705955553756,0.07893516668351473,0.03864956443645595,-0.07952424799234602,0.031123201512760223,-0.03716680566387508,5.066706859321027,-0.0385413094464459,-2.0412879148203893,0.1812942128613063,-3.2419580409898994,-0.104936906221964,0.7006270199582874,0.34375
-0.2945063262641579,0.036655433775730994,0.036728588147438165,0.020793610899363768,-0.04768318950558082,0.020283621851536947,-0.019369833205407035,3.0558298319229626,-0.022419733930592406,-1.4447091991175376,0.10813491250317726,-1.7526762066457322,-0.06485379217042729,0.3675183994969645,0.3515625
0.28756894872667144,0.01661051211789443,-0.04325189736747956,-0.013066840354430806,0.012699388100046052,-0.00026532247975811845,0.014359038189928449,-0.7569150297294918,0.008153980582246022,-0.3138487367564462,-0.03055746437880592,1.0709412327729702,0.01113303519037053,-0.2637323349186958,0.359375
0.5265742210942351,0.008349722543502233,-0.07607863826390636,-0.0269799869196539,0.03751351256728303,-0.008708737989632167,0.02820769541776965,-2.323484926894545,0.02071848623787468,0.1508237433260793,-0.0875289437719112,2.2309091471123077,0.042344750291604026,-0.5228941682716237,0.3671875
0.3591411241095344,0.0105942499857733,-0.052648246620839556,-0.017700902120566537,0.022216262809637007,-0.004134137350422539,0.018883727581327846,-1.3740027114790256,0.012859817393090656,-0.060199261579435746,-0.05264049951555062,1.4608235606337263,0.023806392020543764,-0.34734674546442207,0.375
0.16076813491230046,0.005075014851521961,-0.023928335301863102,-0.007759105149373406,0.008909565321336004,-0.0018420622368984076,0.008726123763504774,-0.5922964447760793,0.0057218964151916265,-0.04232861976311466,-0.023010730699568344,0.6457470026282117,0.009611758243362896,-0.15362131411600768,0.3828125
0.09590946654704165,-0.008305282776011157,-0.01316124395520778,-0.006003069715643898,0.01138543931287814,-0.005519246153876131,0.006659489534700833,-0.8225927948922798,0.006469992711701669,0.3425002737967774,-0.02988123343175812,0.5172699941312932,0.015957270439248866,-0.11037762491365623,0.390625
0.07904264296289903,-0.008824604950485789,-0.010706294707830974,-0.005162521849670162,0.010292282117795542,-0.00535366562033299,0.005802435709958734,-0.758885976138279,0.00588243354759938,0.3467100664344461,-0.027459066924296113,0.44863757254692904,0.014820930257276248,-0.09400323634109789,0.3984375
0.08839127147147909,0.00601438271301747,-0.013794123844755138,-0.00374661659092272,0.00232510882336263,0.00010458950841175906,0.00470390366968033,-0.18437056365167295,0.0023405636874442846,-0.13053783099652858,-0.008026382772135314,0.3132226028723672,0.001679791289916708,-0.07785772362147246,0.40625
0.10657245659175613,0.013341263018776719,-0.01724285130763165,-0.003778831200055646,-0.00048594582387133535,0.002508315298467615,0.004895608493859199,0.030598457221674955,0.0011744365554022312,-0.35637277931851286,-0.0009703892446731537,0.3065908564580845,-0.0035036775703657925,-0.08380784847107363,0.4140625
0.013443946689962565,0.0048183735128799685,-0.003044827816258042,0.00011944933447505758,-0.003232031498281833,0.0013188985211329434,0.0007666322375490314,0.14877538101985632,-0.0005962299360454316,-0.154696669529352,0.004470304475663903,-0.005110804386255699,-0.004560339673966683,-0.0031895161348231976,0.421875
-0.19369167805350776,-0.00709729428991201,0.02770029081599064,0.009705516960738054,-0.013480392183589028,0.0013495447519890561,-0.00917531420047386,0.7062364145458115,-0.006401842506928625,0.06612809211942411,0.026593669287209437,-0.7825125838613588,-0.01353956906455018,0.18841618650151729,0.4296875
-0.30667525834186965,-0.023292513549927823,0.045635345033178266,0.013677569412971545,-0.013365187220320046,-0.0023285944440612867,-0.013550340292725881,0.604273089826577,-0.0069945747315764825,0.5029929683336077,0.02483635333660583,-1.0910012139348333,-0.009262466913824057,0.2762018871496072,0.4375
-0.21395477971194435,-0.04805736828379419,0.035479478752405286,0.005484450947930656,0.00894505694086923,-0.013816837110920997,-0.005848651973940553,-0.9063444428424,0.003601424489728425,1.3856383208162546,-0.02800048139516701,-0.3839996577641047,0.02322790989299219,0.13833499625933848,0.4453125
-0.09862733077059409,-0.05358904480331373,0.01981515281326072,-0.001434318740501211,0.02181769808030337,-0.018469116439374517,0.0009995312569979866,-1.7266074810910714,0.010068068279509563,1.6585233095039087,-0.05766744687865042,0.19415383760276933,0.03972003106675184,0.010513096442324617,0.453125
-0.16950174671059356,-0.015218760219207412,0.025242977434894842,0.007339913280367852,-0.0066919078237939475,-0.0022609062616503386,-0.0069898512093449884,0.2432043231371535,-0.003202472805510547,0.34804134443392726,0.010489472081325646,-0.5780502304155177,-0.0035402850300611513,0.14952167828686275,0.4609375
-0.3428699208238882,0.030889146544243268,0.04425286533551128,0.022630085947134945,-0.0483112448072422,0.019163259413956763,-0.021370655515487013,3.060795271638308,-0.022975010876314452,-1.2970773770113364,0.10905325452449138,-1.8979220451339895,-0.06413463099802197,0.4070844622427594,0.46875
-0.33680823535923987,0.0334237517640698,0.04309552854565664,0.022642577871477432,-0.04930136160077647,0.01999037247770406,-0.021314756078898413,3.1363441918953905,-0.02338820248795982,-1.3731846164273072,0.1115128736685073,-1.901600834390878,-0.06592149196128194,0.40538153347012573,0.4765625
-0.027285721893558382,0.011302949521420576,0.0019490089817896848,0.003158274293490289,-0.010447147371775765,0.004687738622172514,-0.0021409814123426116,0.6286210630392847,-0.004086880751961042,-0.3971923945307168,0.021405520055753982,-0.26364268757358095,-0.014666774636025979,0.04988798226893384,0.484375
0.39140765277227507,0.018892744495314796,-0.05820924007540887,-0.01834815475761183,0.020022904721785452,-0.0016989548941098703,0.01974240953102134,-1.1918265834265271,0.012053999814237744,-0.3024705777956287,-0.046945595200088855,1.5049108107414626,0.019152143056563115,-0.36615724577939124,0.4921875
0.6130333131550587,0.04695139784555271,-0.09293650335491213,-0.0266219035932009,0.021991786716070476,0.004097261392049023,0.028727192064449753,-1.14758052193903,0.014206371196989857,-1.0377295166280138,-0.04880187701563787,2.154310470372048,0.014286992422563422,-0.5447327640787203,0.5
0.549451037442738,0.04142639695757854,-0.08328315586671702,-0.023924483082227006,0.019936136393500833,0.0034079356671242204,0.02587388006441546,-1.0536310484787954,0.012914472813907372,-0.9101941158577644,-0.044637472649540835,1.9377765850996542,0.013271249772979348,-0.4890128991177651,0.5078125
0.3823431813623473,0.0043901182870706434,-0.05520446381415296,-0.019742834266237533,0.027800303268597528,-0.007014440971942683,0.020813636908545246,-1.7519174786861496,0.015510007974905322,0.16207000465144394,-0.06588489507884061,1.637367696166204,0.03196076292547304,-0.3817534573484769,0.515625
0.22867421085342635,-0.015373583984128695,-0.03109155758048461,-0.014045082070784799,0.026618503762110803,-0.011156231729069925,0.014619831462987195,-1.7960440669693625,0.014101286906093309,0.6820484454965905,-0.06505524270907233,1.1907769881023147,0.03564123252724154,-0.2585416849201301,0.5234375
-0.03972523053002628,-0.018069134922425737,0.007217101011155869,1.615536649805632e-05,0.005817862080340179,-0.006243954608476722,0.0003608546455435697,-0.5396562109335602,0.0031853406524975565,0.5497906881060451,-0.01817267112845756,0.031635587484515656,0.011924457243040669,0.01164354339472687,0.53125
-0.4064604203092605,-0.04023118948668664,0.06176963778695328,0.016827779169312235,-0.011721715323063476,-0.006567474878660716,-0.017130945168534292,0.4035155817672274,-0.006819082909072452,0.9710565985708451,0.019552599253883904,-1.3316323662371874,-0.003023181412457367,0.34896104718713006,0.5390625
-0.4817018682535885,-0.060811093935545776,0.07487659711378253,0.01819590161064766,-0.005878734874453952,-0.01274132532022494,-0.018990120228662213,-0.07430283042325468,-0.004610636652869876,1.5803508758924236,0.0044330599015358916,-1.4200162824555482,0.009069924994066505,0.39051968047470115,0.546875
-0.17212781829943727,-0.03606046669314093,0.028102774484047837,0.004786632728858265,0.00536646931593918,-0.010158305889859125,-0.0048791980813876765,-0.6167341863470515,0.0022263709350325497,1.0275654597457762,-0.0187742443371229,-0.34135786681881924,0.015958818742703065,0.11632425827535493,0.5546875
-0.11746734783141133,-0.010624087883209095,0.01733206358904542,0.005158698771094426,-0.005057906025439027,-0.0016763308103713616,-0.004661881425101159,0.17029149026973484,-0.002168970493915339,0.24396625909908254,0.0071742739358053535,-0.40252348485935974,-0.0027466643994296254,0.10437945517404927,0.5625
-0.6314520566030205,-0.047719183356339186,0.09452077859222778,0.027951625648224197,-0.026087941152466397,-0.004447361609131053,-0.0285214724143895,1.2388883047009185,-0.014587063488779027,1.0335926518809055,0.05140071482582547,-2.2414392599075477,-0.017950043717981253,0.5666569624286727,0.5703125
-0.7827550734533861,-0.06764888764514998,0.11831739859534515,0.0334835359275289,-0.026966430862626317,-0.008695224798584008,-0.034572121580738184,1.1754787648831422,-0.01584246795811038,1.5591128917117851,0.051564316797200596,-2.6747247420008584,-0.013904126888093072,0.6870446655076075,0.578125
0.21054753555693337,0.05052286106147996,-0.03640248891624411,-0.004544430280775578,-0.01369533735586077,0.01438365670952151,0.006516202358556745,1.0576284435211722,-0.004196020108576968,-1.483651942520335,0.032413273563924844,0.3250355168384735,-0.02851663627784418,-0.12608014591299638,0.5859375
1.2926657884302708,0.21497894129949824,-0.2092185487190783,-0.041330265540357014,-0.020282637342783696,0.053145186952274576,0.047418070429056,2.426787580575451,-0.0010113749392513453,-5.963189450347217,0.062529112736631,3.166070772379866,-0.07824898626664561,-0.9499532148327435,0.59375
0.9507253241077621,0.20565355984220765,-0.1596973721083764,-0.02416842275650233,-0.04332399395826157,0.05715864528419279,0.029883917381092542,3.7818728969830273,-0.01336178334015374,-5.938817339637963,0.1138801534914986,1.7587659925491959,-0.10291064200705738,-0.6156825507887153,0.6015625
-0.27398356022657017,0.02365778359196707,0.03539950659793813,0.01800586825593492,-0.03830617087490447,0.014863391574905127,-0.01685417026502463,2.4056627622885167,-0.018068338529533802,-1.0037416902866383,0.08569517652213665,-1.5064122521393293,-0.050538257170686766,0.32396830444798996,0.609375
-0.6174350561530151,-0.10575694817283783,0.09946460053682107,0.019664673084168884,0.009270673699355867,-0.026890343292210097,-0.021489429012575473,-1.2657187852445226,0.0014560928927459923,2.937378944148401,-0.034079507432518086,-1.486325988111118,0.03835861970598003,0.4517147817720954,0.6171875
0.040289234407335346,-0.09533636294193587,0.005111383279733336,-0.01431178698183516,0.05801003456675671,-0.03747548083648386,0.013047360537739092,-4.1865011884855985,0.027203049056786728,3.1355475238970554,-0.14356190969765686,1.3094889589468202,0.09289375559881465,-0.2041048678945071,0.625
0.30363955388973274,-0.07631788425395408,-0.03443573693357562,-0.025989676173037997,0.06877408426915771,-0.036043929111115584,0.025269005090969743,-4.733065258540587,0.03355870820295681,2.7297838877429736,-0.16618333789309625,2.2514589152985773,0.10064898756958564,-0.4409173799269735,0.6328125
-0.11565150627679756,-0.10168862983490023,0.02795060684967971,-0.006757411904948717,0.04872803455141963,-0.03643329028556201,0.005276218720449624,-3.655635663990338,0.022119751371011676,3.2140618120873334,-0.1231028318370998,0.6925157557181487,0.08359886548374414,-0.05525668191081232,0.640625
-0.18721185566486565,-0.07301917913746583,0.03465916761956037,0.0008112359289045358,0.025871791592817057,-0.023927835165125734,-0.001698416355122319,-2.0891981429808153,0.011395158256287731,2.221611801098275,-0.06868770720160154,0.03262052185299215,0.04948202889165669,0.06761565596823076,0.6484375
0.23229977637561677,0.011821631808113207,-0.03484992401831714,-0.010712450867132718,0.010909530855350128,-0.000875725722857896,0.011880900383579363,-0.6754742183190531,0.007031969014997666,-0.2013640937211314,-0.026958630385637332,0.8826346148799604,0.010277216584651524,-0.21533129450372737,0.65625
0.188909967617895,0.031585278628108976,-0.03106391122969947,-0.005825608914266837,-0.0043445133271538755,0.0076256368535182854,0.007388597531536783,0.37436449974622826,-9.92297760640814e-05,-0.8825030480300232,0.00946239487806218,0.45429431629703426,-0.012692593207890164,-0.13659075923942082,0.6640625
-0.4111683961803398,-0.015519545352764567,0.059494238810431324,0.02028105045685643,-0.026666306548554917,0.0029654898960211774,-0.020061116499908948,1.463713567669259,-0.013591475057417248,0.16083017894981988,0.05572876636912803,-1.6473513560921025,-0.02689109665768264,0.39669932995506885,0.671875
-0.6076289011768572,-0.005613201975488765,0.08610781185149287,0.03211386095747421,-0.04889610261846121,0.011097547200381851,-0.031782551167974835,2.881805509409958,-0.024743843940223602,-0.32321321242712775,0.10701175332905499,-2.6375660618358823,-0.055502383193605724,0.6150979116521055,0.6796875
-0.1551366899407369,0.07508524216978096,0.012428083010537107,0.01828948885080723,-0.05867686850722891,0.031837739428939596,-0.015966952032006917,3.954037168641841,-0.026582044114402386,-2.5829099560979016,0.13659721869958275,-1.5919925285502443,-0.08755446527153327,0.2912450200062027,0.6875
0.20129654613105363,0.11747398943134263,-0.04307005123817257,0.00465572340929492,-0.05390890918540606,0.04010161234908538,-0.0012224639054650372,3.9114178949395426,-0.022401891693689772,-3.6726474905397426,0.1296955490401438,-0.5160231623212843,-0.09277072917691419,-0.0004139417215599836,0.6953125
0.17617827096191596,0.08500003177622459,-0.035646756816181215,0.001788874524308587,-0.036883670987199954,0.028289295145615508,0.0009252551166332813,2.678983619472497,-0.01486224414045395,-2.6359920316220635,0.08812832406912484,-0.240242262999488,-0.06451814588039817,-0.03087146484810992,0.703125
0.20023388597101668,0.028805712225236264,-0.032372018533711154,-0.006805655129783198,-0.0017790525172846686,0.006346679871064672,0.008305351975547166,0.20069780413943025,0.0011203361686012707,-0.7859865233766647,0.003400084235671446,0.537612936311069,-0.008995738238126999,-0.15301151410721164,0.7109375
0.32051450121528907,-0.03446869047423007,-0.04184521014352213,-0.02147792310162695,0.045534375246081324,-0.020448167895082733,0.02166560073889157,-3.0658547938449248,0.02316337796125071,1.3766700955202673,-0.10965477032504962,1.8273231456634218,0.06267637770037889,-0.38600761193362737,0.71875
0.1520056804031963,-0.09662133396835587,-0.010540064132695953,-0.020480069616324027,0.06809161011315301,-0.040434612093323864,0.019242185294271245,-4.810469676905866,0.032385456538447446,3.2686869474185287,-0.1665060743445621,1.8209599847581792,0.10502194000718394,-0.3209214726732827,0.7265625
-0.18092366231744983,-0.09454618571056125,0.03635630290298414,-0.0023189645127104676,0.039087942629542155,-0.03227861050375068,0.0009648140943802581,-3.023277374483095,0.017395357515222334,2.930133438030123,-0.10059482813526349,0.3176228502891373,0.07046935994149994,0.02397782472983124,0.734375
-0.17272904673778217,-0.010275947250511385,0.025117377557608594,0.008172314830374538,-0.009873097224843547,-0.00032090682025751944,-0.007694426070801744,0.4668648924778152,-0.004658353703629679,0.18751122542352952,0.018115754627385232,-0.6519502571991788,-0.008486862190903522,0.16153017733809488,0.7421875
0.1275591942736098,0.06132780429076453,-0.025957292720829375,0.0013245852180581565,-0.026994801065157982,0.020337659515856164,0.0008517496595048247,1.9342687011519482,-0.010673144565380571,-1.9036648372719425,0.06351439450420243,-0.1730116948152654,-0.04685827541300039,-0.0222978604845351,0.75
0.23214288574802566,0.049061074052129686,-0.03929359008108176,-0.005889837072179151,-0.011038207869341714,0.013344134195299603,0.00784543161154876,0.8859724727235114,-0.0028723052840627233,-1.4186878161010719,0.02623782720815188,0.4380488697487872,-0.02501602301749991,-0.15075093112438248,0.7578125
0.07163167105383496,0.0031936773464676096,-0.01108534025866046,-0.0032173187454988287,0.0025869030016224073,-0.0005914548899085825,0.004095747868983965,-0.21639931787051248,0.0023620685205094426,-0.0536480544966607,-0.008852995965112413,0.2726875472230798,0.002673070977827316,-0.0655858981103525,0.765625
-0.044929041273239045,-0.014708729110724733,0.007557990934215744,0.0007280516898331054,0.0034029660272315563,-0.004839533964137394,-0.000289408911670431,-0.37120082762565837,0.0020638761278190722,0.43604368437098345,-0.012359975033476167,-0.03157973237763828,0.008213119987961443,0.022977659492085186,0.7734375
-0.06833439212536724,-0.020843740219210774,0.011611178452194148,0.0011943537908079146,0.005065539447352147,-0.006668912208631917,-0.0008931589435965168,-0.5093651091286048,0.002681839850522834,0.6179677148936014,-0.01671186458059498,-0.062376338045286646,0.011749401150444549,0.03630917603751861,0.78125
-0.16447459822388427,-0.03681432840906391,0.027135043514388356,0.004282177377395611,0.006458637798852387,-0.010634591900906645,-0.004379300956165818,-0.6887881260987387,0.0027661786282100888,1.0596972152252802,-0.021341525771722852,-0.2982316975189082,0.01745988748939632,0.10702833276591432,0.7890625
-0.2898886760682919,-0.04301498877255597,0.045626075695358335,0.0102042290891534,-0.00035063586536229736,-0.010214196699649946,-0.010511228396898139,-0.3083897400142827,-0.0010209232849035085,1.157547785528862,-0.006459429004272492,-0.7806703833435575,0.011028109256684997,0.22473274495969636,0.796875
-0.2906413733741653,-0.03464743713367087,0.044722730766976325,0.011326978216060496,-0.00535067077488591,-0.006993882680697459,-0.01145929229939925,0.04718808973426774,-0.003284516150050815,0.8829262122504868,0.00565999969806662,-0.8839894956119322,0.0030046645379375567,0.24008866736100265,0.8046875
-0.1795971175514556,-0.026963399781480758,0.02807887314531797,0.006367187489959249,-0.0006215276078612487,-0.006519551037020239,-0.00626938963852235,-0.19685470440747452,-0.0005196280415453683,0.7239911697227798,-0.00436015556491186,-0.4831086786956041,0.0066002249908831525,0.13974475202442785,0.8125
-0.03807410235909137,-0.00531254816001894,0.005457601644139131,0.0015825903221525412,-0.0015647955711819942,-0.001406505525746278,-0.00093190794484791,-0.012385453714692627,-0.00013912550849336133,0.13515642291441454,-0.0002525527787358926,-0.11335692442595466,-8.811129108893433e-06,0.032199605553747596,0.8203125
0.10184443290044312,0.042383719405435144,-0.020051378471171142,0.00025196892951854475,-0.01797442668131421,0.0136759074795958,0.0015051446100653254,1.271199341495632,-0.00674778887324666,-1.305871106965536,0.04132310325713237,-0.06113063158723866,-0.03143141986354882,-0.028755026727296785,0.828125
0.2024122818433104,0.07465278389518669,-0.038154552456114425,-0.0009736265115310914,-0.028585959848081918,0.023761075208563465,0.003471827261655153,2.1098930102165148,-0.010964682145791566,-2.277501558887803,0.06836219164031174,0.000557935468984602,-0.052139079306643264,-0.07603816162537172,0.8359375
0.25864742243459415,0.05748948116076198,-0.044071742835181935,-0.006224021231150068,-0.013790931268879342,0.015983342949042842,0.008372756156919818,1.1043008743036102,-0.0039679284343531775,-1.6727121685260047,0.03326932090844513,0.4549831433112454,-0.030414986326625756,-0.16329033528211484,0.84375
0.33165565369691163,0.027957692148225965,-0.05086561956934863,-0.013968004094595591,0.009688307977022526,0.003103996880580412,0.015520233396380978,-0.505350216580732,0.007044170714148742,-0.6488266912235569,-0.022664282905449768,1.1311704649990317,0.004682042616208442,-0.28907733836735927,0.8515625
0.3761311091984871,0.026594937163686334,-0.05697559584304033,-0.016523982074314533,0.01420440805479502,0.0015840318333918892,0.018079268689795057,-0.7898557881252047,0.009336252167566705,-0.5660984033626452,-0.033040756329216624,1.3446634465701957,0.010349780638155679,-0.33699092885614035,0.859375
0.22397276478102587,0.026027746131021934,-0.035364089381673514,-0.008426072891933575,0.0018505735912457207,0.0047280081800703125,0.009891719026768381,-0.03774993171777934,0.002895556282283435,-0.671496013043567,-0.005106595829899039,0.6761295448473291,-0.003994314114745333,-0.18218908115523827,0.8671875
-0.09724512723823887,-0.007491198376116278,0.014094646739612518,0.004468996765935173,-0.00520565296817382,-0.0009324251247439056,-0.003902726456190933,0.1971255206667801,-0.002117224541274459,0.15776204174701494,0.007801167765089541,-0.34948287830594854,-0.0037277878730341196,0.08882470596111365,0.875
-0.30120768539013165,-0.04338032154067777,0.04724989829822082,0.010762278304407395,-0.0010899781601347042,-0.010088547093889613,-0.011085688750150579,-0.26491363254030653,-0.0014213855824039723,1.1601071540332,-0.004815798928083395,-0.8264815900658747,0.010248583194303629,0.23575818747451668,0.8828125
-0.24179698304900182,-0.039575348846832545,0.038406488395063866,0.008068168222240062,0.0016203022406008822,-0.009951122958853484,-0.008278792655168402,-0.4079303909474451,0.00013905942557779262,1.084411691532352,-0.010592770179682598,-0.6083641729914824,0.012448503536973647,0.18163285715824345,0.890625
-0.10584504817130024,-0.014674779000165157,0.01620204993678473,0.004003231614969393,-0.0017027527246863067,-0.0034742586639550785,-0.003598419006987893,-0.058591198435547436,-0.0005872205711050587,0.38414085132119347,-0.0007734994280884859,-0.30235144030427225,0.0021972624239636166,0.08548267340752934,0.8984375
-0.09587002559573962,-0.015914684756012945,0.01492304004238341,0.0033101289257278376,-0.00013515061182083182,-0.004176644088525101,-0.0029194178969677753,-0.16239294344786365,0.0001777940173393255,0.4335363305640256,-0.004465896316559951,-0.24338407646925014,0.00437403485184557,0.0729893257214724,0.90625
-0.1720889310546352,-0.048466428005505956,0.029578686339276163,0.0031800242577924333,0.012683779321573458,-0.014905555093511493,-0.003530903916319779,-1.1380737694198173,0.005531241460817178,1.4333735436726684,-0.036533084024656104,-0.19304233992263586,0.027744999795685222,0.09461153816868259,0.9140625
-0.18663473066353986,-0.06899239508886358,0.03408709532419905,0.0012942764180883567,0.02356177624938215,-0.02240690849672004,-0.002102756821294059,-1.9238377023392914,0.010359540915169344,2.090540185793821,-0.06306448155757831,-0.012374819399048564,0.04574379483399589,0.07399706781790934,0.921875
-0.06796415631988693,-0.035425435379075415,0.013283530860827154,-0.0007306622756453263,0.013689444616032404,-0.012224901150643905,0.00070214399102781,-1.1225038327161,0.006578762845443121,1.0914224713102696,-0.03757557453704169,0.11391323043245395,0.02556650646683859,0.010568381780570586,0.9296875
0.14368595178907528,0.038972426511327256,-0.025569013572506186,-0.0024486240339195334,-0.012476834253920476,0.011464467440456745,0.0041399228387244864,0.9150636636330467,-0.004028961088188342,-1.162845715395886,0.028581751310624775,0.16546220833544908,-0.02414227285369947,-0.07752233117753303,0.9375
0.2816862462979511,0.08102936211384133,-0.050128979792830326,-0.004397211594913891,-0.025737240472482627,0.02443920312928598,0.007079331977001057,1.9731742032957993,-0.00923057816867105,-2.4204961368978863,0.06249172460291779,0.2759019570558204,-0.05042859949683199,-0.14613219595144453,0.9453125
0.15359029872796284,0.04080629592099043,-0.027177528519837617,-0.0027250102107034793,-0.012732115292693687,0.011924827015723427,0.004477238820903227,0.9415636429822638,-0.004089493891620823,-1.2113339709935411,0.02930182520228712,0.18701886363495138,-0.024887259542621408,-0.08442762570251455,0.953125
-0.16250575283878865,-0.02775846319182119,0.025767571423799453,0.005356329934258715,0.0012826324409466244,-0.007222715727551574,-0.005256997437051679,-0.318261858145537,0.0004390544841681678,0.7665500994004951,-0.00876937054079781,-0.39792336661440025,0.009058581587082977,0.12083524360209352,0.9609375
-0.2711635813425777,-0.03444844712509443,0.04193735342944182,0.010310436210064533,-0.003840567141392046,-0.007356380103072615,-0.010424860310631863,-0.04431060271373049,-0.002489483923085184,0.8940143198770796,0.002238348037406207,-0.7999471719169671,0.004744501178435023,0.2205106456318176,0.96875
0.027478404716604166,0.01095367532568095,-0.005772937485798181,0.00015199581680925807,-0.005665526155621552,0.003350706417098922,0.0008658867853919062,0.33359706317282456,-0.0016119390921748844,-0.3435604189453843,0.010560933460725062,-0.01549046314143616,-0.008986767926881885,-0.007022139970278724,0.9765625
0.37077524241166326,0.030456715618437675,-0.0566919400105211,-0.01574729782856192,0.01148677835659842,0.0031807846129656954,0.017373860179377094,-0.6012393035070058,0.008083138190007642,-0.6977785307402639,-0.026521724920857567,1.2756269358855314,0.006173015465637057,-0.32498242415780104,0.984375
0.3352463211536874,0.028593546472034236,-0.05142459929779308,-0.014068698155554333,0.009613471041793041,0.00325327822526963,0.015646902150456193,-0.4971643466985377,0.00703178595460116,-0.6650938500022868,-0.022452361795543944,1.139429629976852,0.004453420685777768,-0.2916153846449084,0.9921875
0.08253609919264793,0.06992282179386196,-0.020585420780579244,0.004861525092419544,-0.03581874168103049,0.024617050071397143,-0.002522364406571764,2.525381245314232,-0.014916522520305498,-2.2208191700202113,0.08432827602851589,-0.47602199139369156,-0.059424911253477715,0.03896875447619144,1.0
0.012745890102559969,0.1101645795163256,-0.015526041146972848,0.013815240515878638,-0.06533951230917805,0.04151664744900622,-0.010653312303110497,4.567627883792678,-0.028637986029709146,-3.592045420833179,0.15495348773410533,-1.2656303346719688,-0.10435625368533934,0.18000283041913523,1.0078125
0.01793596852019314,0.028703125283436715,-0.0065476366087361204,0.002964710797134784,-0.016914699827690817,0.010335709837640122,-0.001567410861819141,1.126310458182359,-0.006748554785065387,-0.9308778981092896,0.037701684474385495,-0.2698516752060306,-0.02673455429671725,0.033430892526488704,1.015625
-0.2552060382392944,-0.14162640191666542,0.052456237151839516,-0.004447874421563404,0.060625143558706546,-0.04857679243177465,0.002027793227549486,-4.617788443962065,0.02669524294966381,4.402588086068704,-0.15374000458862222,0.5501139483207054,0.10775436889722516,0.018375954104190715,1.0234375
-0.5829653545210561,-0.20649283690915335,0.10661254410372924,0.004756061800593304,0.071480098962922,-0.06606188867004427,-0.008736133844610477,-5.662543446008642,0.029726531762564005,6.251588222110642,-0.18433687023177756,-0.13147933474542944,0.13706692572620174,0.24206497188465972,1.03125
-0.4054650153459809,-0.08879354089540195,0.06744748393667648,0.010493461593269714,0.016959394467681722,-0.025115699800280555,-0.011831345743412568,-1.6358931251110158,0.006129322633820259,2.558573674365759,-0.049937934467876026,-0.7483092619934542,0.043049932829260174,0.26408278912825134,1.0390625
0.1718058502031548,0.05838829053617712,-0.03184032117484617,-0.001426960716716325,-0.02156585628526778,0.01822355057898409,0.003564882321446747,1.5848695926700922,-0.007967844347712291,-1.7700678380384736,0.05094003085619602,0.05844843819469036,-0.0397309958318826,-0.07263913591391642,1.046875
0.4494696959080969,0.0847749993337729,-0.07430197008630575,-0.012926327497404645,-0.013940980927572259,0.02214330836870833,0.015768584998678805,1.2731386132979061,-0.0029424797826816014,-2.404983839568934,0.036106032537272084,0.9766459198913136,-0.03752995998513668,-0.31152069236372865,1.0546875
0.22844669491099368,0.030491475214522917,-0.03653484350951703,-0.008099903630298467,-0.00041467831516642066,0.006349273994125897,0.009649184075048306,0.12726220548742087,0.0019014241750800118,-0.8164653469061427,0.00046350361493737276,0.6430991488295814,-0.007813114968337224,-0.17896263547269164,1.0625
0.025290470073493977,0.00801716113891319,-0.005093142302377452,-0.00010026955155737392,-0.004130544381551702,0.0022804435247860766,0.001062776357350371,0.22300841196094662,-0.000936401118322898,-0.24897800589074445,0.00681254087249742,0.009054575567269105,-0.006434222294564482,-0.009617649547272827,1.0703125
0.13917986736838894,0.03501991237878874,-0.02444886734509448,-0.002709991202899694,-0.010524660688388972,0.01004497701902031,0.004322892029294266,0.7726107730408509,-0.003173823609830415,-1.0347548195301237,0.02377659067199583,0.1924131247517487,-0.020815231606580713,-0.07962680253157384,1.078125
0.25647091071150935,0.058874475272242335,-0.04391304805750493,-0.00591660376940567,-0.014776635497667048,0.01653465935146173,0.008106636641058297,1.1725648181266437,-0.004423070342943783,-1.7165306207047735,0.03560670048860456,0.42873643746208484,-0.03189374925215117,-0.15868143244387387,1.0859375
0.0917125077353614,0.046548684918113,-0.019114580093856092,0.0013267921618083922,-0.021261587238592262,0.015487159537894419,0.0005029252419741128,1.4970422116851065,-0.00828848591088782,-1.451140505813215,0.04918623843927003,-0.1554466757928364,-0.03638195155010589,-0.01128354006852347,1.09375
-0.18998326182279995,-0.0011925284108909179,0.026479429779465522,0.010260001605373657,-0.0166563582811702,0.0035322506710196225,-0.009616013254706453,0.9351893504512139,-0.007815894684006145,-0.12608055110983715,0.034366592333377036,-0.8364216446766243,-0.018810659908034898,0.19478433837717402,1.1015625
-0.32192507995440767,-0.05843349510004285,0.05199819511582435,0.009927305586429461,0.006039629828657156,-0.015369145294075215,-0.010585578815262623,-0.7894664148203738,0.0016759808133828581,1.6336659405112208,-0.022355673920232588,-0.7393464571762501,0.022447527920797367,0.2310091569686641,1.109375
-0.29767136576210995,-0.08317640145287059,0.051506908622743645,0.00542471628510579,0.02263950584945826,-0.025349426276159708,-0.006593939417804065,-1.950498821507671,0.009307450906315098,2.462566882422662,-0.06228328215374399,-0.33659957353961184,0.048273201201434246,0.16336238362060904,1.1171875
-0.2715857526408384,-0.0647675470171315,0.04560145748416067,0.006412905687325547,0.013983321459204886,-0.018914301283870037,-0.007165743740524386,-1.3129819606361688,0.0055502740036753335,1.8842495947498779,-0.040980675976952215,-0.44041691326878246,0.03342694004902444,0.1684382508754693,1.125
-0.30252500737081073,-0.039889240234974054,0.04700733755607724,0.011292685126776449,-0.0032505172851131484,-0.008734741093839402,-0.01153166706526357,-0.1126021639649953,-0.0024037915301736924,1.046141106699649,0.000381528933774953,-0.874329195574128,0.006836735143896433,0.24314247580993958,1.1328125
-0.2652875252035382,-0.026803961738504023,0.04018020980447737,0.010982169492609224,-0.007862765416439004,-0.004554628941684749,-0.01092911242844085,0.24660007820774232,-0.004274013855092922,0.6480671418202253,0.012058825904977297,-0.864913170369874,-0.001934417877236523,0.22768098744988982,1.140625
-0.0479616696039679,-0.001991765492407232,0.006463101702371426,0.002531101948776235,-0.004352966364693239,9.623086920101744e-05,-0.001828441073661822,0.17791883484235535,-0.0014536400105826612,0.016464176209980187,0.00639875000295031,-0.19635528256702117,-0.004150042083793085,0.048067422054211266,1.1484375
0.20950424468306558,0.03342671739708501,-0.0342064515512206,-0.006694101867544596,-0.0037256907152846664,0.007885647643097876,0.00830537315232146,0.34751362348762466,0.0002952106550453734,-0.926698107800085,0.008233237921781747,0.52359831363341,-0.012441204744163992,-0.154395541830001,1.15625
0.32361857486447004,0.050685401969072584,-0.052424303056075684,-0.010580111225689826,-0.004357896032390886,0.011926011580111048,0.012630551966198788,0.4870465394074126,0.000660699811184292,-1.3950096725011205,0.011241726528809122,0.824085618739436,-0.017576231192545016,-0.24154291509793674,1.1640625
0.4589462104156302,0.07009535384635597,-0.07390451714904867,-0.015333189915519,-0.004497457440237814,0.016331833237622672,0.017872672844784127,0.6092875931208919,0.001368363484886612,-1.9173868572114814,0.013344820781816443,1.1934054327429315,-0.02269567735890646,-0.3466953106458051,1.171875
0.8215740305498205,0.12735369570414934,-0.13207026505493422,-0.027386903112155487,-0.007971593105865536,0.030144131462284493,0.031347687627672885,1.1584326026957799,0.0018630585639121402,-3.4890954640537823,0.02651596318278117,2.1201976903022888,-0.04140331401467868,-0.6191226964278558,1.1796875
1.0349134176380577,0.16166671178715852,-0.16635800825894642,-0.03439721908442668,-0.010381824248006856,0.03850733337568686,0.039206771218657455,1.507748858512947,0.001988588688562209,-4.434404829911453,0.035161127555084014,2.6578925985071944,-0.053004521790839254,-0.7782862215339578,1.1875
0.5641126591662479,0.07888453279860586,-0.08982969873128632,-0.01984802155697556,-0.0009015403318884403,0.017362529190594878,0.022624019617034443,0.441337683496561,0.00358874923400341,-2.1194184671197935,0.006033424771545476,1.5555839707465913,-0.02074162723202407,-0.43921957955290536,1.1953125
-0.29665048335942057,-0.07593974209020939,0.050495383051700475,0.006306280759150728,0.018468466643062446,-0.02261932444887573,-0.0073188968226156345,-1.6533743262433525,0.007433495121023164,2.227201799869392,-0.052172891822238665,-0.41830697291855395,0.041535240055382595,0.1747268563197839,1.203125
-0.761172905778436,-0.1644336008204335,0.1268227175126509,0.01978343972812484,0.0318279479876992,-0.04608034419547922,-0.02294600770130125,-2.99024797869036,0.01081956283936541,4.7346909765785465,-0.09062374359577542,-1.4245681214933272,0.07981630595961106,0.4975832030570212,1.2109375
-0.7781052262598602,-0.16031720502332164,0.12874634947245817,0.021224658778662087,0.02799432920132356,-0.04413523855635811,-0.024311919365632276,-2.7309422820153566,0.008992588182776432,4.586550384263849,-0.08153288892542757,-1.5486386500435945,0.07425023468393517,0.5221187891727286,1.21875
-0.8845921325943795,-0.143249466836061,0.1417900263002488,0.029145563158869472,0.009067876469519025,-0.035264538013645916,-0.03193140171112783,-1.472487850766403,-0.0001558134180316089,3.9412106699216287,-0.03703405687851793,-2.2246189248861223,0.04765444671972952,0.6607053023691025,1.2265625
-1.0113870450048048,-0.11890990005357288,0.1568154856285114,0.0391017694915623,-0.0158430261519078,-0.02316951685706139,-0.0414347675845288,0.19427226774657952,-0.012121023873431135,3.0419603374258917,0.021671213653983504,-3.077719634743553,0.012199262110128542,0.8326369247570852,1.234375
-0.6237806001209253,-0.03121105982251035,0.09144685038764373,0.029658922873610775,-0.03516558038083127,0.001693564329738763,-0.02989107430017901,1.8910704224086834,-0.018636878995720266,0.49817974333297593,0.0735295235555048,-2.4036735258535358,-0.03284879479201728,0.5872614174227025,1.2421875
0.10265671647266102,0.07805274757792352,-0.024452335590809973,0.004821707019830101,-0.03892235848809586,0.02727501203723869,-0.0023064090620067575,2.7623755473228773,-0.016198772955476604,-2.470879085852967,0.0921007986103893,-0.4829380796475599,-0.06513414002324826,0.03212536559814617,1.25
0.4400921061810312,0.10721131908286463,-0.0757024720471627,-0.009514044775968337,-0.02794781451844491,0.030923109000391368,0.012839612372744693,2.2622057321451705,-0.009325581814815633,-3.1453963788732198,0.0699138133678452,0.6668884108000455,-0.05969595029704321,-0.26308954909072324,1.2578125
0.3052856803142269,0.06523409534439681,-0.051591624560194414,-0.007714434586896831,-0.014470636732088902,0.017899760862745757,0.010064908916278138,1.1913578566787362,-0.004011169024780826,-1.886060605302833,0.03550493290433534,0.5691970080063705,-0.03316886400165042,-0.19757543180095039,1.265625
0.24089249650887268,0.043610157239734194,-0.03987113800151165,-0.0070547259615683314,-0.0071047229866037205,0.011074612549257753,0.008908797208895328,0.6140543367028968,-0.0010547765910542684,-1.232670378305212,0.01682469171803346,0.5411252162014527,-0.019006301449810553,-0.16894035346912714,1.2734375
0.40475419541553104,0.055350179508816544,-0.06445249749849088,-0.0143263252819062,-0.00034496421896822014,0.011916393816050943,0.016524982800833313,0.2696570517527119,0.002928327392528123,-1.4806510304239808,0.002590562222189305,1.1282324962544803,-0.014066290029809924,-0.31642635700583155,1.28125
0.5144282034378331,0.04590983281283412,-0.07884426112937569,-0.021439176147951048,0.014368841801006983,0.005883526285780134,0.023492383996559493,-0.6861747638553244,0.010195691010425816,-1.0824412585270093,-0.03162960943423615,1.727821361888074,0.0056152462420474055,-0.44515354555028874,1.2890625
0.5680921441176213,0.02288897847859312,-0.08369054414203402,-0.027312129473475198,0.03240764569974794,-0.004084617267198759,0.028889670834837174,-1.9256023919410967,0.01864721224665984,-0.28774454542422034,-0.07463741144329428,2.2411919108334115,0.03265724474743766,-0.5401287129550227,1.296875
0.7829079189056123,0.04102428754105634,-0.11627097972326456,-0.036507457643600416,0.03965088208864106,-0.0019232790291574208,0.03857710013469034,-2.2628340570740724,0.023143296947882863,-0.7045653493181788,-0.08937439838876782,2.9789571842041838,0.036514917543676244,-0.7290112828073052,1.3046875
0.958012138595228,0.08203866677531478,-0.1459738807556277,-0.04060252660477065,0.030104383437838344,0.00984678147212948,0.043640092742943164,-1.4379577891283766,0.0198320835458174,-1.90083587573658,-0.06394418311503541,3.2671485255047386,0.014830916538678482,-0.8375024579981637,1.3125
0.6151150534273016,0.06419580768906243,-0.0953201585216896,-0.02450386590010402,0.012003921143771072,0.010643605931478199,0.026977425133541323,-0.43479732774510427,0.009707135282508784,-1.600413718771463,-0.024562937916856535,1.9577089686793108,-0.0018533223227790501,-0.5169990237464787,1.3203125
-0.21290339742992645,-0.026818937063606958,0.032762529735396693,0.00816815538927361,-0.003473590106324753,-0.005729266951986848,-0.008083594856453415,-0.02176917254994035,-0.001996329147215428,0.6918218681839818,0.0021105805854644143,-0.6323488038192991,0.0032320925005347506,0.1739419498456415,1.328125
-0.8777803160801839,-0.10505241319511541,0.1362364626278078,0.03373836526254814,-0.012864098623553347,-0.020852200800302444,-0.03568259790338407,0.09339765241008954,-0.01001944417230579,2.701786848357388,0.016159506626658014,-2.650492010391177,0.012200360546629678,0.7197929642232662,1.3359375
-0.9842616717139284,-0.10973920688047774,0.1518749624142413,0.038851230717016086,-0.018984699789137235,-0.02029227203351257,-0.04095315022481926,0.44001946845527595,-0.01338401567966135,2.7683342994127105,0.029588986284136445,-3.067112858692048,0.006220174680408883,0.8207634849486669,1.34375
-0.9480463530900491,-0.09416549405019108,0.14488736272406164,0.03892154270889445,-0.025141440229945224,-0.01514962783156611,-0.040675329087566686,0.9081109817906292,-0.015955289820949046,2.288469899568527,0.04498775314476514,-3.0921130147721727,-0.0049939237182886195,0.8106358805088775,1.3515625
-1.2492492018890367,-0.12652232446494496,0.1913914463391168,0.05089847124301902,-0.031226301344928764,-0.020801218144448706,-0.053512392917250594,1.090876710171933,-0.02042097096901645,3.095616253791592,0.055811432837338026,-4.043404277887846,-0.003896200562852412,1.0633479383992477,1.359375
-1.4779850367785963,-0.15619425294100545,0.22731359226538192,0.05933803076244236,-0.03283999736986876,-0.02704224923884497,-0.06270752514700861,1.0158009005775714,-0.022456506060646517,3.876534906725978,0.056734484018450534,-4.705108540662703,0.0017815891243266148,1.246449828849104,1.3671875
-0.8455929437852777,-0.08033224988219156,0.12872139687639877,0.03521961121108201,-0.0247506789585987,-0.012126739926360859,-0.03661055772752434,0.9661407997316713,-0.015204968744310337,1.921426996899403,0.04538099364153563,-2.803014200776623,-0.008071237320957056,0.729764255261912,1.375
0.49165203967193244,0.07921680347313996,-0.07963882330333084,-0.015903511987628332,-0.00713864524259419,0.019087515115588694,0.018662519873203647,0.8248753861723899,0.00036025058305382023,-2.1874268408851023,0.02016990515597165,1.2297536070889428,-0.028120342598320323,-0.3643912574706081,1.3828125
1.4521367376952197,0.1835919537634964,-0.22805448962944846,-0.05395351898255253,0.011523963090064593,0.03761777169579026,0.059463890511036545,0.29559887750943437,0.014252722974595209,-4.806936853729907,-0.012486058465060516,4.2482568386524475,-0.03288104953658411,-1.1679585378022925,1.390625
1.4342247587391628,0.1652765077697023,-0.22330921338313378,-0.055372098056776384,0.02080392294611286,0.031041838830520217,0.06046703452817395,-0.3796471382744496,0.01833887460212544,-4.225820555312738,-0.03518564072004108,4.387258012726345,-0.017337387647516054,-1.1812278664777427,1.3984375
0.9263846100208786,0.0956281852543126,-0.14310077398634205,-0.03713310731436882,0.019443469941202433,0.015738243404013925,0.04045342444536715,-0.7052241622542851,0.014834643288253405,-2.3700252208896293,-0.03852458221866359,2.9638676295388624,-0.0011499343621733406,-0.7812874755323476,1.40625
0.588884004952954,0.05175217830223529,-0.09010811087142637,-0.02469497100718013,0.017132394244306102,0.006476972962923679,0.026896989990968238,-0.8214721398240122,0.011871435293425991,-1.214125121676476,-0.03735111549559559,1.9891417302534562,0.007360671618318981,-0.5114100972681742,1.4140625
0.43588672189275063,0.02475051545961917,-0.06524868958815906,-0.019976941930787053,0.02028525886650038,-0.00044040045393886493,0.02152381625389733,-1.1730654326969459,0.012423244893261444,-0.4577544572279177,-0.04700076839780374,1.6321391850873488,0.01796440619539073,-0.4015228341808277,1.421875
0.2047215973455992,-0.0108583190793178,-0.028271593206267383,-0.012182571690050095,0.02197378939798062,-0.00889893015953251,0.01283822306355732,-1.485570505012894,0.011869028700858588,0.5142237170607412,-0.054108912300090156,1.03100621481053,0.029029613514787538,-0.22638877887965256,1.4296875
-0.034505931161630386,-0.03374770477887274,0.008352783488807023,-0.002308986484758372,0.015483629564409063,-0.012321150731863148,0.002335862756335905,-1.2228247154064635,0.007578883722353652,1.064165922041497,-0.04149800467605223,0.2424450037096835,0.027247487613220846,-0.020817753438266844,1.4375
-0.10713765328960746,-0.029139259480402344,0.01811002324343161,0.0021882624331310135,0.0067030201165354285,-0.008956212611724622,-0.0021046174600235336,-0.6583686298638171,0.0032032277622825412,0.854350688489526,-0.02116454382621824,-0.1348775798918384,0.015764955967911616,0.061665715488806394,1.4453125
-0.21810851197912062,-0.03225294435552259,0.03418832707103079,0.0077494843230286855,-0.000711466667825426,-0.007699177802835965,-0.0077850755638896344,-0.2229077894188165,-0.0007758503532868184,0.8661339634288938,-0.004654151627671161,-0.5905966920370616,0.007863720093687875,0.16993796095368757,1.453125
-0.5736069814092514,-0.06086067425570845,0.08790212654036422,0.023136298201656608,-0.013509831501116799,-0.010744578365618988,-0.023966906395585463,0.3922026955536611,-0.008577870992300876,1.5092933453142177,0.02169841606526919,-1.8276585060403696,0.00015462122275587497,0.4845933554091847,1.4609375
-0.7231876202682204,-0.059797842201880905,0.1089364125621899,0.031306529151171915,-0.026616248848720943,-0.007022866537122868,-0.03219145282558006,1.2004845233861337,-0.015346133247615414,1.3521353896167232,0.051498153555694065,-2.5043875905225343,-0.015497610236462933,0.6397169469697668,1.46875
-0.23978930285105418,0.007306828498014179,0.03251070609068389,0.014044086564718287,-0.025816018418562122,0.007868376842633008,-0.013233352115212307,1.5457324532107706,-0.012233658132327128,-0.44190236988554377,0.05589106211647158,-1.159045686068411,-0.03170207306430315,0.26062759987359535,1.4765625
0.11879465133448319,0.05586786527395017,-0.024034998587573502,0.0010805737168587363,-0.02450236886148168,0.01844853813972201,0.0009614588387711946,1.7505368213532335,-0.009600151239066964,-1.7331917929764662,0.057407204748314886,-0.14657447012627708,-0.0425723613411955,-0.022747901509617738,1.484375
-0.6216346970496507,-0.011474344138363127,0.08880060762648394,0.03211115957455735,-0.04661348862074486,0.009169967987232477,-0.0319083041880026,2.707936396925174,-0.023796136537685846,-0.14289439267970938,0.10129755433674263,-2.6300425303507353,-0.05132895822830662,0.6193199253508899,1.4921875
-1.6240657898842545,-0.12300134581720228,0.24399257438005095,0.07148743149475373,-0.064563825992999,-0.01115548042521382,-0.07420959248927957,3.1513708714060016,-0.03760482817830771,2.6749619649274483,0.1316685104585844,-5.749513498511714,-0.043904986578298756,1.4534629518826314,1.5
-1.158192288970666,-0.11884228272238719,0.1775529942295735,0.0470154288417694,-0.028149894060917183,-0.019890662501877737,-0.049398213712774613,0.9476821116434232,-0.018515360842752952,2.9217206593603477,0.049512405679691646,-3.73121846917204,-0.002213555637090545,0.9834115678555977,1.5078125
0.46590115606444565,-0.002519508091520451,-0.06621184458462767,-0.02511731013886149,0.03883800481430923,-0.011507934219807161,0.02609362455161919,-2.468349277739223,0.020968200922652405,0.45738925440576594,-0.09156956386283617,2.090607801703308,0.04670620209257938,-0.47937626635338865,1.515625
1.3082781125226668,0.07296722957776933,-0.1944586136300937,-0.06057513639080271,0.06466212017006015,-0.0013757674228582174,0.06361238819187762,-3.605487666647072,0.037420777393498056,-1.3163833071298938,-0.1431149285585919,4.929794831747913,0.057722613081486684,-1.2119920886990456,1.5234375
1.0949996158399522,0.06496169856621634,-0.16331949020457973,-0.05016984255939256,0.05158716318261384,0.0003054778906501493,0.05291428287190853,-2.8524751273117976,0.030305152884440273,-1.2317329838143198,-0.11420276750870813,4.078846592464049,0.04440305949760418,-1.0073861089668614,1.53125
1.2574623060322654,0.073441270504776,-0.18733031420160975,-0.057794668176021066,0.060148903676475546,-5.583335940277381e-05,0.06080845305184054,-3.3263849198723348,0.035095005765094556,-1.3759466867486991,-0.13281890116662473,4.698741634853255,0.052288331445544026,-1.1590736323489892,1.5390625
1.7411902827734622,0.11248516358471541,-0.2604570692153908,-0.07869885759159362,0.07750945256539944,0.004109738115340998,0.08281769293094396,-4.159237803428785,0.04568468604726413,-2.252005640264386,-0.1685742427586465,6.379818095842522,0.06271166149437457,-1.5870113168147701,1.546875
0.9790746496451912,0.08222516167025815,-0.14896165122948848,-0.04168809534472785,0.031746139776393394,0.00943808254155498,0.044761166348996254,-1.5366208650731241,0.020687482345431118,-1.8869115446792077,-0.06766536337980401,3.357476705671691,0.016736039199960875,-0.8585190958859139,1.5546875
-0.8607152074169883,-0.0178633945992647,0.12340792328731152,0.044129357280109305,-0.06279797034615071,0.012017011137486742,-0.04418302053088437,3.660773369100066,-0.032463134758655254,-0.12807518467143972,0.13737060285744349,-3.6152381447838335,-0.06867809613090696,0.8532210918708001,1.5625
-1.7499426862468817,-0.07025552859358358,0.25552753568109027,0.08507834631102049,-0.10612663814997328,0.011741152856932868,-0.08673690536004368,6.004321562092495,-0.05708151606424816,0.8514248477059014,0.23074649690443788,-6.937160072554228,-0.10616040965787435,1.6736237493054764,1.5703125
-1.0871207020258393,-0.04340666874190823,0.15849773918653845,0.052961654428193096,-0.06664198339221097,0.0073077466312132635,-0.05369728483495305,3.7459049930505293,-0.03548275379311254,0.5170665201182018,0.14374413544301193,-4.315077568501584,-0.06667121073163935,1.0410649028666104,1.578125
-0.3246345217403695,-0.01926083632049873,0.047686422329386975,0.015153961661746717,-0.01725444659867785,-0.0003717398165261012,-0.014962942446311234,0.8657935161329808,-0.008850170329109551,0.35407189126158695,0.03403559684850016,-1.2188125450837761,-0.014868136765467471,0.30172541846131773,1.5859375
-0.27446578250079096,-0.026867572115536,0.04148951425931772,0.011483233419860283,-0.00859180928814283,-0.00438986205632,-0.011420295762762673,0.2910297342018231,-0.0046576710197973265,0.6443989816853414,0.013685098656871819,-0.9057825851746251,-0.002755808929413061,0.23712614248861516,1.59375
-0.22272621461566372,-0.018417553916710072,0.03314841922934083,0.009799837389428887,-0.009248520599367987,-0.002318951902094194,-0.00952572348516556,0.3804399639178308,-0.004659296250124989,0.4113775155105548,0.015940922998814226,-0.7767585340427667,-0.005678184277386966,0.19856900598586416,1.6015625
0.24573672695429036,0.01128592382406401,-0.036705959064604304,-0.011515413088494221,0.012347527193973386,-0.0013672849506717114,0.012666443535108842,-0.7669097860053671,0.007759942263132477,-0.17478437343649672,-0.030254495811677943,0.9490465610679945,0.012082600859025246,-0.23013452130542403,1.609375
0.5504297427281657,0.018995114715719474,-0.08073543366569187,-0.02688467249388567,0.03323185115281443,-0.005172536452182021,0.02835219854120703,-1.9992688613353602,0.018923053929895448,-0.1772163594328439,-0.07684896383085131,2.2099875395089277,0.03461001656955912,-0.5289347806471637,1.6171875
0.3755122441883981,-0.00022401917524251432,-0.053668324578206236,-0.01997959889845011,0.02995780427948931,-0.008626611107354942,0.020943653344502287,-1.9112742492777295,0.016445832759632663,0.3073549743295179,-0.07119095400870955,1.6625276330540135,0.03566807681874967,-0.38285713873176086,1.625
0.18755577347983685,-0.015034881322333566,-0.025310481405963856,-0.01179845970069054,0.02299770625149828,-0.01011568924715441,0.012356434920562022,-1.5723537731397539,0.012230668154590132,0.6377837305480248,-0.056805122456706665,1.0044485540680061,0.03130118168599963,-0.21590249035503456,1.6328125
0.28203601744492546,-0.013560348667888656,-0.03888280226899257,-0.016678354930733632,0.030012178403000318,-0.011651932225101936,0.017323456970807897,-1.9933311307527015,0.015935951977504508,0.667092474253539,-0.07259103517123434,1.406247128523464,0.0391776881007259,-0.31027231131227034,1.640625
0.21451243505340353,-0.0072260389161351475,-0.03007593141260397,-0.012235113321222691,0.02065013343010585,-0.007742352484071183,0.012974299872249817,-1.383344728760721,0.01132888826235564,0.4042028956626568,-0.050779431916347914,1.0311863560322139,0.026559642067265517,-0.2301675222032651,1.6484375
-0.438409858337414,-0.013451671442407512,0.06311360957598326,0.02201644557374799,-0.030160184686950687,0.0043526847264626824,-0.02176392711381511,1.6897236009431924,-0.015322766341084081,0.07196515343314142,0.06383137170243834,-1.792889958734278,-0.03151642787508717,0.42821057891611775,1.65625
-1.187616135889449,-0.04434874278325644,0.17286176819430588,0.05824583146255671,-0.07448117547065214,0.009177167349410905,-0.05905328831841038,4.2208801992748874,-0.03959708103171022,0.46635047868869584,0.16143980473536332,-4.75037761716842,-0.07565964111601618,1.1425917628588362,1.6640625
-1.060804826394703,-0.07340384425643044,0.15836596278437196,0.047674826670794895,-0.046797824221401586,-0.004705916296915081,-0.04903464781500239,2.356340352427357,-0.026383235381949224,1.517930253732509,0.09600370601331419,-3.8411271278471237,-0.03574387955084059,0.9623659903715684,1.671875
0.04837535885245551,-0.040295306739973065,-0.0026062904070493,-0.007594333552886105,0.026246608126078184,-0.016654530904038733,0.007536037639023596,-1.9193702166281204,0.012901759960008172,1.3458480669499664,-0.06650245999494844,0.6876181322763388,0.04154104580975393,-0.11702783217937175,1.6796875
1.0903287873938707,0.059101996899185535,-0.16196274147129558,-0.050666762829416026,0.054647730127037907,-0.0018373903790582253,0.05329544785092713,-3.0741664587786213,0.031657425548837485,-1.0434915310026485,-0.12169929022621648,4.127404804229333,0.04950386276090593,-1.0127340946164824,1.6875
1.2123648185184615,0.13368273402578087,-0.18813497802507145,-0.04755995195095059,0.020907394182243123,0.02390221866775571,0.051852277465832555,-0.5718988422534077,0.017127931595902778,-3.3764867373003034,-0.03834248927412163,3.7797509591743816,-0.009128164092316662,-1.008606057613507,1.6953125
0.7209180338421876,0.11111587854570286,-0.11587627453469815,-0.024098954114945316,-0.006808915134086921,0.02618995230303592,0.02764211086271227,0.9916057873532798,0.0018218289166862123,-3.042990088670511,0.022392295832400582,1.867604218899133,-0.035889568143994695,-0.5439947147188346,1.703125
0.30836518100621574,0.04052448516100633,-0.04906489203270551,-0.011092642651169899,0.00034636108162758897,0.008408383803508938,0.012902713427719103,0.13929647855785682,0.002701274714344708,-1.077862110617494,-0.000349334390133494,0.8783059507173088,-0.00946368564988778,-0.2434948476545277,1.7109375
0.10322399374979498,0.013540893527831999,-0.016823046640654985,-0.003567822841513766,-0.0008671724402048007,0.0026514429100063536,0.004699177258528268,0.055037652972677625,0.0009831321162457251,-0.364486961832316,-0.00010535527243013829,0.28928337134559057,-0.003988546910263608,-0.08010883118220806,1.71875
-0.05173242037885159,0.029920346935936742,0.003159907655287008,0.006879147551670744,-0.023434472859039632,0.012320174118494303,-0.005472513117913529,1.5321494384151872,-0.010086727732583829,-1.0246735230260116,0.05255218276799529,-0.5941948008593224,-0.034652719392143344,0.1069997382049042,1.7265625
-0.15655071365316864,0.015840215225811305,0.019710711267977556,0.010678687915668963,-0.023890482733412228,0.009272344535157052,-0.009639219773613974,1.4775862734075835,-0.010889667514842289,-0.6515319798946596,0.05230882286808836,-0.8914096163411255,-0.03161014254859115,0.19007037013086844,1.734375
-0.33662584075490004,-0.05675355173145491,0.05389284698675697,0.01093383696636203,0.00383231556304826,-0.014417254914190108,-0.011564109914754478,-0.6447856178380662,0.0005986103134684889,1.5680776693710368,-0.01720106945233641,-0.824428039921175,0.019438036411604152,0.2489171260580183,1.7421875
-0.804475651904205,-0.13384537920244174,0.12930845591050563,0.026065852181875047,0.010201359471732011,-0.033450196447972265,-0.02860278997323168,-1.4868807625795362,0.0008096232343977248,3.699672093058146,-0.03875489888772237,-1.981429689370271,0.04659379929660721,0.5948279638374597,1.75
-1.238207376023364,-0.14991763755349063,0.1925945093474393,0.047281783655224285,-0.01651645733695572,-0.029971997726598233,-0.05038197940889925,0.05397784114287782,-0.013721241646498992,3.8696874647995236,0.02029781268580729,-3.715346043479622,0.019355254684112377,1.0114865318283717,1.7578125
-0.9971118278981981,-0.09400905657775276,0.15179101970153375,0.041589260060149645,-0.029330996696212412,-0.013991353727428267,-0.0433485748797729,1.1664713401956497,-0.018135150088458132,2.2439373879696154,0.05449228955942523,-3.31249001436901,-0.00995036506858233,0.8613164003834458,1.765625
-0.15090012398047803,-0.01120335688400705,0.02214522004537679,0.006880973969073742,-0.007505832567829478,-0.0011557750115003037,-0.006412132947130641,0.316733696682596,-0.0034661078864922394,0.2351824821786444,0.01267291608370956,-0.543995426616882,-0.0054832944774920464,0.13756953444479425,1.7734375
0.5170534460686791,0.04388656590835476,-0.07896886718182826,-0.021854866055895945,0.015774116070638777,0.005060486725755384,0.023852319871256977,-0.7848383738576454,0.010847220167022602,-1.0162488267335452,-0.03499451849398796,1.7642112502317198,0.0077593192525803305,-0.45159063782264813,1.78125
0.6732455315504994,0.06062334869423519,-0.10308359081685066,-0.02808043924365138,0.0189504230916214,0.007988631165824139,0.030511108256397582,-0.8808526160815309,0.013171771904736883,-1.4354774656994054,-0.040633030629633825,2.258122775196757,0.007198962788204456,-0.5826872565445519,1.7890625
0.7307937201157281,0.06924908127982929,-0.11227183751757902,-0.030052594781917418,0.018672096649533957,0.0100076070291984,0.03269844612584648,-0.8127199000654528,0.013373403828408452,-1.6696802655302816,-0.039199721570592656,2.4105623723180463,0.004669152337205767,-0.6266118224549141,1.796875
0.8634763720332312,0.07849062244579877,-0.132166453276212,-0.03597365604675561,0.024297436523675383,0.010590687932777464,0.03889649138124302,-1.1026748903280588,0.016668263183123085,-1.8611809910672175,-0.05111513524188507,2.889108603620068,0.008936068302333252,-0.7464742878023315,1.8046875
0.6827494759314621,0.06092933709580392,-0.10449615335664653,-0.02854239354993196,0.019564959558364865,0.007889231298886438,0.030998907634559418,-0.9167769057006543,0.013505050282676023,-1.4352314638727013,-0.042036889061199366,2.296419817796843,0.007893398223494648,-0.59176721545129,1.8125
0.11178806538138449,0.01798743130108215,-0.0185503815750202,-0.003453996150673478,-0.002771990207747067,0.004155637077756944,0.004681609576335372,0.19751295842627023,0.00017312321510344177,-0.5024814243214792,0.004625473386875474,0.27445619653608316,-0.007360878053182325,-0.08123333911329862,1.8203125
-0.3150656882338169,-0.007029876570094377,0.04486830190458999,0.016217321089993766,-0.023645554894343467,0.004072155325321805,-0.015763180718785703,1.3281550445806267,-0.011679133254690053,-0.037176964769552616,0.04965168132911793,-1.3216880368833905,-0.025497487627888615,0.3127857540573882,1.828125
-0.31343276853300767,-0.005265767597888986,0.04443857231554235,0.016358595253055046,-0.024550387411190505,0.004710739327365925,-0.015868908528685343,1.394424426632307,-0.012078517278487995,-0.09343940375419613,0.05188123242389443,-1.3355192482879221,-0.027020272291554334,0.3142926527399451,1.8359375
-0.23678601100144012,-0.012640223484407565,0.03446963402973179,0.011296675426800183,-0.01381850190977891,0.00019731648984064857,-0.01091648581680682,0.6946878027832261,-0.006799270724306054,0.21116191712548207,0.026863540524057514,-0.9077171891709809,-0.012526751758581353,0.22313489854216664,1.84375
-0.3485256343880779,-0.02807138433153431,0.05211565842717442,0.015307269273930562,-0.014058784547925567,-0.0032166096829623803,-0.01530561443680025,0.6185648042744541,-0.00754699018599035,0.6238801086525879,0.02595738021011773,-1.2202304682912684,-0.008853370608118756,0.31091729387901473,1.8515625
-0.41502903144276176,-0.0164221193377379,0.06012455428177347,0.020388978098465873,-0.026471357955257863,0.002700184298763576,-0.020168354448672838,1.4460179261778032,-0.013529764841095361,0.1888256323478242,0.055151123630494084,-1.6545748310951913,-0.026394707440953544,0.3991045397466749,1.859375
-0.2582462182647578,0.004385049313710236,0.03544767629493443,0.014656925775546089,-0.02564303115337582,0.0071673545358882955,-0.013915575072335134,1.517261274709783,-0.012260221912792319,-0.36255340061806857,0.05520406542716916,-1.206261798294455,-0.030742233786008384,0.27437794016410355,1.8671875
-0.09165184897326319,-0.01539025732267261,0.01424327227748885,0.003138736249586318,-9.12582594406756e-05,-0.004060714311686065,-0.0027475768889650264,-0.16200969112127522,0.00022474113530066556,0.4188072346272315,-0.004506881278815163,-0.23016765788998694,0.004283973664130687,0.06946766716955122,1.875
-0.08344756560474151,-0.060061138075941205,0.018431907298090286,-0.0030898236398807385,0.026904954018887105,-0.021277503992712218,0.002522647418160899,-2.0755959592012885,0.01245485883807317,1.883396312605245,-0.06979765689445336,0.33910462506341105,0.047362182436221714,-0.016167158666478148,1.8828125
-0.0684411033187799,-0.07571280155086148,0.01817720033503933,-0.005916772055257187,0.03737326029415652,-0.02758038077574606,0.005029436637588317,-2.80802184350458,0.01726208183765938,2.4067928520423454,-0.09497667389828959,0.5919733115989002,0.06364876006166814,-0.058601154145492954,1.890625
0.1386744820852683,-0.056632379910329766,-0.013428240712235891,-0.014565830138803,0.04341652965283713,-0.024894578061958807,0.01420196336557791,-3.0664023849748356,0.021170711065992373,1.953812511057167,-0.10693052243556087,1.2838064747645836,0.06588689579552555,-0.23789289036581485,1.8984375
0.44361156641545346,-0.01350890152476558,-0.06174311679889101,-0.025358685891176378,0.043464941624887246,-0.015204874864187583,0.026076956726315135,-2.8165105168757307,0.022932580298936567,0.7961460841907059,-0.10305688413517904,2.123477081020394,0.054933224446617135,-0.47580843167036,1.90625
0.5747932045634737,0.06754190097236719,-0.08998035886107715,-0.02189807718777232,0.00667371669592835,0.012802871660593126,0.02442683881703032,-0.08885664511848632,0.007071417784102494,-1.7408586477565995,-0.012170749397925678,1.738791402348935,-0.00896577010430813,-0.4698525082586999,1.9140625
0.3651003558641698,0.1482649027453778,-0.06993312507580815,-0.00016411751421356363,-0.05837369921988167,0.04823800455484994,0.0043298484947748225,4.366041044254453,-0.023488994172539784,-4.545535870451333,0.14270783676924145,-0.15585606599570492,-0.10593163947180921,-0.11504658389599066,1.921875
-0.05727485310855265,0.13014832500629353,-0.00799082485956763,0.020178176322253542,-0.08295172044321393,0.05068285456051526,-0.016613590957106194,5.763580468379304,-0.036989795208113144,-4.299383797244209,0.1967157375796273,-1.8151459427355414,-0.1301304948909028,0.2864732226598267,1.9296875
-0.3638468472175402,0.007332221975784808,0.05006645853325781,0.020720298735613707,-0.036192173079089646,0.01062457528497249,-0.019962864438124363,2.180724996375197,-0.017625244010701258,-0.5431786502622284,0.07938534551713916,-1.710485875828945,-0.043870230878811034,0.3878769615188879,1.9375
-0.3779938475908682,-0.09150126851064438,0.06388315865482302,0.008661124330720424,0.020846041493625792,-0.02676191847498656,-0.01005096146810777,-1.8900384276224829,0.00804442101332432,2.6688398231912616,-0.05899677451324295,-0.5936523016740365,0.04830013530468876,0.23114282750226825,1.9453125
-0.21466738902178006,-0.08215163429001202,0.03965483525294933,0.0010939664681051651,0.028967342544633057,-0.026806698384476833,-0.0022069499702461535,-2.332037996511661,0.012641491102833162,2.495848614367577,-0.0765175090402538,0.02001166610402938,0.055426047296308824,0.07998415577734788,1.953125
-0.02587985386277587,-0.02447941583491437,0.006021644917161684,-0.0015743219878995047,0.010744284236719725,-0.008977723787334009,0.0017994140238160737,-0.878366589033416,0.005490487272419346,0.7676319794326165,-0.02989223771294791,0.17003582369101503,0.01931372776503487,-0.013568544084400976,1.9609375
0.12123771707640968,0.00031190264612276144,-0.017802143646644772,-0.006261026508300393,0.008416260871268871,-0.0027761873709873162,0.0071017534646163364,-0.5905285031495273,0.005276591292999403,0.07969885174510932,-0.022347153280985348,0.5273503487174378,0.010265950251434463,-0.12145166108722362,1.96875
0.1019253860854125,-0.007796937476706515,-0.014112689142384064,-0.006268496674863149,0.011591187433934764,-0.00545185275885148,0.006933700579831913,-0.8324777053989144,0.006598556776173285,0.3301139765406063,-0.03030651136153349,0.5382004874822875,0.01607279735319802,-0.11578102802870868,1.9765625
-0.12568102348287813,-0.01664358037233713,0.019187494508593524,0.004812738157130087,-0.002181318129418505,-0.0037937817130760713,-0.004451572206272225,-0.04154873233331951,-0.0009151231844770025,0.4334198369793729,9.407782069370982e-05,-0.36685992110811616,0.002170313126732102,0.1021757387166432,1.984375
-0.24366132538369653,-0.011280395858306765,0.03527970209958606,0.011841579951016234,-0.015192973613061142,0.0008715986914393631,-0.01143071892200851,0.786282861554481,-0.0074602751466081975,0.16121398196845463,0.030092587973111283,-0.954530700183948,-0.014475279556506487,0.2324807286216679,1.9921875
0.0526026701227943,0.015705465558095967,-0.009871679557645816,-0.0005737647238768693,-0.006382080728454937,0.0046121938730746565,0.0017137921087357704,0.4056684462988806,-0.0017960187542940078,-0.4777408802587324,0.012624008996505096,0.03891234753854109,-0.011039000171095784,-0.024346191365093976,2.0
0.4633435075140347,0.05061227764539671,-0.07219304533926493,-0.01810305374396853,0.007331489560057071,0.00882199305935539,0.02021176384363913,-0.22846152078194645,0.006732717470997646,-1.2800978476028833,-0.015236905875518736,1.4457870191767306,-0.0038655887052034183,-0.38487572994179625,2.0078125
0.4591124593739968,0.05409065861516276,-0.07201458036705703,-0.01741639587341703,0.004945631620019267,0.010224263567867906,0.01960828279300555,-0.06194201891548464,0.005631081039238651,-1.395527471964435,-0.00951799441073744,1.3851653554328693,-0.007543514349695851,-0.37456172429025386,2.015625
0.12016506531010028,0.017427384466149616,-0.019642258835159843,-0.003961305845776478,-0.0017343870377271886,0.003739236526177284,0.005192373517141837,0.13169355340908204,0.0006845520811415423,-0.4756009569983222,0.002234550712537672,0.31767107774228553,-0.00601166813946715,-0.09067260196476254,2.0234375
-0.06329232369265253,-0.018559121894700777,0.010646101318243473,0.0012233389209658873,0.00414458323819746,-0.005914757503682234,-0.0008692581801589224,-0.4392885287521378,0.002292214153473092,0.5479682933775409,-0.014400334967587997,-0.06725232409719252,0.010062252403220662,0.03502879316343074,2.03125
-0.0575890374880482,-0.030073435727155345,0.011215689133869606,-0.0005853560390196525,0.011393151639619377,-0.010417866540472085,0.0006820068456250705,-0.9506152213112208,0.0055969291335204625,0.9264477459084135,-0.031876297374006414,0.0958415760097632,0.02148542326487989,0.009173916028726192,2.0390625
-0.2088025306728687,-0.03627334281783408,0.0333342977007447,0.006721073843546594,0.002429078228518458,-0.009422175732571448,-0.006844897329399987,-0.4387370339690019,0.0006921296566544833,1.0030266901510423,-0.012129795159195938,-0.5011935493876982,0.01254907968068218,0.15334383183311903,2.046875
-0.4625065324906802,-0.04232224596620665,0.06994108527912336,0.019560542194730756,-0.015173779551298762,-0.006107752351606541,-0.01994435815567735,0.6028669734172337,-0.00869608785395699,0.9926107095738104,0.02719292519187335,-1.555402375401188,-0.0065392765731344645,0.40293489618299166,2.0546875
-0.4122292340394756,-0.023421897844822865,0.0605671669605377,0.019320869608278574,-0.022112555703585023,-2.154066254192707e-05,-0.01926056265839124,1.1385504928940025,-0.011541998959057964,0.4191233267738909,0.04464405662968076,-1.5580380164645244,-0.019486940371692598,0.38425469181811733,2.0625
-0.05039926291387334,0.018270914714896825,0.004388517777727572,0.005302967248823629,-0.016479031208999885,0.007853114383777053,-0.004147867861463263,1.0385237160776346,-0.006939528480989598,-0.6431216815889941,0.035714786910780845,-0.44930064477647197,-0.023519739899851237,0.08562997896867837,2.0703125
0.1943309810350698,0.04212607294671326,-0.033099404065273265,-0.0047524541515548396,-0.010104908635133487,0.011528725684139604,0.006544702566973082,0.7882832096203768,-0.0026683061548348533,-1.2216642448894592,0.02347867769929216,0.35280240144772945,-0.02214350753448512,-0.12400176799595933,2.078125
0.1409697277416449,0.028785568640949506,-0.023968949320484587,-0.003628243376318838,-0.00669747531503293,0.0076345281556679315,0.005093012970815775,0.5015194081290759,-0.0014334720486376788,-0.8323115961957763,0.014546072674420181,0.27533975341059114,-0.014756406582423607,-0.09246593668182732,2.0859375
0.033422212029586465,0.003428610021207848,-0.005724345020480047,-0.0011416448681823292,-0.0007416242444433323,0.0003564873475246361,0.0019992684650268233,-0.011321264966669336,0.0006413699139517086,-0.09411718948271063,-0.001278167632719494,0.10022949066472096,-0.0013022408060915233,-0.026010216008782023,2.09375
0.046573968979802365,-0.009116273914794842,-0.006075150269299859,-0.003462727831449021,0.007736960089015484,-0.004722955589946393,0.00406658745008869,-0.6034853716097421,0.004541023394219564,0.32705772974899866,-0.02166099819375618,0.30777202367258405,0.011860657068803723,-0.06104438600690266,2.1015625
0.07737370274641205,-0.011468161343290328,-0.010141374551001243,-0.005411572962327396,0.01169234777374926,-0.006314586684982365,0.005993409209312343,-0.8596257307126166,0.006500546499659363,0.4305211828146054,-0.03086514476773142,0.472329275780798,0.01712228658823931,-0.09672743985851909,2.109375
0.05991983932807872,-0.010304583276926748,-0.007810245551949453,-0.004326794229108193,0.009559768526293467,-0.005490895135733216,0.0049249791316092716,-0.7228267061768319,0.005439615226725448,0.37833479643109424,-0.02593196281624745,0.38131480416965385,0.014326810748842844,-0.07704690481487896,2.1171875
0.09741534192980755,-0.002821865364595114,-0.014015156431556857,-0.005381665304493125,0.008289049008655638,-0.0034635306421898883,0.006149798150035341,-0.6012608394525533,0.005081824250339301,0.16386801889919628,-0.02234494250513227,0.4590647650804383,0.010910744469918129,-0.10264394637067305,2.125
0.20153874609780453,0.006676034028175619,-0.02988647904925148,-0.009746744278922765,0.011380968227374166,-0.0021400956244612183,0.010766636769948835,-0.7343440527859602,0.0070714737565061875,-0.06126674663815434,-0.028458824596743624,0.8081399778211605,0.01210360498797739,-0.19279330184616053,2.1328125
0.2111293144609841,0.006515691204684471,-0.031222541842204844,-0.010275351123825603,0.012268591366503526,-0.002412924636053775,0.011302080274526819,-0.7892937284945903,0.007525721758773875,-0.04742141104506264,-0.030490499967402218,0.8522040509814549,0.01319343792952287,-0.2027095055849745,2.140625
0.07515005708638411,-0.0005559348768583931,-0.011131449068025758,-0.0038799690351786344,0.005086962809128298,-0.0021060201196728286,0.004693907490776383,-0.3915288382758767,0.003508550918713563,0.07320419531588142,-0.014887880785869952,0.33245087901571235,0.00658659135382675,-0.07557823662241343,2.1484375
-0.043428495997850244,4.3079277312561524e-05,0.005579421664774339,0.0025661374778252434,-0.005153257354104714,0.0007410767942393384,-0.001798236483462893,0.2381585458303639,-0.001788009028498706,-0.04291655240396651,0.008362568809956452,-0.20100407499940268,-0.0055749250776635185,0.046828257625855234,2.15625
-0.04894970300470066,0.009219193015936775,0.005264055002899545,0.004043382631782447,-0.011014643095562703,0.004365970640924231,-0.003088647310652424,0.6506024384002067,-0.004462921691572426,-0.3474226054335097,0.022502455108964512,-0.33443081538024033,-0.014801507523914693,0.06827212127936082,2.1640625
-0.05429126127453399,0.014101249767849,0.005436354403274077,0.004955304524000798,-0.0143404103787789,0.0063586910898678775,-0.003908575488887943,0.8832436984727741,-0.005994014689310847,-0.5122220587561561,0.03051311351178915,-0.41609083469064917,-0.01996812403285733,0.08228290202228035,2.171875
-0.16017135810879216,0.008777578650268854,0.021056383197901096,0.00995209943303597,-0.02004785014405023,0.006683262513373857,-0.009077730670933584,1.2017309957668136,-0.009175736603282556,-0.4260615548126878,0.04297013772516599,-0.8229757550321656,-0.025322655738669493,0.18171588043821918,2.1796875
-0.2884397537687411,-0.0024664852291509482,0.040551526580592835,0.015390118634102019,-0.024133983613226963,0.005234984120972793,-0.014817677210244205,1.3857010828970449,-0.011754091632984041,-0.16421585932242344,0.05118209355122886,-1.2588303683201683,-0.027245902217769912,0.29370885824653964,2.1875
-0.31349916293160873,-0.015016318605255492,0.04560185800112386,0.015114904275800489,-0.018833884385954437,0.0009952150871791383,-0.014817818601707321,0.9873070729094593,-0.009505716452513288,0.22553897517171173,0.03799210543732617,-1.220463972284479,-0.017808726513223117,0.2975467841548895,2.1953125
-0.2216103024903196,-0.02433854421436571,0.03372518191570955,0.008970842734212864,-0.005670192685695774,-0.004602653159728315,-0.008827734151481605,0.12695502704683298,-0.003038829012632095,0.6056076827852459,0.007299343698799573,-0.700931867154995,2.150867887063502e-05,0.1871602770566112,2.203125
-0.10758283089943436,-0.02737431173918518,0.017957860817684676,0.0024466936568236404,0.005639793604465228,-0.008284679221180308,-0.002319000572880757,-0.5827185306868818,0.0027180366588601666,0.7974223899208952,-0.01859000364554058,-0.15814382584844244,0.014054518597731845,0.06507030089859846,2.2109375
-0.05475184611579972,-0.0257519671508897,0.01027101562592191,-0.0001861588911090754,0.009092624188298926,-0.00882667351733685,0.0003706944526323401,-0.7844094130803294,0.004577840309603832,0.7863425848379254,-0.026254722858034686,0.05704037200498554,0.0176848905867884,0.01377821997273232,2.21875
-0.0007057189295869563,-0.01735088110158453,0.0015941326306807657,-0.0019963138016101598,0.008647228320823397,-0.0068149765155516295,0.00239769003312239,-0.7081052860772108,0.0046835263162872745,0.5564349869310987,-0.02449208925502009,0.19651013357990021,0.015036282156970024,-0.02704761239499173,2.2265625
0.20889428382762595,0.003955133555821195,-0.03061823781067895,-0.0104796095068505,0.01358499924612061,-0.0033421631184986783,0.011463605423382327,-0.8853954512293537,0.00810582667793821,0.03488015438410722,-0.03374576994867653,0.8725661977138068,0.015420426821914347,-0.2049159300257143,2.234375
0.5397335513315911,0.02979529889929839,-0.0805158026603565,-0.024891555003938474,0.025976850058777767,-0.0008283914897189707,0.02660903333469762,-1.491865626091676,0.01558440675697294,-0.535884503686276,-0.05944523106705589,2.032889613439206,0.023372312517439448,-0.4991554101256791,2.2421875
0.6941848713695769,0.04157422102601588,-0.10378422652073284,-0.0316678170613399,0.03193087384745848,0.0002472072587855053,0.033708153601789935,-1.7868719427670723,0.019152397831716593,-0.7950455156322299,-0.07182640844219763,2.5782028489234534,0.027330380479789442,-0.6370487923078183,2.25
0.4449463361115053,0.03590455343698872,-0.06784705296446547,-0.019030776055089276,0.014471993842413357,0.0036199547676996824,0.02080546763182126,-0.7519022631918924,0.009853344664596055,-0.8161541020438553,-0.03276638218481824,1.5397943323688603,0.008267757740283183,-0.3915555995999929,2.2578125
-0.07173347981002538,0.02072581826359986,0.007093517005238358,0.006748037761915208,-0.019697452198842304,0.009272673987154671,-0.005569915100110364,1.2496569917882523,-0.008510794329969332,-0.7433448084336294,0.04326038880290986,-0.5726214421685575,-0.027949699837463364,0.11154969795274934,2.265625
-0.46140149670234554,-0.0002244580445258651,0.0647668755550245,0.024969792256183527,-0.03986384291276998,0.009894272201216192,-0.024435207370330368,2.360716378103471,-0.019832310686471497,-0.37639094582485877,0.08701251592380513,-2.05285356835745,-0.04624496842984051,0.4746193815400119,2.2734375
-0.41801631047711346,-0.01427689752341285,0.060318853573967414,0.020826319485219045,-0.027968146069418578,0.0035692964919111126,-0.02056461467383668,1.5506179209555535,-0.014219216309233422,0.11820018568433611,0.058757949665742035,-1.6931175010893726,-0.02869535318638419,0.4059401508384349,2.28125
-0.05558277805837126,-0.005972591393392692,0.008027843107809712,0.0024348573129280527,-0.0026328364466225588,-0.0012707502697029923,-0.00180958226650884,0.049247853303998786,-0.0007236106701985855,0.14185155298573499,0.0021249995246315333,-0.18330684908655423,-0.0011084198683039145,0.04897674781050069,2.2890625
0.08883610399119879,-2.3407908999783378e-05,-0.013128596251936134,-0.004559774444621025,0.00590318028082369,-0.0021817099760616785,0.005378479463581106,-0.43831460813243206,0.003952021784760012,0.06390649876284177,-0.016658517135341264,0.3873070318657018,0.007370132040038307,-0.08876969819383945,2.296875
-0.30292242599501734,-0.036074792160986614,0.04662360523172937,0.011801059463405112,-0.005544284309918453,-0.007256588106857443,-0.011968814801357603,0.05037618979320367,-0.0034423844982379016,0.9193852129303027,0.005954560391020254,-0.9213336159797408,0.003146896390182221,0.2501841933633131,2.3046875
-0.7167054245159947,-0.07943646711565502,0.11036643243881161,0.02840789217866888,-0.014521265068760357,-0.014641620572957738,-0.02972077639586794,0.3453101375152983,-0.009849649830419945,1.996754850395479,0.022285298777785515,-2.241156676460217,0.0037008302569436526,0.5991607440176416,2.3125
-0.40726127076474883,-0.04860035984194736,0.06288400423302203,0.01579923283418036,-0.0068677737128274245,-0.009742207609869198,-0.01627412644359604,0.05820861167044014,-0.0046357113288825694,1.2455000114067345,0.007772594385099901,-1.2359336131996583,0.0048194790924127855,0.33556174203436223,2.3203125
0.4338143000374961,0.046636637707173675,-0.06753465631220441,-0.01701766670916229,0.007208346637872321,0.007948609840135248,0.01904172694833525,-0.24427906003008446,0.006505754088330854,-1.1725091732208364,-0.015348354804093073,1.361404156090696,-0.002975622135362042,-0.3614149731268079,2.328125
0.8686188821640514,0.09974685654468797,-0.13541990632787912,-0.03349072467080626,0.01220815422826609,0.01857450225429257,0.03688111533311749,-0.23887346343566562,0.011240488190565603,-2.550106952737064,-0.021773291042159974,2.6584197878016917,-0.010672704126121332,-0.7151499641668222,2.3359375
0.5499108351698225,0.06129533156700411,-0.08571780062580821,-0.021372088590856757,0.008271196719909968,0.010975017303753826,0.023755043622508076,-0.22363982641346825,0.007650614683189075,-1.5580337989618012,-0.016378902073732906,1.7028612216242713,-0.0054881189761951795,-0.4552210207426451,2.34375
0.06109357125315886,-0.003080579509523862,-0.008839512510285547,-0.003469557691294201,0.005404472792963406,-0.002744138717311695,0.004204583941868999,-0.4256077803644581,0.0035725168329577383,0.14174648863495148,-0.015807728043678977,0.3009538341130347,0.007575545669356417,-0.06569149381640928,2.3515625
-0.09379678893474797,-0.02584113925359557,0.015801829571817125,0.001905379104144839,0.005885159384799025,-0.007998075805812601,-0.00173498900546316,-0.5884077436002547,0.0029065244045461194,0.758935652912397,-0.0190085841048586,-0.11543203296102343,0.013963694948998271,0.053736967801793135,2.359375
-0.08084520006888855,-0.019060570282417658,0.013152959571347366,0.0020949320023152408,0.00297537541416321,-0.005710409672152306,-0.0017630889976827035,-0.37099140346744075,0.001668146448252793,0.5495733188285223,-0.011812923078872333,-0.13900706205989155,0.008841181386506695,0.05216212518216516,2.3671875
-0.23086018437462438,-0.025169359051790387,0.03511339942561078,0.009355624998097533,-0.005936603608089552,-0.004723052023977621,-0.00923557967801208,0.13795729726977382,-0.0032063705088598397,0.6253345909401369,0.007815782024255452,-0.7318664063037232,-5.509851415859497e-05,0.19515130216682908,2.375
-0.4688225774932129,-0.0465373550614483,0.07135190055464688,0.019356099611714483,-0.013203373572774254,-0.007595576813446193,-0.019831852636636293,0.4572570055456791,-0.00784053968496316,1.1258422855140284,0.022335169017554182,-1.533006810836883,-0.0031513845016191266,0.4019349076770847,2.3828125
-0.44823754236851876,-0.04916399647461196,0.06875459911760701,0.017907282543626,-0.009943884775852344,-0.0090433862515441,-0.01843567484748207,0.24295220171271664,-0.006253463887425008,1.2278157914318295,0.014726895169026604,-1.4103151862158934,0.0013242754568230535,0.37641535327245856,2.390625
-0.1221458906112134,-0.021617398207640876,0.019307448948077115,0.003974180234059919,0.0010301122203875026,-0.005757861371946339,-0.0037316586603832365,-0.2664780875007876,0.0005541863955758938,0.5973917012097479,-0.007608332210205644,-0.2917554528119947,0.007177217743445318,0.09013422751546349,2.3984375
0.1037199528742732,0.0011803108416169933,-0.015381604375491208,-0.0051891764896408515,0.006441149728545278,-0.002072254417504275,0.006054333018482133,-0.4640014939291449,0.004280986451065248,0.03996978488065409,-0.01779362453196716,0.43857490741627964,0.00772823197105016,-0.10181448178339096,2.40625
0.05794580051370795,0.0034943547921052584,-0.009176884346612312,-0.0024295599044797294,0.0012592019739422577,-0.0001806592100680031,0.0033251987840941214,-0.13389810640850405,0.00168171328593766,-0.07325621330570452,-0.005851490345285433,0.20781304871072884,0.0010643286313909532,-0.051046658308558285,2.4140625
0.24282514237174976,0.032799750396608846,-0.03885871143230553,-0.008567381337965217,-0.0005717694931364736,0.0069056960488961166,0.010184506667317517,0.14997216969712104,0.0019093099574347715,-0.8793970731862307,0.0010113372353548191,0.6791794210074374,-0.008575806011457373,-0.1898617493199812,2.421875
0.870594176556678,0.10194780145483857,-0.13598982346846655,-0.03332121800430053,0.011079795242826125,0.01938098383260782,0.036750925432652876,-0.1566584140854359,0.01074321545702841,-2.621932336408185,-0.018995916805007545,2.641060074335996,-0.012566825639488457,-0.7133267492178526,2.4296875
1.051088341840342,0.11648253408926584,-0.1632667165336658,-0.041124958685758814,0.017575790452760285,0.02092632803749361,0.04496469721338678,-0.46837768058837226,0.014701958757121195,-2.9474790765901435,-0.0323719005741926,3.268676804848681,-0.008655674128283183,-0.8729661079772525,2.4375
0.10720329344071229,0.018586006882060066,-0.01795301594474964,-0.003121137174295275,-0.003516972391624354,0.004488987605542602,0.004361792758942246,0.24744629359981823,-0.00019368109948354937,-0.5255854936325228,0.006385345509691703,0.24641771722742623,-0.008410798985503927,-0.07530166985880132,2.4453125
-0.9866005925506266,-0.08369374957983662,0.14908898481554883,0.04235673989768672,-0.034531022219206016,-0.01029678267712625,-0.0438935425788195,1.5442637684322527,-0.02041952578161702,1.9155925622017484,0.06722300861750398,-3.3887263552949,-0.018689086933970676,0.8682500234882622,2.453125
-0.9406983436656031,-0.07241993863904542,0.14123827214902143,0.041346100463610896,-0.03733628705408907,-0.007012074747086058,-0.04262135330082026,1.7820684200700352,-0.02142277141470303,1.5850595582744227,0.07462715771184761,-3.3191226405206002,-0.02485811402912969,0.8406827093502819,2.4609375
-0.14408804975350378,0.003156924004919161,0.01945988047905215,0.008361038579102134,-0.01538614704404487,0.004172491508454098,-0.00759594312190352,0.8832348645755111,-0.006978831528078736,-0.22833599823241038,0.0318777432174427,-0.684355345793401,-0.01840355254887384,0.15540935702019482,2.46875
0.21193695118513478,0.04056881494833077,-0.03539526973206451,-0.0059063001259072505,-0.007722022040129007,0.010560488242269435,0.007662890767398103,0.6343726581974044,-0.0014935975748473316,-1.157545608007882,0.017974697875353288,0.44960256049265385,-0.018975111516019397,-0.14449519621255985,2.4765625
0.05467954731335573,0.03350516741571082,-0.012302700513119205,0.0016266086266960719,-0.016687477948540533,0.011350716320862453,-9.903627955825205e-05,1.141197604223791,-0.006437453967118728,-1.0561445222423085,0.037626255436454356,-0.16448025638613611,-0.02768888196781495,0.00436034236734343,2.484375
-0.029189752880415743,-0.008141405673871997,0.004533374671623227,0.0007346040908714331,0.000844944764485405,-0.0026828351100016933,-0.0001412001820096622,-0.17676284288622096,0.0009986894376258287,0.23427479158635528,-0.0059787982282486565,-0.03994891757304133,0.0035444979890016342,0.01804032810066985,2.4921875
-0.09982735213506434,-0.10654707298273304,0.0262990566667187,-0.008230414988588971,0.05291926052134635,-0.03865753890377177,0.006664140915963209,-3.9411020680382665,0.024103192017897776,3.3872882543788005,-0.13307826592397784,0.8208539836074344,0.08979140196593496,-0.08004840243700077,2.5
-0.3321515830136076,-0.18847103479065438,0.06898160045202652,-0.006382460511347534,0.08179621453629561,-0.06475167403373512,0.002917087735318709,-6.188754491202947,0.03581572554360128,5.8686893226775085,-0.20605319648790807,0.7672891847187978,0.1445706622256063,0.016154924553388215,2.5078125
-0.2715087210798011,-0.11807708591113612,0.05197367553722704,-0.0005198624312342601,0.045394234983307066,-0.039234976630781196,-0.0014029898107684577,-3.5479129777761256,0.019729386295401642,3.6201195935817614,-0.11704052640829155,0.19658414728970153,0.08385168833934974,0.0759057291794018,2.515625
0.25843612390601156,0.06771571294004577,-0.04524869545173537,-0.004886488214863417,-0.01982827486561475,0.019883466758779063,0.007255952065120319,1.5336071805917377,-0.006693501486178851,-2.0066604353627495,0.047898090966246004,0.33198306330287275,-0.04011137193242419,-0.14538011873940684,2.5234375
0.5969497378051242,0.1703935282275053,-0.10541523457496653,-0.009737540273385642,-0.05206776239300806,0.051526384125529304,0.014514756708273254,4.109067766631121,-0.019317322919587106,-5.076340052745281,0.13040411336966162,0.6091529391554726,-0.10412278989457653,-0.31432148247353037,2.53125
0.3623466728577179,0.11961647581786032,-0.06612277242282415,-0.0037127734594903624,-0.0417373032987811,0.037349427630441225,0.007278492171574764,3.1790723581874363,-0.01598985197330556,-3.610512863590902,0.10229949048291329,0.17324899675793975,-0.07902245227978681,-0.1616863864403294,2.5390625
0.06043146021614412,0.04325393375128577,-0.014281772894727377,0.002591222000701853,-0.021951572871839176,0.01493069990178634,-0.0008401128516669629,1.5201890336630983,-0.008779121633720147,-1.368591998477281,0.050431546350039956,-0.2557929011443842,-0.03632795008169495,0.015458182334787046,2.546875
0.09672416681055883,0.03403732142446092,-0.018351146830349097,-0.0005696278682148446,-0.013492745036328442,0.010630171873014956,0.0021261222750792656,0.9482956982374885,-0.004754400794590686,-1.0407305973272212,0.03042865322314293,0.0158060643283681,-0.024070651923937033,-0.03786905576364138,2.5546875
0.19161083838539322,0.045492823393893767,-0.033153254220117966,-0.004185018197798901,-0.01231650908051938,0.012892741680058904,0.006032860310797042,0.9435258651037577,-0.0036815701716078845,-1.3363252877637917,0.028823766523077696,0.30081684347723736,-0.025617782748493984,-0.11539599905074592,2.5625
0.0682897216191337,0.024983316469034178,-0.013219839120224211,-0.00021048480352891705,-0.010521877989873026,0.007786172106555981,0.0015595928294931838,0.7136742363220866,-0.003573878090755709,-0.7658806400452194,0.022859417363180926,-0.0020650646675564378,-0.01826690148947823,-0.024466865038621614,2.5703125
-0.12514632612489227,-0.013208519441462138,0.018743143424123487,0.005238200437075828,-0.004170467207022414,-0.0024991078362671384,-0.004801630122497773,0.10111900552215755,-0.0018119270752575088,0.32269303948149575,0.004933801647252633,-0.40565055645181297,-0.0010558662297579498,0.10775260495396913,2.578125
-0.21070501608297226,-0.04492374840770467,0.03464173717400071,0.005720735697403642,0.007366261752526601,-0.012691794626360088,-0.006009706053766387,-0.7912854624587768,0.0029059376613631807,1.2862729572284228,-0.024143776262935648,-0.4072043880410623,0.020580510883980965,0.14046717767559147,2.5859375
-0.21163376892468963,-0.06214474822857325,0.03682256325203816,0.003526332712408729,0.01743455385925931,-0.019232531366710583,-0.004196884132057512,-1.5090012005300717,0.007447476926951504,1.8458466154594642,-0.048546316124644814,-0.20528998205976495,0.03678531277280329,0.11140776592637665,2.59375
-0.1913423182026802,-0.0618610975235366,0.03390888421412035,0.0024626844202221823,0.018965630410187694,-0.01957069493142602,-0.003128719124257372,-1.6010911798638077,0.008257042769535433,1.852349648228236,-0.051975661939171,-0.1180410382767804,0.03849802242283713,0.09100635035437261,2.6015625
-0.18093143163656425,-0.05469096850749317,0.03157353033940577,0.002833142347245908,0.015609936631731592,-0.01706404085525432,-0.0033406290161042945,-1.353220509182615,0.006800402169342259,1.6269755518140079,-0.043699375796792984,-0.15752332596466825,0.032726358674620475,0.09285625472017366,2.609375
-0.17319477978828016,-0.050007377933437486,0.029924113725055622,0.003034645553614421,0.013492522018611949,-0.015452680426568974,-0.003426914713496789,-1.19589604823685,0.0058860376031320705,1.4816598640541727,-0.038477927902130823,-0.17962296955737303,0.029060051094315933,0.09319942371776525,2.6171875
-0.09812333170982077,-0.031940628943944886,0.01715224180111873,0.0013548486218802392,0.009115638530840433,-0.010237290349784423,-0.0013084592858652814,-0.8223198096634551,0.004339536562308507,0.9553023257200159,-0.026912699836310734,-0.062155142739843385,0.01933074117530595,0.04759871239878288,2.625
0.04083390802524792,0.004631444810620471,-0.0068815420274479615,-0.001366264162421812,-0.0008274716026888378,0.0006247553719958092,0.002272235922924092,0.00037431982912610265,0.0006475541156874738,-0.12383730176754365,-0.0010122594538486236,0.11862408182171238,-0.0016729505338642899,-0.03153797309182793,2.6328125
0.1011313272724241,0.02780387387957412,-0.01818999879004613,-0.0016078064454679458,-0.009446815567039454,0.008133317872109042,0.0030344371678055846,0.6639135090663427,-0.0028978440200181765,-0.832010045347075,0.02067607637172834,0.11009541124626024,-0.01772384754705142,-0.053234583240724845,2.640625
0.04780461404817507,0.023063712556137757,-0.010078605564043008,0.0006376955138653568,-0.011111382646975863,0.007518269525268491,0.0006532385499912085,0.7384462485127292,-0.003955840036175112,-0.7222621610704242,0.024030690163213943,-0.07023131938509139,-0.01848347703504673,-0.006704503096093196,2.6484375
0.029377959058648154,0.018738139442982107,-0.006958215698589373,0.0010720966764145123,-0.010103747217826357,0.006277057152108675,0.0001235844699751497,0.6516511164279393,-0.003609485938065839,-0.5954669292247257,0.021342207918587527,-0.10086258054428464,-0.016186021620822038,0.004789537217498506,2.65625
0.08064414903299971,0.027520743189701005,-0.015278570802983945,-0.0005353457943464907,-0.010992031888695672,0.008479984775476927,0.0019597014746033496,0.757239723168996,-0.00371901902782512,-0.8384709789504516,0.02413915684309033,0.02171903996528752,-0.0194445357521566,-0.03260450283701913,2.6640625
0.08384618727644451,0.032111872005198314,-0.016290934200996258,-0.00011356524884357055,-0.013418754230961493,0.010151793230849302,0.0016408937484373317,0.9322024581014041,-0.00479435266918399,-0.985389866550326,0.030049684945527556,-0.018575047814442372,-0.02345606399245701,-0.02813503956509719,2.671875
0.08623863291145645,0.037464879153646595,-0.01726119223258015,0.0004438128661451108,-0.016369679062758265,0.012144438657722,0.0011905514922988145,1.1441464476116654,-0.006111385261995705,-1.1591118644474392,0.03724824227484957,-0.07141620269017797,-0.02830443556234426,-0.02140567662235874,2.6796875
0.22573946236740994,0.05537183342941718,-0.03913293231236448,-0.0047302761237256906,-0.015285430957500687,0.015894931792753086,0.006815661250278591,1.1833301588488256,-0.004828553343842009,-1.6297532554352916,0.03646535441368693,0.3342481635236913,-0.03162358051632313,-0.13321857993319397,2.6875
0.3531926252852317,0.0527287117885651,-0.0568518990133178,-0.011912230888746609,-0.003103842350604421,0.012068388409786884,0.014010720456977245,0.42276300648628756,0.001393352854235427,-1.438539717562835,0.0086137374491324,0.9312714706063954,-0.01665106317061288,-0.2682336286574962,2.6953125
0.22891132393704033,0.004490740333643807,-0.033490488940272276,-0.011483754913393561,0.014938164034808734,-0.003582952440510113,0.012485794671434295,-0.9645393543256295,0.008828466884033385,0.03455443208623604,-0.03674281080461843,0.9549215099534686,0.016852140129696276,-0.22441210331191683,2.703125
-0.02600493684304436,-0.042304368493620174,0.008187586920977822,-0.0038605782276922972,0.021238587078649927,-0.01579006685638208,0.0037217514779233104,-1.625182023681108,0.010222292359258842,1.3525729189118219,-0.05534734342632344,0.38180941902345616,0.03619699558519331,-0.04436569609336727,2.7109375
-0.15719352786570293,-0.042309174376680365,0.026739571466827733,0.003174455686915591,0.010299394269402939,-0.01287735035334505,-0.0033904680267307663,-0.9559571230986987,0.004538929755335607,1.2437110972715313,-0.030545400650830355,-0.20020957213268553,0.023347261924707506,0.08996465076117126,2.71875
-0.20243572010493505,-0.02660057917746223,0.031238470486204734,0.007630964706984616,-0.0027339437039020096,-0.005866026191416149,-0.007541916281011599,-0.0658425279912447,-0.0016026439165853805,0.6921480260086547,0.00046021938355604727,-0.5884035815454376,0.004023547988940882,0.1635787929149453,2.7265625
-0.25223194645634767,-0.031172528513066573,0.038837170415514904,0.009712656842198405,-0.004203696636026316,-0.006501627348129557,-0.009750621976479638,-0.0023701762989269586,-0.002550885769926601,0.8000961406524132,0.0033787158247592514,-0.7550757545039682,0.00345949994557796,0.2068063452076391,2.734375
-0.20281372476342913,-0.03470645668474407,0.03229898829171546,0.006609008529254276,0.002002603893638,-0.008959355624479377,-0.006690870860528838,-0.40308368876549666,0.0005332959150253586,0.9574230836485093,-0.011022515473667312,-0.49369696031143256,0.01165850237569404,0.15009310697232786,2.7421875
-0.14314846677272797,-0.02870118216344775,0.02315260900024616,0.004189709142660013,0.003452247673469424,-0.008007914777427797,-0.004102633089546931,-0.4570600206207718,0.0015303923243730577,0.8122854550003037,-0.01377533801962142,-0.3004514123783144,0.011852298454852372,0.09930456419238247,2.75
-0.36687138235052313,-0.046180935562684045,0.056895020035366416,0.013937048980607903,-0.00491356927946859,-0.009722376682180229,-0.014342193712995516,-0.04784961504467369,-0.0035182040120324267,1.2000715435246507,0.003561441885001206,-1.0848452136416251,0.0065127728812058115,0.29824557650490235,2.7578125
-0.6297117773485043,-0.06975907603656431,0.09691036828252361,0.02499112841351108,-0.012956674655955541,-0.012888173773377911,-0.026047573205529414,0.3063454969768965,-0.008646137222962435,1.7535136527362598,0.01962849048841738,-1.970153747644616,0.003083138510086403,0.5267617021074712,2.765625
-0.25682176286120495,-0.02936231283085214,0.03931119214957186,0.010201302299182095,-0.005639161233534983,-0.0057383740489536225,-0.010195736930105106,0.09597538983549486,-0.003221519687868199,0.7399790749277967,0.0067896866402516924,-0.7968405871756608,0.0013357611238797983,0.2145982275259901,2.7734375
0.6387190313383022,0.06689106651249543,-0.09895880833720823,-0.025409727373673998,0.012385324860616867,0.011136166906611416,0.02796421314749162,-0.4422284473053114,0.01001203848716672,-1.6672262969513159,-0.02518752934655507,2.029953698637192,-0.002088185920408474,-0.5364509815594829,2.78125
1.0669252622241576,0.11876692543210637,-0.1657915529742466,-0.04167256894539387,0.017553208937128407,0.021435752751878086,0.04558085626869974,-0.4542710054616654,0.014781735153189446,-3.008040371110732,-0.03214259490101081,3.3115339069218264,-0.009247305692947945,-0.8854049226714923,2.7890625
0.672249643585408,0.08521359394192307,-0.10591451136873313,-0.02482081067212777,0.0043851144037214155,0.01737461734708977,0.027805189949335764,0.15464261548768454,0.006590651398099191,-2.235181656718288,-0.005407015864086991,1.959570734436159,-0.01611980347413231,-0.538986276305796,2.796875
0.18392386456348178,0.034880793853031444,-0.030751009575669154,-0.005124511001553008,-0.006705475614068174,0.008988883377070921,0.006761649416545087,0.5380943307735895,-0.0011946151595343365,-0.9931649789061788,0.015106226045146168,0.3924355835424129,-0.01629785771661414,-0.125712178757837,2.8046875
0.010426221704425245,0.019081498938949844,-0.004300003614220892,0.0021317573735703875,-0.011869685423166758,0.0068150345267838225,-0.0009393335907850061,0.7613233456846826,-0.004512472882363438,-0.6219401090767013,0.02538058493966438,-0.1887969401542621,-0.01835124333167931,0.024612360734337424,2.8125
-0.2978904044898306,0.00556680411394785,0.04092413943456369,0.016927123014468283,-0.02963962092949782,0.008508982057881432,-0.01619416407134712,1.76915548237652,-0.014289684276136019,-0.4352776838351335,0.0644082881087123,-1.3959057137637305,-0.035766170867490954,0.31704604076886017,2.8203125
-0.79525377775091,-0.032255508336811824,0.11582164548349141,0.03873770158820984,-0.04887126180693219,0.005107867911513748,-0.039075026972836116,2.723983176393317,-0.025804186712309145,0.39193442412295487,0.10448533931385051,-3.152764981322508,-0.04866779755062111,0.7612780535398496,2.828125
-0.7645150084387408,-0.05980867457281514,0.11478349997526362,0.033526396870366765,-0.030081436260545324,-0.006092523080814823,-0.03443306822622187,1.4127141107360273,-0.017148582437107655,1.3178027897117106,0.05934832224961936,-2.687995118684804,-0.01956551480762909,0.6822258141404938,2.8359375
-0.08151100764248755,-0.05087128773363402,0.0170712806730348,-0.001992369818191659,0.021648104729635,-0.017823991716242354,0.0016349961955985518,-1.7001669156711006,0.010091459064139744,1.5862129746291123,-0.057055393785955706,0.23750465126481546,0.03886432086837842,-0.002175913087628219,2.84375
0.3940134503358646,-0.031396499446971315,-0.05256388509523816,-0.025015907551542572,0.04986255645326666,-0.020927615588440404,0.025316680612640242,-3.312521257076656,0.02553678187199703,1.3393478591697563,-0.11918690957954911,2.1167962789017456,0.06699261034986566,-0.45591006754391294,2.8515625
0.27778325561714073,-0.01761304221480201,-0.037785616618285334,-0.01699612111128422,0.03204923033510589,-0.013087215101838067,0.017525392454417754,-2.141593769562049,0.016834781165860492,0.7932340626466159,-0.07753439756813821,1.4367030672857957,0.04255336077003247,-0.3130505532439959,2.859375
0.2014138813294866,0.014053141459615769,-0.03077460205990008,-0.00878335622602687,0.007019327303323268,0.0006863376359655244,0.009960520813549006,-0.4236922912982869,0.005099321283031537,-0.30278668688833243,-0.017885815504035705,0.7192990784270498,0.005088885606620139,-0.17981354558367735,2.8671875
0.42680695375581623,0.051734760755425886,-0.06716684667857643,-0.015987462137183342,0.0036224269303926485,0.010060769048648806,0.018109110461507687,0.005649030208902061,0.004846825467398883,-1.346613559917464,-0.006722493390164713,1.2694932354880966,-0.008505666310944562,-0.34530262929244643,2.875
0.2809744860298613,0.02697582458265555,-0.043544490097803555,-0.01135865885766787,0.006039749605807423,0.003835065593108412,0.012879372287559214,-0.2880759014684453,0.0051094951734828855,-0.6565370037658146,-0.014508347723053875,0.9174718720493831,0.0006779403426719038,-0.23874301632183265,2.8828125
-0.43075251767001577,-0.06295845779851442,0.06795070073070963,0.015196675468994631,-0.0003621853741675573,-0.014712444729898811,-0.015991595563556688,-0.4251663118487467,-0.0018270684232092411,1.6955939108621758,-0.008313951170043427,-1.168361536569524,0.016144577962137845,0.33462919028925936,2.890625
-0.763973841509603,-0.10003079022382341,0.11953979435234972,0.028274505673945,-0.006326844281381739,-0.02146775299446676,-0.0300540084350091,-0.2781092169734919,-0.006414072541097658,2.631060450228965,0.0017908217488262603,-2.20484232896545,0.01860320050229959,0.6117717173497567,2.8984375
-0.15481676622039234,-0.010389119325700623,0.022595724465839587,0.007180250395036134,-0.008310925423684215,-0.000755430448609114,-0.006712103077215584,0.3701442288342406,-0.003845680405036812,0.20355722023832107,0.014579911788076706,-0.5704832504926912,-0.00663579347917364,0.14287827927707308,2.90625
0.5587709725906409,0.10125205539612392,-0.0917594335900991,-0.01666097773663379,-0.014535984033248317,0.026026983569360642,0.019916695420764418,1.4071253021928918,-0.002598844697817858,-2.854368921227675,0.03899559886829121,1.2647152388064131,-0.04245791774765199,-0.3949211410265916,2.9140625
0.4961207546617618,0.10344294575590529,-0.08316347876559502,-0.013006307517632295,-0.0210457955333814,0.028240765712436923,0.016283828246412002,1.8182933636437244,-0.0058940685637349595,-2.9753776923229798,0.05393662562305434,0.9603603316197841,-0.0506469203002068,-0.3269714619566758,2.921875
0.062173296976736174,0.03404546999494037,-0.013448110524142971,0.0012991739606595999,-0.016366232060788143,0.011371798370832574,0.0002518674998415853,1.1241316325823723,-0.006247113328599648,-1.0656879489095168,0.03691930403323775,-0.1376183080919771,-0.027425920032019026,-0.002557878107589591,2.9296875
-0.032263596416540315,0.0031855231593566112,0.0036211740694244714,0.0023632985881497704,-0.0060694663089379906,0.001694711691518209,-0.0015375150130765112,0.31288955833585635,-0.002134201290516586,-0.13735611044798818,0.01075306087890606,-0.18831027294984043,-0.007474609865511665,0.040777582887951254,2.9375
-0.074706579183947,-0.0035213677130301294,0.010445525596278177,0.0037695346541389216,-0.005668406635606801,8.750126431531877e-05,-0.003116248987205619,0.2494113691356025,-0.002198180615379229,0.04525898837621072,0.009248494748933054,-0.29681120020364804,-0.005311746587608429,0.07272673403101865,2.9453125
-0.5704148239036171,-0.059448836237538945,0.08729198531422308,0.023142592748355884,-0.01409036015298417,-0.010257359687600822,-0.023949393637645804,0.4366897587762284,-0.008826368322503303,1.464158381922014,0.02317325281214479,-1.830407498988468,-0.0009131622531562685,0.483900349802538,2.953125
-0.9760295150731181,-0.11711270153969049,0.151580507471227,0.03745500997402783,-0.013965178056541488,-0.023268402721611584,-0.039707174767846166,0.0902942618637552,-0.011079519907314197,3.014449183607011,0.017545828620364048,-2.943188934579712,0.013980111621103929,0.7997026132770939,2.9609375
-0.4558860084209115,-0.07296610761684784,0.07267359589578895,0.015247583695089691,0.0034358672789286345,-0.017956227921790083,-0.016270921163889417,-0.7156961732009411,-0.00026134869264999265,2.0003496473092657,-0.017829926450848615,-1.1608255812992232,0.023139843189646663,0.34310650894853084,2.96875
0.6175154551698434,0.042179902007683866,-0.09301176422601323,-0.027472328253916593,0.025173312546094766,0.002184672308836937,0.029488266004936134,-1.370041443598944,0.01566335886367122,-0.8783076563723659,-0.056459188440735254,2.230598105795974,0.01923570641421446,-0.5575077875236195,2.9765625
1.1008388804667906,0.09954624088308911,-0.1682646749933186,-0.0459963255697382,0.031701410370791674,0.01336329270159833,0.04949277776925716,-1.432703779945501,0.021362482322004703,-2.3550858755531325,-0.06594725667976581,3.691951725178614,0.01223614122792777,-0.9534501494939699,2.984375
0.7150243802116595,0.06409298444647932,-0.10941610345911602,-0.029874573310168667,0.020384634593282165,0.008390547102421424,0.03240139382473307,-0.9482177924521707,0.014058466127131207,-1.5142586030453715,-0.043572659457383686,2.4022994271750577,0.008013865391062983,-0.6194118316743815,2.9921875
0.19653279831438672,0.014180490477855306,-0.030077904626323402,-0.00849665466754182,0.006528049949245812,0.0008337992895576373,0.009681755947733336,-0.3932084348634033,0.004852019290360314,-0.3094413143080453,-0.01678619058667935,0.6959080421511847,0.004509699314624181,-0.17448575144171863,3.0
0.0005483335968648532,-0.003862043926581954,-0.00020248709233006493,-0.00030701947275688584,0.0008167342428997785,-0.0017140531159599698,0.001007359672664453,-0.14966733895153236,0.0011576027554771734,0.11948393115892342,-0.0055155016196407475,0.04093762289174339,0.002417005668105871,-0.004961542837025026,3.0078125
-0.12922389854329608,-0.017727259099729605,0.019818267750271384,0.004862026586494802,-0.0018428003288883685,-0.004124371355903583,-0.004529950887227213,-0.06846311559234107,-0.0007819835876104167,0.4650906529115373,-0.0007658963215607406,-0.36962811776569665,0.002829821507294509,0.10394922550341627,3.015625
-0.33573517394341623,-0.037757629520439775,0.05146178055807762,0.013349269764604705,-0.007288995395415876,-0.0071767549123437895,-0.013565147751488775,0.14717833446735984,-0.0044158537248138625,0.9481076883177021,0.009739986694448519,-1.047116778850402,0.0015440438590256917,0.2809310021335098,3.0234375
-0.3686038633663248,-0.03446809421719006,0.055744081049839085,0.015538883708107524,-0.011975685496269373,-0.005191232635121766,-0.015705254646556234,0.4533921239784698,-0.006718396138349417,0.8133530820968441,0.02067626423573376,-1.2322106209910266,-0.004800882878033353,0.32037669960645493,3.03125
-0.23167325903262967,-0.012511966049037813,0.03373861551791773,0.011036594762510461,-0.013471008895096623,0.00013483362839747666,-0.010652436834004077,0.6737888529678102,-0.00661350530120554,0.21052520161644667,0.02608568929912901,-0.8864989281492314,-0.012153770254935338,0.21804206002305482,3.0390625
-0.21976517466149975,-0.00897277516128895,0.031611133733697144,0.010862642975622847,-0.014548495001393514,0.0012056086763997402,-0.01038617782911583,0.7603470462956077,-0.007031779562717269,0.10685207361549649,0.028833415123165312,-0.8760474786699837,-0.014302692861039848,0.21188937048010156,3.046875
-0.21246899146175524,-0.01022158549461108,0.030720694614229934,0.010311844329343883,-0.013204715972905998,0.0005663612832231079,-0.009854093096281618,0.6708213996739273,-0.00638460119023041,0.15436205519814347,0.025663552223192273,-0.8288059729908362,-0.012397707302237614,0.202252859723313,3.0546875
0.12790872356946223,0.026441032055455782,-0.021821923746908115,-0.003216799760471078,-0.006405417068973283,0.007015246507240842,0.004638770999129038,0.470282328389049,-0.0013794382292011415,-0.7638417814899797,0.013655280169004252,0.2448343945422886,-0.013794713561798077,-0.08301990915347274,3.0625
0.41363937825994285,0.0606399194354098,-0.06633798352017564,-0.014133076743350043,-0.0027092785281056515,0.01373361781325256,0.01643403774445368,0.445023467347712,0.00191488851573325,-1.6469925854084337,0.008457526133893943,1.1053542880002047,-0.018213912019284104,-0.31663648657956894,3.0703125
-0.05322787774159401,0.008054305593285455,0.006017920826985355,0.004118764092604689,-0.010691896444309193,0.00402639087639471,-0.0031992075385343863,0.6246261154830351,-0.0043461958295060955,-0.31469974854817956,0.02169635575459116,-0.3396953846491738,-0.01416609514530836,0.07066370963173435,3.078125
-0.8356645272455424,-0.08877155777716503,0.1283236602069942,0.033589240167018274,-0.01895364674885264,-0.015562678898013873,-0.03516217106326955,0.5616350638873656,-0.012530287044400113,2.2035575648834085,0.031466736932223356,-2.6580368229886604,0.0008696976513854028,0.7048569035390265,3.0859375
-0.7305085267354924,-0.08758785520212976,0.11330748523527112,0.028103492108568523,-0.010882349032182352,-0.017444226526627984,-0.029588612664599116,0.07476501651533941,-0.008287876161195218,2.2523099742383508,0.01326978222866773,-2.205597652084192,0.010058631343109768,0.599296596125719,3.09375
0.24616178712737558,0.019196404771400107,-0.03767847675344269,-0.010501956919971155,0.00771800838142828,0.0016360175187750056,0.011830623353017237,-0.43659023513028555,0.005671171886138924,-0.43061749420749135,-0.01903003094958392,0.8561335614348621,0.004635837251665865,-0.21660885142319353,3.1015625
0.8310648969704956,0.08311098636047858,-0.12811748551100188,-0.033638390355168205,0.018883788855219925,0.013057858895772502,0.03664179625549859,-0.7449244967883063,0.014043729762174977,-2.037961532256733,-0.038425920734857795,2.6905866980127002,0.0014143522923053004,-0.7054659404654791,3.109375
0.6785879555469816,0.057121801566345956,-0.10346228447882024,-0.028831818397437817,0.021468105847942856,0.006544072530362502,0.031185620133986864,-1.0557649176674284,0.014341222307508313,-1.3179003569835404,-0.04666697153158591,2.3240389701294473,0.01106235101985176,-0.5943194713200104,3.1171875
0.7177674621968823,0.055893080249471656,-0.10887474375854006,-0.031093536357021643,0.025450493784937734,0.005222632948577698,0.033443500317202765,-1.306374513782299,0.016358919098276414,-1.2472817122956796,-0.05580131076050254,2.51220906225901,0.01604142943921223,-0.6364544951659331,3.125
