AF3,AF4,F3,F4,F7,F8,FC5,FC6,O1,O2,P7,P8,T7,T8,time
0.3781561390267367,0.061956229980628066,-0.06148805835888857,-0.01204597376728228,-0.006451475026177046,0.015022828636382315,0.014370208107168879,0.6814705235590403,2.4378583087646498e-05,-1.7183778856086462,0.017027859289285026,0.9315977294187784,-0.02291727846683767,-0.2778708619434771,0.0
-0.654806762409603,-0.10127715075430202,0.10424227240932708,0.02225695633176331,0.0035160375054237494,-0.024359067151720953,-0.024002589213836193,-0.8871609276525071,-0.0013541439604530811,2.76075902521807,-0.020617008562570004,-1.7058190393096313,0.030451412967274962,0.4978127284727311,0.0078125
-0.8284441952036442,-0.13807516029080233,0.13319723366241795,0.026797964532750223,0.01070225150475045,-0.03453591702459802,-0.02944204727005532,-1.5429643830979836,0.0009031752413751141,3.8175442207277976,-0.04028503960796827,-2.0370457698715927,0.04826870122587632,0.6119492183572701,0.015625
-0.5751670021224459,-0.10255175651288413,0.09308337918250058,0.01779669627716689,0.010903593906777611,-0.026580434457312545,-0.019549018456386968,-1.3461160872532871,0.0024338989243854418,2.864816972054811,-0.03744441720631656,-1.3365908672539946,0.03941904720302337,0.4140561514303274,0.0234375
-0.7196612362727582,-0.11148216746431486,0.11461215690066348,0.024403851560620814,0.004102821481536521,-0.02678083637798366,-0.02642085525415675,-0.9817809903971545,-0.0014621455724603124,3.0381801615831487,-0.022845125829803175,-1.8718987493347532,0.033711917674915805,0.5468448289586354,0.03125
-0.8650966344272805,-0.12278142197128725,0.13657159918575087,0.03075837302525505,-0.0013759570547960088,-0.027878320217717,-0.03308600436044221,-0.7128149193793735,-0.004764715870884637,3.289344503153634,-0.011479428994044588,-2.3829985851143256,0.030178004183667763,0.6763755924086133,0.0390625
-0.12496593813418047,-0.030739216136243707,0.020823532754904762,0.002952337756437635,0.006164492500275902,-0.009180070382923407,-0.002898428248031967,-0.6341665936493245,0.0028531458452502895,0.8940718407034853,-0.02009419805886246,-0.19570136902183624,0.015542655021739325,0.07729544235984312,0.046875
1.053476787123455,0.11418130652439801,-0.16329992510631697,-0.0415402656336704,0.019129159934647755,0.019982600760573864,0.04534228456213708,-0.5769762201454838,0.015415484673769235,-2.868515867889438,-0.03611883536856921,3.3065122682389823,-0.006234082392922201,-0.8793825531630991,0.0546875
1.2516865243504347,0.15957685180920975,-0.19678887126468927,-0.04629945981782592,0.008931147035822816,0.032902468896794795,0.05118637264476424,0.3132692705076372,0.011942220298389376,-4.187414301304728,-0.008827742352532666,3.6448370501568457,-0.02978585147315175,-1.0039605427316765,0.0625
0.18867188622086994,0.07773732026006784,-0.03655227672481519,0.0001743434802292397,-0.0315532809214508,0.02523093438439306,0.002391524126514126,2.3097243801093805,-0.012382698256258002,-2.3878111685729233,0.07536141050735992,-0.09752253213958842,-0.056394519161544504,-0.0565103326560306,0.0703125
-0.8175698868115265,-0.01175343589925026,0.11656470201799,0.04260785631128795,-0.06279589280104163,0.013384777936073233,-0.042498768565281585,3.69582499918655,-0.03221415945341322,-0.2920716449671068,0.13790266350820798,-3.4966295909126166,-0.07020892619660181,0.81951387877528,0.078125
-0.7076377839568718,-0.027548982470950393,0.1028861361376458,0.03465280999027544,-0.04431782526811517,0.0049280918991198115,-0.034829895622745986,2.472335379752853,-0.023248118062971054,0.312577091110475,0.09457306034021949,-2.820040070935316,-0.044497255490360065,0.6794404889744888,0.0859375
0.06462381442425871,-0.012031716914532196,-0.008287723298895582,-0.004816062807767139,0.010978987631517279,-0.006249126630960854,0.005369088274132453,-0.8200772857310581,0.006109448498473757,0.43728947902367116,-0.02929789616591341,0.4233749403842822,0.016424802531667046,-0.08503586846088008,0.09375
0.495264619527138,-0.024012552523449752,-0.06782226699217846,-0.029503917107228265,0.05396368710586775,-0.020343266591811966,0.030013309723500237,-3.5203297796702064,0.02796487241511049,1.179630895762656,-0.12780170935834226,2.4782769784463174,0.069918454826512,-0.5469589642909699,0.1015625
0.3713575042649646,-0.04314419663992569,-0.04799807387903576,-0.025329631140490222,0.05488354299227631,-0.024886314539611147,0.02535747981736402,-3.688534673502277,0.027674288824182453,1.702086914211527,-0.13164351894388762,2.156302165968018,0.07587383997797743,-0.45293717463171407,0.109375
0.16281890917931588,-0.01971106758807931,-0.02126572697209302,-0.011084537097545592,0.023674857156442845,-0.011333011813303127,0.011514178418551053,-1.6411870702811697,0.01239910954996103,0.7674123099274065,-0.05875776356678044,0.9505864657197198,0.03326485825819102,-0.19856630858195498,0.1171875
0.15381725733187118,0.033450587074210884,-0.026328809609324596,-0.0037027899571519854,-0.00838382165243282,0.009130814432635713,0.005282726645519582,0.632366521525765,-0.0021227717988376647,-0.9734109426240476,0.018791904154945475,0.27623986448649585,-0.017920897939711248,-0.09734173809027286,0.125
0.19246561301864087,0.05429671526768011,-0.03428849540399502,-0.0030754126424926017,-0.017432310108818884,0.016220292918418092,0.005127618799553619,1.3083798295869722,-0.005987291151302943,-1.6213046145409327,0.041219859091919234,0.19913508044653813,-0.03385477372194611,-0.10089212801730124,0.1328125
0.08361753505477738,0.02610869591520677,-0.015516785395905895,-0.0008858669705773801,-0.009916238898400858,0.00788672907645949,0.002268573844598759,0.6833985989492447,-0.003216134769234139,-0.7910963739624347,0.021597808717039306,0.05206744610274849,-0.01784857578064204,-0.038058027993595575,0.140625
-0.11634576008575438,-0.001458900227988103,0.016085927666427566,0.006278596233855968,-0.010366824081325655,0.0018056760067855857,-0.0055991035102988486,0.5494663966677497,-0.004559210431986389,-0.05591480973046482,0.020088820447693834,-0.5068944924108877,-0.01135714322404114,0.11919116355643061,0.1484375
-0.21548689743011498,0.0018024011206539893,0.02973619854109798,0.012026913359333924,-0.02055017095471223,0.005234397875136319,-0.01132476548884541,1.191426525016045,-0.00971900774515777,-0.24282647432589535,0.04345956925703919,-0.9857086521915605,-0.024134592381898166,0.22627928640527584,0.15625
-0.18575148152544457,0.005428280155567708,0.025090856298047984,0.010904187349024087,-0.020194163417393943,0.005942577779803143,-0.010097040687684638,1.1903262014671256,-0.009387303335454351,-0.33509670100446387,0.042956557091502125,-0.8966684520053515,-0.024608582994192725,0.20188608711538564,0.1640625
-0.21316138574745466,-0.01027932118765519,0.03083922189963865,0.010344863092641663,-0.01323330319991675,0.0005576577806921127,-0.009882572548590393,0.6720007029949467,-0.006401622412216382,0.15567899513239797,0.025710593063646182,-0.8310842519039598,-0.012404362787313591,0.2028168470058991,0.171875
-0.36303909107317633,-0.016412394511801435,0.05278560955536943,0.017596875083481484,-0.02213547502465222,0.0015524495027195357,-0.01734920291644258,1.1809663143109734,-0.01127404878306555,0.2318113592591368,0.045332067178898657,-1.4235156840057595,-0.02129841258114345,0.34595554049910365,0.1796875
-0.3948926931340055,-0.007776246441612223,0.056266426248390435,0.020416260105877278,-0.029878930571710354,0.0055635726033736,-0.020012708478231365,1.7056241750916992,-0.014949723603111236,-0.07786497454635044,0.06370716461589926,-1.6676468351111582,-0.03262109591882017,0.39353794836379347,0.1875
-0.14552196890038102,-0.028799963968322382,0.023479682533764833,0.004290360208354642,0.003315470247229149,-0.007978464329302028,-0.004219907646857703,-0.449048336972573,0.0014546582718403783,0.8116348866643484,-0.013449646995000437,-0.3091937303802575,0.011692092802892358,0.10143176426361401,0.1953125
0.1370998216406359,-0.07952503750124287,-0.01047006833298075,-0.017458701518181782,0.05676950839006101,-0.0335901951318798,0.016586351252539912,-4.017708421964383,0.027190848796762243,2.698651264796962,-0.13928705077143597,1.5505965249305336,0.0873893262403487,-0.2760358935073751,0.203125
0.14485106828141048,-0.08849518523719213,-0.01049927042818404,-0.019027423624360572,0.06269421621777249,-0.03718673023321707,0.017976552011755683,-4.432874837113701,0.029907113364404637,2.99846836322348,-0.1535592464266664,1.6913660156960888,0.09664540512844143,-0.2993917317896769,0.2109375
-0.021697820824405654,-0.03008800143036913,0.006098428105875743,-0.0025102310481309948,0.014401552903282776,-0.011223123092165633,0.002635438370473401,-1.135118728235565,0.00716051258908303,0.956697711447338,-0.03872443256481325,0.25486409895531964,0.025051762009873104,-0.027587979173055326,0.21875
-0.04576503179455403,0.027806476605876557,0.0025909191113334625,0.0062779333405902195,-0.02169811861508482,0.011393063901432816,-0.004925267357724597,1.4135014068258378,-0.009269142498078342,-0.9526104142095242,0.04844588354790434,-0.5422906427695422,-0.03211254313083466,0.09719004772343967,0.2265625
0.16901878566287973,0.044674774469497004,-0.029828087609135547,-0.003077418015822248,-0.013716844212291046,0.013078076378161389,0.004897033005135595,1.0242824806873307,-0.0044429704814287,-1.3283758922452509,0.03192919497141264,0.21027370013893637,-0.027062967916878015,-0.09370557203380825,0.234375
0.4956429021669136,0.06912519389032211,-0.0789881609402017,-0.01744417251885942,-0.0008780039240793527,0.015176062592218502,0.019964562617065792,0.38259306966165185,0.0032100636095962216,-1.8589826913875378,0.005087294308310604,1.3681862027871912,-0.01823305139831927,-0.385895437357873,0.2421875
0.7190060904589197,0.1166760644821509,-0.11628709098669344,-0.02326325305016575,-0.010251713655103925,0.028357263263245457,0.026938007495499235,1.2355065049006182,0.0002492990444804946,-3.225734960709571,0.03070102710830478,1.7919162519482148,-0.04135766141270049,-0.5323228579735092,0.25
0.554542452866988,0.10439011290782754,-0.09153047377273714,-0.016016837431608647,-0.016726447383047304,0.027296076544892463,0.01934818862905234,1.5593741952255253,-0.003607963383832579,-2.9571857141062914,0.044224789609653245,1.2084766094466213,-0.04580266157512064,-0.3851391458921767,0.2578125
-0.021120388013184502,0.0003588754024242234,0.0023902423213161793,0.0014066687802428385,-0.0034720911387655347,0.00036125992209095194,-0.0006251980065443657,0.1373697158008467,-0.0008997038402600758,-0.03421378150711148,0.004590082337578807,-0.1052829913042523,-0.0036833107599817247,0.02449037299338114,0.265625
-0.42703025882379475,-0.06953643228944688,0.0681881074636934,0.014134321466073272,0.003825912570423612,-0.017292966645117248,-0.015083283391309996,-0.7194016926017162,8.380694556013767e-05,1.9116315768157384,-0.01838030697174374,-1.0730086305979452,0.022711978803012126,0.3194058599257312,0.2734375
-0.13031215723248227,0.003265660282190456,0.01747612249098146,0.0076367883344441,-0.01431133027292557,0.003919590863959426,-0.006862416560709095,0.8182551804408534,-0.0064168481883633355,-0.22233833302621633,0.029453550128839868,-0.624793547811943,-0.017180304007523062,0.14154588358756787,0.28125
0.3298601116869922,0.10401374930546135,-0.05969117923715398,-0.0040046993211755215,-0.03526551019282616,0.03215240180251199,0.00720234144846492,2.692134263057622,-0.013258202678165512,-3.1316934511239003,0.08622980128786205,0.21539921676786192,-0.06749556696826435,-0.15543890038036384,0.2890625
-0.0781025638935514,0.03284374144016564,0.006583516072024318,0.008683814312406205,-0.027377612890419033,0.01402813687137562,-0.0072268015749548,1.7912718937332224,-0.01201947917874768,-1.141959379625526,0.06177026521361126,-0.7465027331437506,-0.04004930963545016,0.13931175078712976,0.296875
-1.152750770585077,-0.17743056657386116,0.18383319392992267,0.039125656058842,0.006824414054013116,-0.0423766874400329,-0.04277276750488419,-1.5367119316357234,-0.0026960297490519827,4.838447098772063,-0.03514642305239712,-3.00759087431483,0.05378951648312817,0.8762120025222042,0.3046875
-1.5010906222640263,-0.2714554628314357,0.24435645022664715,0.0456273572996138,0.03314458630963012,-0.07051160720604084,-0.05149856615657208,-3.699507473529017,0.007202782938848895,7.618880565637785,-0.10345795303942944,-3.431534916770829,0.10867669257862608,1.070220772107838,0.3125
-0.6256565358127313,-0.130882027569799,0.10362128955012352,0.016836675971724592,0.023377544414658377,-0.0362712385050196,-0.019220407002337476,-2.2761508197980933,0.00777560095866525,3.7479489616206183,-0.06834136041653421,-1.222795669707,0.06130808946251171,0.41667133056303346,0.3203125
0.3837212855048191,0.06797891493497804,-0.06301366646588953,-0.011574458254580937,-0.009544524907122143,0.01721753006618868,0.014020572949656033,0.9063881546251795,-0.0013418405597772271,-1.912644345736472,0.024613318291307487,0.8845872221097413,-0.028103804776148614,-0.27311010839567523,0.328125
0.7270577924639174,0.13195803817054763,-0.1192366827411809,-0.02170630690344582,-0.018576780913140876,0.03399799007952199,0.02572305386533771,1.8346685340484108,-0.003464279172941757,-3.7165915499381716,0.05097312234535361,1.645129356814972,-0.05502919184153169,-0.5141399075253469,0.3359375
0.8981424508341009,0.09361062792822462,-0.13886138453512564,-0.035870183327807705,0.018299539768066177,0.015568698741441416,0.03914541759485987,-0.647451374790265,0.014158704022952745,-2.324123192205431,-0.036142076367267226,2.8627605880691207,-0.0019538266603088003,-0.7560539439626056,0.34375
1.165658576434719,0.06797687273691567,-0.1736777397673831,-0.05357262193421897,0.05572342628595898,-0.00012868618468945888,0.056422875200447385,-3.088182184408566,0.032576820397593076,-1.2697492763912779,-0.12331116722765668,4.356761199654943,0.04850631941546774,-1.0746868804659309,0.3515625
0.8057998265432119,0.05424696302899774,-0.12111898748604374,-0.03603070262184387,0.03377303978686145,0.002623216317118251,0.0383917030386527,-1.825207669005016,0.02061796724736071,-1.1184802348647307,-0.07481940740814064,2.922840568347573,0.026237761156316913,-0.7295779899560012,0.359375
-0.24887290665218229,0.015190600804029905,0.032830694322389,0.015554069791399986,-0.03123348205514817,0.011096217987180324,-0.014580628865285411,1.923841089500347,-0.014732897084357871,-0.7084484631587965,0.06890073750955657,-1.2937793176555854,-0.04008798898233099,0.2837234040486972,0.3671875
-0.7913033694810759,-0.009778945433910127,0.11260612541015469,0.04145630677825914,-0.06178038840922994,0.013575367260135444,-0.04129573146886458,3.6463123618255366,-0.03160861363242988,-0.3364167834082332,0.13580884610612212,-3.4039979580172495,-0.06954806357519022,0.7963232197559451,0.375
-0.3521577295749315,0.0004970550482890191,0.049229327350075146,0.019203747759420055,-0.03117662843796242,0.007750891091536479,-0.018589096688025348,1.8333112426830063,-0.015289964873719171,-0.31043391847330065,0.06738398955944572,-1.5766657733069385,-0.036232046307838925,0.3639631671781067,0.3828125
-0.006791082483436425,-0.012012604928949247,0.0018373224510973983,-0.0009740399518146513,0.005012514273408297,-0.004668720583369969,0.0014932325452348366,-0.45483639091661404,0.0030129657308830787,0.37998837375922334,-0.015780280438051644,0.10609723280070266,0.009434079614650084,-0.011673934577589322,0.390625
-0.3001980841054263,-0.05600625636070712,0.04861646285685447,0.009072830536490698,0.006431140061817128,-0.014930819759855857,-0.009665762180584304,-0.7994500702720139,0.001979432135011399,1.5728648011045092,-0.023031649431941748,-0.6716777344589663,0.02230488083897268,0.21289699808575618,0.3984375
-0.3463749830857049,-0.052560389430518606,0.05473459708201757,0.011999261267488338,0.0005358049929676928,-0.012581244121307986,-0.012546384332863394,-0.4180450247835524,-0.0009472396410526705,1.421267288155541,-0.009340013493154322,-0.9180136513504457,0.014487917484608847,0.2662800351335155,0.40625
0.21525785743236858,0.010681846343895471,-0.03231752769466265,-0.009958886456700195,0.01014952429279128,-0.0009068382327120595,0.011075188947222515,-0.6352652680391181,0.006591391471222652,-0.18136787036288257,-0.025304402774613096,0.8207353407919712,0.009637245052151536,-0.1997504431652193,0.4140625
0.4708208858125312,0.04464949506951953,-0.07253786309762747,-0.01927296982346297,0.011476670309637393,0.006372485680405744,0.021266226306769432,-0.5174613185281554,0.008647541640395566,-1.0783520433095437,-0.02519804924130935,1.550058941724371,0.0025456640657444724,-0.4028792946545931,0.421875
0.10957427438365934,0.017496684019336947,-0.018143124396052444,-0.003387000392022335,-0.00266889952867774,0.004009231456789062,0.004611105838909396,0.18886187083710354,0.00020446297033135567,-0.48689930043856683,0.004351570635325576,0.27017879105398174,-0.007120439320696226,-0.07969859945208152,0.4296875
-0.061055693650501196,-0.005771241041382287,0.008793940469939185,0.0027589274805742167,-0.0032070053349454097,-0.0010820781864944997,-0.0021307493579259327,0.0856531953007077,-0.0010121643289086714,0.13226523255094477,0.0034385471513074103,-0.20980411407759458,-0.0018265217021533262,0.05492469457037053,0.4375
0.05534585386503455,-0.0008995000352145602,-0.00828253750482224,-0.0028702849653991585,0.003632570945054043,-0.0017910382226320933,0.003654630138645202,-0.3042429447834417,0.0027383222598192786,0.06699539509970506,-0.011600330158535458,0.249033444133099,0.0049453119133719215,-0.05594470439444734,0.4453125
-0.3408474876045619,-0.014401850957817682,0.04938459060817358,0.016647563374982258,-0.02146860987336951,0.0018433521533383617,-0.01636616460679892,1.1520008270727944,-0.010845536767263781,0.1815971689289852,0.04403698611946542,-1.3484721668137152,-0.021064638238150184,0.32656581968109577,0.453125
-1.008724226259191,-0.04963442628703381,0.14812280273753464,0.04795084483312645,-0.056440171608742366,0.003196775300498699,-0.04877292148662367,3.0848396160580305,-0.030433404444883665,0.7844431190854989,0.12002767464176402,-3.8932501341083974,-0.05310248768256231,0.9499349844739187,0.4609375
-0.708884645241612,-0.048870044946596705,0.10560645905195085,0.0319592511672213,-0.03187268515453945,-0.0031637047336493724,-0.03259788061462221,1.586230344864086,-0.01763866087469253,1.0067735285119852,0.06441113847422983,-2.5716780631668703,-0.02445523916192667,0.6440965180995366,0.46875
0.5498122851853965,0.004215639529964066,-0.07888228470701003,-0.028751375007446407,0.041887249438740684,-0.010804769919778025,0.02991882408995909,-2.6152891815654673,0.02282085251154734,0.3067211497530669,-0.09784584648995573,2.3828246500400536,0.04855682257922756,-0.553783482925544,0.4765625
1.2705903098016358,0.05029686416299813,-0.18640864106846583,-0.06149591423092492,0.07489458919349937,-0.009193011727458211,0.064024837209046,-4.364527472799587,0.04182483615163947,-0.6071610834797989,-0.16837810905120226,5.033393058084589,0.07551524546548036,-1.2127218487279874,0.484375
0.731745258056587,0.03233488527828634,-0.10799882180756547,-0.034897446137887665,0.04051450710919219,-0.004100774527019617,0.03674510275293313,-2.366349188363164,0.023239913442148857,-0.46404634925569715,-0.09210569926100762,2.8559152053086008,0.039736068511659194,-0.69174979361511,0.4921875
-0.12584089044209132,-0.028464893653927938,0.020646243652154568,0.0032787742865345677,0.004757121049275406,-0.00828864528996903,-0.0031913170470234883,-0.5352465547661911,0.002216943470048787,0.8166242014686854,-0.016688356139245967,-0.22615454325105935,0.01329603189940005,0.08186829218040878,0.5
-0.2988132209712823,-0.048350760847129415,0.047503990612428035,0.010002540929085436,0.002025676924751906,-0.012043230300848464,-0.01042202559111797,-0.4848297329590099,-1.8692559810951713e-06,1.3248543113182003,-0.012358868095480287,-0.7573385456197105,0.01518970306929792,0.22485513255877143,0.5078125
0.04778771295706019,0.013559757270813724,-0.008947629601788312,-0.0005789381049170889,-0.005516056783972343,0.003885244111192417,0.0016860901307602443,0.339979466003321,-0.0014331541722300578,-0.40955589003054266,0.010432086622478888,0.042608555710969775,-0.009450996600844643,-0.023112666624023896,0.515625
0.18743458657684092,0.08209681788317773,-0.0368939943555461,0.0007998302862483591,-0.03422186099836814,0.026928742634911504,0.00185393562973806,2.498735367371925,-0.013594833725973027,-2.5311875707465386,0.08182624811281441,-0.1547982017169087,-0.06064838047265417,-0.047677931162460024,0.5234375
-0.11367448966389963,0.06234478031975456,0.008086155328367262,0.014400164133779151,-0.047712857724607885,0.0260723334607249,-0.012342232492443497,3.208359106843027,-0.021397923794280398,-2.135179835468702,0.11059890555174166,-1.255643386077798,-0.07146040209392016,0.22663242170456752,0.53125
-0.4450937714119063,-0.013686670559141153,0.0640654812547487,0.02234216723225615,-0.030596239940773515,0.004425833345112097,-0.0221003965076227,1.7147800237736608,-0.01555798071178862,0.07250543567174786,0.06478806610954871,-1.8200168233529619,-0.03196171964054207,0.4347348785486358,0.5390625
-0.4118161856245557,-0.04165210102170889,0.06268329156890665,0.016939259776835643,-0.011355145993447032,-0.006977650893745192,-0.017272971877095516,0.373311382823112,-0.006683457224921874,1.013083381970317,0.01857740077808979,-1.3389376425469144,-0.0022183064092434943,0.35233903866079536,0.546875
-0.16145626606910968,-0.014146008582793657,0.02396970779246874,0.007066555867337368,-0.006657849773369642,-0.0020445982467686423,-0.006666687369789534,0.24740250487060833,-0.0031393771766275312,0.32287894986731497,0.010461167078211094,-0.5556367383451569,-0.0037174206787726127,0.14334647597711095,0.5546875
-0.050988432751577176,-0.0037279301796332835,0.007110027036509053,0.0024799739095275825,-0.0035619722730595247,-0.0005258449012372003,-0.0018013391814996821,0.11919790653671576,-0.0011154854549801896,0.07380830546313408,0.0044290545155684915,-0.18922926176881558,-0.002765197506959302,0.04799728110396318,0.5625
-0.032356185529353446,-0.01700852431650677,0.006059932911274454,-0.0002526458986201827,0.005820385646851615,-0.005997084569826476,0.0006433840748230858,-0.532849620956312,0.0032245789629479263,0.5202510931359411,-0.018031729031900236,0.05206362486256904,0.01160918699743569,0.005820436008501699,0.5703125
0.11788306476071507,-0.011373532913245724,-0.015899832647162295,-0.0075944415517940735,0.015030897097716165,-0.007165488590713653,0.00818066654236428,-1.0634200091592818,0.008238734915509685,0.4577003407621369,-0.03838388853000649,0.6516227411464999,0.02098082895724694,-0.13828838146552055,0.578125
0.2635729427041155,-0.0006602819441629028,-0.037807289747534216,-0.0140228875149693,0.020870016515631237,-0.00630936366396109,0.0149225591947758,-1.357877080156702,0.011705860468235,0.22868715804297357,-0.05064977208229028,1.1703994245377145,0.02512305903472866,-0.2688993583063985,0.5859375
0.2885490435157722,-0.004254776602194315,-0.040888683381706564,-0.015819988532259754,0.02507153446421978,-0.008248195436299998,0.016664205604580616,-1.6361147989718792,0.013745363812945628,0.36933970904978125,-0.060521806629607405,1.3242107478521852,0.030989379313766226,-0.3006943518045908,0.59375
0.4997818867078222,0.024258171990399424,-0.0741754664891203,-0.023464514546761583,0.0259058247996923,-0.0020596749544252854,0.025036950908449682,-1.5199079400330653,0.015324398301732869,-0.38690519773147797,-0.05978315348455681,1.921884880636392,0.0246857806280167,-0.4678606411349529,0.6015625
0.8030018129121022,0.08066964114374264,-0.12385267868636197,-0.03244341843930421,0.017979359030716593,0.012750901609302007,0.03538515492078269,-0.7038583914152505,0.013472912761486013,-1.9812161928306458,-0.036603232198352535,2.595004379901307,0.0009688766299798879,-0.6809597784595448,0.609375
0.31020061046586495,0.048367973959481655,-0.05026818807007416,-0.010178319104857381,-0.004114939851497833,0.011364210191735925,0.012155824418918612,0.45850010247044914,0.000695029060968127,-1.3334337843644943,0.010500855740933887,0.7927894508883374,-0.016719295668821847,-0.23186948870021765,0.6171875
-1.1220251221102515,-0.10063143760532979,0.17026346888828306,0.04741602027583214,-0.035853087343052134,-0.013739356663565253,-0.049405153117782236,1.5259604966106521,-0.021784279670787426,2.355140994468876,0.06868241836627666,-3.7874682586571304,-0.015919452436593037,0.9778262561944175,0.625
-1.9696606799250578,-0.19153949776823453,0.30113207827428,0.08115886169622814,-0.053028186601018094,-0.029653049363426998,-0.08554496837601883,2.043130320909159,-0.03436286574487013,4.629154928732662,0.09920468186057263,-6.465774868054955,-0.012854439467018475,1.688969485964685,0.6328125
-1.0341922990736976,-0.09404435274212683,0.15707733461160378,0.04357055518089665,-0.03240169876772015,-0.013199770190312855,-0.04535492395087492,1.3531548506960152,-0.019727899195428913,2.215375626454429,0.061439803241464246,-3.4763531308222895,-0.01353597858620102,0.899092811232879,0.640625
0.6312892698535514,0.06682031736010569,-0.09791044201962724,-0.02501500097701331,0.011803655957973407,0.011273268812198962,0.0275706188092555,-0.40723815015616577,0.009706595483856205,-1.67032222533037,-0.023895145657076924,1.9977912269255547,-0.002741435950019581,-0.5290087419037031,0.6484375
1.2426658024744834,0.11050399143177482,-0.18968738091755213,-0.052190021131680725,0.037079007645754204,0.01440898345420947,0.05599806481879879,-1.6968536879295044,0.02459634203907005,-2.5964888914026747,-0.07712394991325333,4.190658921138263,0.01574880307272313,-1.0797018531900522,0.65625
0.7482596890225081,0.059471777387190825,-0.11360214658069173,-0.03225647634739148,0.025884306131531098,0.005900140194867835,0.03470123805964826,-1.3111593206871248,0.01672854123678937,-1.3366902730188792,-0.056450695904420874,2.6046299534578705,0.015632949436633906,-0.6613263049859509,0.6640625
0.31532770153983336,0.03457381526823342,-0.0493333577629241,-0.012229146340713747,0.004426724797350701,0.005983496412455643,0.013917582325046989,-0.14465181759019072,0.004576556368276234,-0.8780600966612178,-0.010132818614094555,0.9795762932539496,-0.0031843216487920287,-0.26089188835886784,0.671875
0.28966440324356996,0.03959919513193547,-0.0462952369810555,-0.010194127148814368,-0.0006740728333567747,0.008458306566019464,0.0119858646987923,0.19655532080283336,0.0021259359752175953,-1.062019691231942,0.0018719456413933376,0.8056105786092893,-0.010442502494948162,-0.2260553065404108,0.6796875
0.17564432667653415,0.019478208418961432,-0.02774674213298873,-0.006680797292496856,0.0016695366556620107,0.00330742604212269,0.007979431332147418,-0.06495591437859315,0.002534922803726293,-0.49855914079031144,-0.005294197254178686,0.5397078703942776,-0.0025486652960792344,-0.14408163616645867,0.6875
-0.049332931482370376,0.006273831674519365,0.00568332253249753,0.0036826012176090226,-0.009315643876689053,0.003258378540531168,-0.0027915885204669467,0.529903430049281,-0.0037013133671303443,-0.25256794668457405,0.018399341958629932,-0.3011755381750872,-0.01206625503064424,0.06369184983027674,0.6953125
-0.023106389697084655,0.04059529630074265,-0.0021274721827792106,0.006718342455746015,-0.027340714963262142,0.015771069426977702,-0.005078006817041672,1.8342586319398018,-0.011684983371547344,-1.3515068581385057,0.06242304789131511,-0.5940601506093375,-0.04198231750613293,0.09629475798328598,0.703125
0.05479251558811991,0.053579137466112176,-0.014705912994502395,0.00421987982759171,-0.028493892175317975,0.018994717030853366,-0.002259254914418185,1.9808406457790468,-0.01176135186484342,-1.7106427010852883,0.06622489753571317,-0.403170984340198,-0.046651765224499965,0.038916576504952734,0.7109375
-0.25888460742557984,-0.020502774551262332,0.03854709344781757,0.011468211538247041,-0.011033926160177893,-0.002319819766258598,-0.011265021386554894,0.4776064334033519,-0.005667484611465608,0.4511153794034769,0.01980684138258414,-0.9119441252280802,-0.007242812724563454,0.23206694458942226,0.71875
-0.7197842398112849,-0.1079194953218423,0.11422312126140288,0.024890119068502456,0.0020030982221275044,-0.025453332624739998,-0.026808876056666632,-0.8331968119878106,-0.002407909951589321,2.92603750604303,-0.017809948873796895,-1.9151930792894443,0.03038537404178438,0.5530373140785844,0.7265625
-0.7353664211820571,-0.10882614280882791,0.11651197774254855,0.025601804414188963,0.0012396550529503543,-0.025443136023391662,-0.02755211925159766,-0.7919367873140768,-0.0028411186875859184,2.9408115772315364,-0.0161573399405058,-1.973531179047777,0.02971949641809272,0.5674082182215058,0.734375
-0.3517820195343971,-0.05449021537661755,0.05570228531223281,0.012034567243589386,0.001238184818048022,-0.013201778886114537,-0.012623815599113533,-0.47301610935067223,-0.0006579740724849204,1.4797971323518175,-0.011125108135081701,-0.9187305903536576,0.015824183470843245,0.26830977745100165,0.7421875
-0.06612933888835326,-0.024767811150404044,0.011721537391795564,0.0005450264475326459,0.00756434240807931,-0.00819081604355824,-0.00034922089285981795,-0.6854028786943196,0.0038227294311400355,0.7438034197316051,-0.022706190476997696,-0.00509307546318386,0.015640684821452897,0.02700616710093505,0.75
0.042910637423266625,-0.013035557609541495,-0.005091192834539909,-0.0037787136474277823,0.0097533491275702,-0.006143004749587659,0.0042937791427507385,-0.7500740127647926,0.005430414319878609,0.4522834858226156,-0.026588552017012244,0.3387406394170152,0.015221015176022345,-0.0643124018559867,0.7578125
0.21654629098989453,0.004865225813550224,-0.031785034222938637,-0.010769128525495171,0.013693916131940244,-0.0031744543003660373,0.011774200147219875,-0.8860528632409073,0.008197573280679197,0.012450885797391589,-0.033886619318625785,0.8955603489561318,0.015297209206635007,-0.21111026883459244,0.765625
0.36664106789146694,-0.010465445512507917,-0.051185151501779234,-0.020814384879807055,0.03523887368438833,-0.012348654532617099,0.02156821924406223,-2.294727101402854,0.01877795107389087,0.6358019458488926,-0.08414012787042599,1.7447934868129347,0.044502331702294035,-0.39147249123246003,0.7734375
0.29724834573742176,-0.04838976185770194,-0.03683129792778002,-0.022014211582587564,0.05178321440455338,-0.025267104114532615,0.02190258999937059,-3.530005601341184,0.02585167385516122,1.8147888144176647,-0.12512335390703436,1.8897095206512238,0.07358546041646312,-0.38615951658986897,0.78125
0.2537984464644234,0.003703325840207839,-0.03692236341796323,-0.012937874289943325,0.01747849805687451,-0.004423775853270426,0.013918934960674275,-1.1249758276008777,0.010119982044300748,0.07795813945678215,-0.04255341893762337,1.0755387638918932,0.02001075550770947,-0.2514719184598188,0.7890625
0.48917346820695007,0.15972232500850814,-0.08889939192148537,-0.005349648650657549,-0.054776673275960315,0.04987351191641724,0.009824542341779516,4.212657404819851,-0.021155970444536314,-4.819555494594479,0.13559779961031607,0.2584621188751217,-0.10461852302382035,-0.2223719580435856,0.796875
0.6385159621987854,0.23908791457252898,-0.11951774530613975,-0.0030679867866314323,-0.0890641042309316,0.07682654205940782,0.009346599966511574,6.776879891685277,-0.0357843191309986,-7.2848433761279185,0.22061103096576004,-0.026152519597452187,-0.16510484038725112,-0.23784191773560684,0.8046875
0.28751188006260325,0.12327344477889225,-0.05597741087427094,0.0007746441140596373,-0.05013103526336208,0.040413281687759824,0.0028293763139698963,3.714340343903043,-0.02020853865356051,-3.792149677575489,0.1216730789250909,-0.20251795447470067,-0.08982666771748876,-0.07876997569873671,0.8125
-0.23610183826020192,-0.05188906569985003,0.03906980029926939,0.006177086082881287,0.009361385446387949,-0.01480183024792338,-0.006632844198468741,-0.9549566184238454,0.0036674965014787493,1.493363381711611,-0.02931916186180527,-0.4363824529061377,0.024720081779667166,0.15427170481268332,0.8203125
-0.3935904098581377,-0.1117015816039313,0.0684874144405535,0.006866504277519153,0.03145225310094249,-0.03411412743614399,-0.008709126950004606,-2.6579791053710116,0.012744353599030173,3.3138229375947112,-0.08488737023019766,-0.4213853589610055,0.06590284495624668,0.2120013610166183,0.828125
-0.3090349385925371,-0.08330100911516201,0.05310998074178826,0.006005733644650587,0.021770042003767892,-0.025139397667227163,-0.007196728010535797,-1.8981545650220575,0.008853121160576446,2.4554455112102596,-0.06030754370055617,-0.38509166263937156,0.0472690112375082,0.17468114397025555,0.8359375
-0.3759518441567483,-0.07443868976851738,0.061531809132964924,0.010758953036125276,0.010961571304676374,-0.020277090496150462,-0.011785319076333926,-1.1841816345932137,0.0035902748107558514,2.112569608557381,-0.034996139297613166,-0.7883741517262575,0.03232101686742115,0.258763989946896,0.84375
-0.45118954337440614,-0.07753776699082021,0.07256923475221265,0.014404814307304803,0.006515958025706231,-0.01980748350488658,-0.01552785478372422,-0.930727024841851,0.0011565566788905078,2.153627833145612,-0.025225609424067718,-1.085447740292964,0.02791486519340687,0.33044333793058867,0.8515625
-0.20241204767689633,-0.0426702818578409,0.033192988039245745,0.005559224085470427,0.006744419651398045,-0.012029789742008296,-0.005802580598485461,-0.740899350568842,0.002680686764694408,1.2198317197999193,-0.022538259912756962,-0.39662650401117966,0.019292865032275314,0.13568500898146493,0.859375
0.1376576184624279,-0.001902093741119547,-0.019825463238932993,-0.007428435179218505,0.011105958936510769,-0.004006573882491347,0.008231439954560512,-0.7685971715819357,0.006587379140692684,0.16694515849558286,-0.028649490477154524,0.6269881476312836,0.01398928502433279,-0.1422847154579609,0.8671875
0.08194648128758848,0.0028259031445127063,-0.012515196759586872,-0.003824745820038917,0.003666045069077561,-0.0009542809037451983,0.004696119071297576,-0.2847438026016291,0.0029083092737004525,-0.033834993595489506,-0.01132959119495075,0.32306752167435293,0.004028770556735923,-0.0768597480835823,0.875
-0.30441196761059636,-0.00042549686085197676,0.04256625105680568,0.016511865066489138,-0.026662668689881742,0.006369253242563035,-0.015904780102143162,1.5527316219872138,-0.012986582661404872,-0.24375803571081694,0.05711064006530931,-1.3539042301226452,-0.030740127185797536,0.31361414740275845,0.8828125
-0.4527866636786745,0.019051209627412278,0.061261526420024165,0.027015106447112126,-0.050518588353055865,0.017074956122109238,-0.0260543151251636,3.126585484441554,-0.024601546179772983,-0.9995806369552748,0.11295605728646929,-2.2453808580422883,-0.06369780182460083,0.4993888314100846,0.890625
-0.0604791337922658,0.04245319639144587,0.002952662129549445,0.008982472300709383,-0.031568157157895585,0.017298409715544243,-0.007308679351970906,2.1036914953757058,-0.013811974405710012,-1.4410552396316219,0.0721509768645987,-0.7828638162029649,-0.04742015214066428,0.1377601737509162,0.8984375
0.5167621557363453,0.046571480312867536,-0.07925202083683211,-0.02148985591937841,0.014173946110281478,0.006083457570580929,0.023547906290641605,-0.6712450642618663,0.010124654660445816,-1.1030906067054476,-0.03113102895941084,1.7310003506694456,0.0052108424246031645,-0.4466906060681921,0.90625
0.6582794263988582,0.02041970173836304,-0.09618312969641883,-0.03248823145610313,0.04138598949637828,-0.0070119226260217694,0.034047374137825055,-2.4894281732887866,0.023214066758827978,-0.13533750547277523,-0.09519754870350336,2.671457186256212,0.04381418873737399,-0.6369033390231303,0.9140625
0.22357545272011545,-0.0393209015920443,-0.027530714263789616,-0.016891767771606104,0.04030039651001057,-0.02015898777054041,0.016931060790485675,-2.773480743652248,0.02024834552328655,1.4568566575408464,-0.09824246823157613,1.4543345062891306,0.05778911665838506,-0.29480958964732135,0.921875
-0.18537777417838566,-0.08050369162951142,0.035282179296983775,-0.00026640566934653447,0.03043876841868566,-0.02681620120540756,-0.000792910154140528,-2.4121955293802446,0.013469632609438183,2.466375626374778,-0.07970579813678065,0.13018991911098643,0.056741809481718475,0.052890911988825014,0.9296875
0.050411002950675056,-0.01826056650099143,-0.005514988505264288,-0.004854272289874934,0.013460899466012416,-0.00831591156928208,0.005268874122130433,-1.0083889059742763,0.007150952208624372,0.6304148472551292,-0.03550276526466914,0.4344358803807907,0.020941130135589008,-0.08107407001809402,0.9375
0.6850616110292406,0.12292824379601094,-0.11221431113109467,-0.020629325641774405,-0.016743344949219384,0.03147120308615137,0.02442649946531897,1.6687070507409023,-0.0028695783014854935,-3.4556792221392887,0.04597478128348622,1.567250815732707,-0.05055382889240483,-0.48697795728451504,0.9453125
0.9093583418346414,0.19291217855302029,-0.15233500331791527,-0.023603432692085667,-0.039259265137484095,0.053205172756657766,0.029024079072660906,3.457728167764759,-0.011759175857586983,-5.556259040562794,0.10347345733309708,1.7276562414561796,-0.09486360567606106,-0.5955638804329362,0.953125
0.4414803787270636,0.11200244734367432,-0.07644982221352623,-0.008971570101010157,-0.030650825098404,0.03272028218891793,0.012393409584746494,2.4562169874809308,-0.01053890136072051,-3.300809714252071,0.07651061767875621,0.615826384619151,-0.06411746252574946,-0.25614768707587793,0.9609375
-0.27364927126008604,-0.02849480504950613,0.04156670311680519,0.011215782934098435,-0.007562964927291117,-0.005025185828682462,-0.01120215485400915,0.21845910963303786,-0.004186528471409017,0.6971553190509486,0.011220999827308885,-0.8822012729700238,-0.0011464339897612394,0.23335768901928625,0.96875
-0.8208570483112093,-0.11522251385324779,0.12940000959671644,0.02936290507684737,-0.0021306341515734727,-0.02598834311628505,-0.031499558505632005,-0.623352608387512,-0.0048477111764316195,3.0790071485517196,-0.009104381932486035,-2.2763198999574352,0.027386066553344114,0.6438682608581306,0.9765625
-1.0758066978308733,-0.1360268919440629,0.16798063291683776,0.0403640016115165,-0.01115068754870732,-0.02827792760844226,-0.04307515015551229,-0.19344397741377872,-0.010372075714941682,3.549376678633928,0.009411091331165524,-3.1600821845725915,0.02211794612329109,0.8691418170918827,0.984375
-0.9329978090886075,-0.11822278517483964,0.14562891385112006,0.03500281410883268,-0.009727972971072916,-0.024646493954881835,-0.03725879272562067,-0.1756474788919701,-0.008918782054415438,3.0854706454313074,0.007836596934325772,-2.7388900778464107,0.019232754364884416,0.7537271852123127,0.9921875
-0.509078647422155,-0.07538886647927419,0.08049381773296896,0.017782255910642367,0.0004142334100216665,-0.01769531441821815,-0.01890373331573536,-0.5446691742232682,-0.0019268230636830556,2.034820651748279,-0.011181079874999413,-1.3679437112106203,0.020183421579078587,0.39347731982113154,1.0
-0.2765570972444907,-0.040626958512122245,0.04343247457446642,0.009797416285180357,-0.0006531315442845925,-0.009589074671016573,-0.010050203081550833,-0.2754070071510204,-0.0010844110306683211,1.0909727460775658,-0.005547455651634829,-0.7501266719328282,0.010047969185811627,0.21527325143231218,1.0078125
-0.3297940018116439,-0.03788731702485363,0.05065464053286145,0.013018866823177126,-0.006707291890977973,-0.007371145440325366,-0.013229236543311842,0.11106849056763138,-0.0041222168390631945,0.9585462341092204,0.0084151281756051,-1.0192919484069363,0.0022533088965059223,0.27453926845625476,1.015625
-0.09921968195228645,-0.023245678404738034,0.01626863611620633,0.002544362638304458,0.003903358973456492,-0.006899520397898396,-0.002306777791293362,-0.45225511237822547,0.0019785166366834434,0.6705424121010688,-0.014299009184878187,-0.17091218578017273,0.010987605433306374,0.06371791844364685,1.0234375
0.593742195710647,0.046388559165943935,-0.09014870068307176,-0.025644215317987804,0.02070845779947136,0.0043084106519718016,0.027744431780491192,-1.0719766317266968,0.013511128979376013,-1.033623766954235,-0.045963617978293264,2.0744783082674054,0.012941562921215758,-0.5257782159074644,1.03125
1.0692546747431724,0.12218543449201469,-0.16651603370145085,-0.04136623773992307,0.01574545430284476,0.022688295264866452,0.04533869217114576,-0.3235685369462629,0.013981107264363642,-3.1179812979426313,-0.027707361592934784,3.2816172685566003,-0.012244485811547504,-0.8819154724531063,1.0390625
0.984146727847859,0.13533080100663455,-0.15603950654974608,-0.03509777446379966,0.0008999800480333437,0.029594990772005395,0.03930226210567219,0.6621037627480122,0.006796721113144228,-3.6178455246927497,0.007163475750550024,2.7472630456760263,-0.03303826469610616,-0.7719618157701347,1.046875
0.8763670945373474,0.1026948248346147,-0.1368915864674816,-0.03353360145701827,0.011117404775698177,0.019540924613709498,0.036981509868494834,-0.15434415913217023,0.010794887066162114,-2.641879764742201,-0.0190109121507755,2.6578057369459622,-0.012714418514785854,-0.7178531422633128,1.0546875
0.9301105096366811,0.07374819279635451,-0.14104211270005196,-0.04016192734266065,0.03264440144833207,0.007305391899631665,0.04302189386619864,-1.6414060381938598,0.020817233392282853,-1.6524077713473713,-0.07048666612992009,3.241327346309195,0.019953961490776873,-0.8229300105003262,1.0625
0.5071516240698516,0.03972012204990474,-0.07708988513229377,-0.02185841629290277,0.017407226188561695,0.0036829673322243215,0.023766149008975494,-0.909002157922637,0.011529953950826323,-0.8867504147518933,-0.03909679364270597,1.7698669987974212,0.010764910140211727,-0.448579739769681,1.0703125
-0.48752091728068253,-0.02455260528744015,0.07139718414421266,0.023215983196052538,-0.027713206558768425,0.001198312144407514,-0.023221121112441616,1.4744445963950878,-0.014501149387177286,0.39588480569639334,0.05724759741155645,-1.8783731391783836,-0.025792104692743727,0.4591644526754816,1.078125
-1.121649030144242,-0.08669025399675503,0.16856481401182807,0.049204706680431864,-0.04402464245522884,-0.008439802894994734,-0.050891380957184006,2.107782942692218,-0.02547378941049854,1.9015593236868138,0.08849674680269028,-3.9518381917840384,-0.029087749325640823,1.0013517710532587,1.0859375
-0.8840394649039018,-0.0944656947766901,0.13583513345583118,0.035437147909560644,-0.01963578318939938,-0.01665193201707323,-0.03716936601437628,0.5698817570114516,-0.01311086388586725,2.34755374542248,0.03250214053291475,-2.8045734465056515,0.0015180863938934427,0.7445900614511386,1.09375
-0.41102589469558304,-0.05674718144069823,0.06437696935506422,0.014936876691088903,-0.0023951128521263886,-0.012748461433223097,-0.015598956380779369,-0.2635339961762435,-0.0026357497838813237,1.5053072826710103,-0.003108232937521078,-1.1552739394423812,0.01213523041565985,0.3253509808937856,1.1015625
-0.3575037297487854,-0.03999782740385016,0.054825038286014066,0.014244920433747888,-0.007784903798157791,-0.007568737571229789,-0.014506774345709315,0.16462448444736413,-0.004764865939376193,1.0060108402504309,0.010638789333444263,-1.1176449733117915,0.001549010036597971,0.2994628473969056,1.109375
-0.5612297436458408,-0.07811336399814049,0.0882287546067744,0.02024195290202378,-0.002317011401096162,-0.01760625700739021,-0.021432451378543327,-0.39388254864082645,-0.0034562378060510354,2.084218858668882,-0.0052683830790309335,-1.5668508241556738,0.01770118946743219,0.442051358188888,1.1171875
-0.5694255142696993,-0.10604992127777191,0.09271735042650928,0.017048733227884357,0.013453600125760426,-0.02806670947980425,-0.0188563602807667,-1.5230446988365274,0.0036164278333544755,2.986921937027126,-0.043572565421349796,-1.2695080484241306,0.04332992088620233,0.4020052953474555,1.125
-0.22156333379442933,-0.03164858674323175,0.03457918651819204,0.008008211902418615,-0.001361054518443189,-0.007374790136632009,-0.008035380531401869,-0.17956306732935723,-0.001091560559631594,0.8418866872004271,-0.0031188980134670484,-0.6132434769418341,0.006932612409439204,0.17452528216530197,1.1328125
0.3302504158095534,0.10967601998487224,-0.060410397324114844,-0.003295689757718188,-0.03856945760398843,0.03430321211493244,0.006612178757303306,2.9272256242345867,-0.014747102480217338,-3.3166478798825074,0.09424482470896066,0.14952204204788724,-0.07281529073473009,-0.14602993495298897,1.140625
0.7202267990760891,0.16111175181640083,-0.12175024462624827,-0.017560863758506975,-0.0363146609944055,0.0452614540190455,0.022201421875523108,3.09115060467799,-0.011507973369459218,-4.672959713852507,0.09386354750698032,1.2669170660693148,-0.08328183006803888,-0.4566338683826766,1.1484375
0.6653895428207874,0.06225896365970171,-0.10218411622736771,-0.027434803468045048,0.01735251481426546,0.008759985117590297,0.029914219108675442,-0.7735619756419403,0.012407643294621956,-1.4917448483411992,-0.03689598744685283,2.2036086021054597,0.004953903926334623,-0.5718612805117336,1.15625
0.34996695228935065,-0.05182567732804217,-0.04392155579262407,-0.02529855209391712,0.058230676049523096,-0.027752271798350252,0.025140988669598283,-3.944944930048453,0.02906495505174537,1.9700946613562038,-0.14005724574231762,2.1651355486195887,0.08204801808438675,-0.44630523119522436,1.1640625
0.17222723453700162,-0.05211831622511868,-0.018734430650512716,-0.015798862755621867,0.04355580709216523,-0.02390189258690339,0.015533332000619689,-3.0484631075246256,0.0214271026136685,1.8314724338130428,-0.10680841215608751,1.3794527462700856,0.06488259814011237,-0.2645236178999056,1.171875
0.18749777817659113,0.013624977211026505,-0.028741871089622704,-0.008091772227499914,0.00609624754685558,0.0008428203278800804,0.009254403210503682,-0.3699090074748283,0.004602965907887769,-0.3011872922342683,-0.01583905154508052,0.6624083627975584,0.004125110739133791,-0.16615072373033488,1.1796875
0.21871763282965082,0.04488341759474313,-0.03688426388500405,-0.005706665245214733,-0.00970154266038838,0.012056836992984987,0.007567770990590495,0.7804343194706785,-0.002350383994830591,-1.2929582477995503,0.022839495247303533,0.4279464062854703,-0.02239288520181715,-0.1440489158935512,1.1875
0.2321666170035564,0.040883891949514035,-0.03830684115208783,-0.006941693284469691,-0.006209532516027758,0.010212368344125021,0.008728849921745068,0.5431032549727552,-0.0006958349185264284,-1.1489226913585529,0.01454217906742021,0.5355072273085859,-0.017262578670173934,-0.16489202823159524,1.1953125
0.18936522937846206,0.03442178817185059,-0.03147520586190786,-0.005481930208375644,-0.005975004996259453,0.008694594659378288,0.007106745923750531,0.49060059757218566,-0.0008325560720843978,-0.973433731583238,0.013410961288056744,0.42258709175420567,-0.015330806975964595,-0.13222350329492163,1.203125
-0.04100150841340229,0.010986707443478896,0.003936592195006886,0.003846129958612026,-0.011407434903984508,0.004877983021136109,-0.002852383836699193,0.6854572408032058,-0.0045977480855975,-0.4003133835376452,0.02357345727458366,-0.3206502864447142,-0.01573367736883935,0.06337975783528406,1.2109375
-0.3263560125332989,-0.02508731171071636,0.048636616900784704,0.014490290590270228,-0.013978424820603547,-0.00254655139343054,-0.014428737437890873,0.6311750635289954,-0.007385100774553177,0.5410503151269386,0.026085038436573414,-1.1571067813637206,-0.009557944129035023,0.2933709824176795,1.21875
-0.352668672651635,-0.029626753508878723,0.052894647353398785,0.015316669663185973,-0.013492225889751425,-0.0037056684502075827,-0.01536524624675996,0.5747183868696356,-0.00731430344258125,0.6690319906967677,0.024555156909878785,-1.2196234256815786,-0.007820316646162829,0.31238690380601564,1.2265625
-0.16105285822353263,-0.007469574319201895,0.023120697695053694,0.007903164637961022,-0.01053995228610655,0.0004799353338789222,-0.007366130617711047,0.5237568836650123,-0.004886798566600857,0.10589342801049866,0.0198829866130141,-0.6331254151776479,-0.0099791939548092,0.15430385600313043,1.234375
-0.05256066284316791,-0.009507188587219155,0.008013380228665084,0.001813322083075268,-0.00028382153278978095,-0.002704059564321457,-0.0012597383117263384,-0.11601945029437641,0.0003612516453559145,0.2617856247659107,-0.003557025370607196,-0.12713266283494035,0.002590203314654806,0.03958862780235066,1.2421875
-0.1361884895100601,-0.04149737815849181,0.023675548608002348,0.0021522751686946727,0.011570777778931209,-0.01303572516725713,-0.0023389610818740753,-1.0289142123108257,0.005232095629707733,1.2348195733698017,-0.03335231178026844,-0.11683278889987464,0.02463964746922411,0.06993045338755005,1.25
-0.46032677135152766,-0.07437451440726657,0.07347447582193187,0.015291308770480783,0.0038810731523776466,-0.01837891425589911,-0.016366169828187033,-0.7509498003007667,-8.709350780329341e-05,2.039992436953725,-0.018935965500947775,-1.1635130307894284,0.0239793342701583,0.34518513994755634,1.2578125
-1.0194998441438152,-0.09806896747691712,0.15544245862980585,0.04224806872893945,-0.028817225409233885,-0.015030212027259978,-0.044126496154590064,1.1107670814213937,-0.018027431299547106,2.3553435607544557,0.05297387981631235,-3.362925924210278,-0.008331484274585261,0.8771725333679913,1.265625
-1.2164455315809122,-0.08841541176555506,0.18216949121836706,0.05408349934405932,-0.050929334374078435,-0.006998602054787204,-0.05584603540820762,2.520217047647503,-0.02912667448884858,1.8808327546525019,0.1039530138335169,-4.352432978156196,-0.036714264307663315,1.095733079592706,1.2734375
-0.32540997956374357,-0.013946420036435397,0.04717263801216894,0.015896966069809115,-0.020442627763269716,0.0016533042415919253,-0.015577298902440303,1.0919289492632933,-0.010294408280846584,0.1824958190774232,0.0417274244481085,-1.285817059440934,-0.01994507099182607,0.3116499428725381,1.28125
1.1199797778091396,0.07668241333479402,-0.16821870535504904,-0.04997336404288955,0.046778489795867656,0.00419677647579461,0.05300235918882372,-2.4890582305373035,0.028273981086468957,-1.5901981762420985,-0.10223366719786386,4.049188442895649,0.03578398918498988,-1.0125615036101898,1.2890625
1.710364876783598,0.10397633100033371,-0.25504623147616784,-0.07815106005618744,0.07996550258572652,0.0015349172306298978,0.08206638772078231,-4.3595751279058526,0.046616345849562486,-1.9981818546343142,-0.17490869441004311,6.34490938980002,0.06775042372059627,-1.5703673821622992,1.296875
1.2252712362387042,0.10306222234905497,-0.18631007689119974,-0.05222939691385141,0.040025560716841956,0.011945484015488464,0.055862694989363366,-1.9212221740253224,0.025829050874418735,-2.367456594825444,-0.08447895110480119,4.202696962442048,0.021113032005424127,-1.0749203819383042,1.3046875
0.7443487398557702,0.1485325294295824,-0.12371123852283823,-0.020503034082712958,-0.026896983762256188,0.03995127027223852,0.024869568669751995,2.4408123134491877,-0.0071176744566265274,-4.245783636020318,0.07136686274438629,1.5246814217465878,-0.06903362159898427,-0.5032900457117253,1.3125
0.5895745611852803,0.1679208223339348,-0.104122096605663,-0.009663267829901009,-0.05124064656545449,0.05077239124953218,0.014379289874437859,4.044512670286602,-0.018990190135162507,-5.004188188529571,0.12831063153685654,0.6055254515050965,-0.10255057657162729,-0.3109708547297637,1.3203125
0.03898360507905606,0.04757406664469382,-0.011772726775846953,0.004306304215594272,-0.026287440596599203,0.017057830286060057,-0.0024690228834349914,1.8110012609849666,-0.010861219868343366,-1.527208298557502,0.060652767321500496,-0.40259832223128267,-0.04253003173807354,0.04483975856411364,1.328125
-0.8711234391059515,-0.13084974592293536,0.1383956125186131,0.030036198155578446,0.002886015348994771,-0.030840009939543236,-0.03253366124762198,-1.0220769095243982,-0.002871022285690702,3.548703271032669,-0.02191308036437215,-2.313038190075723,0.0372660755443174,0.6683027474982699,1.3359375
-1.2168952313139254,-0.1936773816549692,0.19483521686784125,0.04044595806745401,0.011046287204734532,-0.047140034529703494,-0.04449426246383521,-1.8904569717062603,-0.0011540413116397613,5.313984296791122,-0.04618919029265061,-3.0978995286487483,0.06287315511333401,0.9136931836256734,1.34375
-0.861949725885896,-0.142310522125302,0.13843225010111254,0.02804615682661965,0.010393185352981539,-0.035402935132987146,-0.030803403770265428,-1.5486597033161358,0.0005714529463295082,3.928005854224414,-0.03997169466390674,-2.1354307361565277,0.048983241531282355,0.6390167664895332,1.3515625
-0.508998747494178,-0.0938722262805354,0.0826835930520286,0.015384528147631726,0.011299130897607184,-0.02474367934336508,-0.016900656183074812,-1.3194876118752465,0.0029882591639562284,2.637571740855458,-0.03757333922620285,-1.1470419474552427,0.037689250792850154,0.3614011550542201,1.359375
-0.3011645950996459,-0.05665385043607984,0.04884031346363587,0.009055406788820174,0.006721741107389574,-0.015158728866981613,-0.009648618299994461,-0.8210631976119859,0.0021039955898540454,1.5949520237336454,-0.02377637703749419,-0.6685406804522772,0.022829902149428195,0.21287864150157115,1.3671875
0.10834575472270012,0.023193134953548983,-0.018644642544249357,-0.0025895951016319165,-0.006126397698271395,0.006214161798762638,0.003931849024592831,0.4336321347740503,-0.0013642828958078696,-0.6742140181739885,0.012719995072718641,0.19701138089142858,-0.01263661220867515,-0.06866199918031378,1.375
0.5181834087909124,0.09939001709973047,-0.08575939059800754,-0.014728348809837232,-0.01680255923194583,0.026195306777440763,0.017919203567882527,1.534398117654052,-0.0038486000092297266,-2.825187121073257,0.043967814633079784,1.1075137541300353,-0.044635890746078606,-0.3567566316515179,1.3828125
0.47669685610645496,0.0943269506534565,-0.0792978116172785,-0.013157342074985935,-0.017285252157698668,0.02519090946689737,0.01621295677072086,1.5346982353592387,-0.004301269766575696,-2.6948030047606535,0.04460368034108424,0.9836459961413961,-0.04391791680675315,-0.32285942674319745,1.390625
0.12235053368950789,0.03689905671631652,-0.022296676635286915,-0.0015650448408793124,-0.013034634547743845,0.01114262020794853,0.003203806918952847,0.9377317127682305,-0.004401382664760011,-1.1113792469815649,0.029657788093519467,0.09532355505336383,-0.024258431438113362,-0.05903231395520945,1.3984375
-0.10943775522642021,0.006367989737044085,0.014155356231651648,0.006934245816283633,-0.014396303676168828,0.0046255586904659154,-0.006063135754827951,0.8415607928963423,-0.006338929974699415,-0.3042748335048895,0.029901889234480773,-0.5698646166072522,-0.01804600467739151,0.12557796590881154,1.40625
-0.07254608852868877,0.020908611426659864,0.007202791049078515,0.006840457293195165,-0.01988007038985705,0.009344050930331653,-0.005632029168781641,1.2620405686945393,-0.008605402920896928,-0.7479884224392922,0.04366057106940233,-0.5796373424198792,-0.028190004282237786,0.11278684829747906,1.4140625
0.12485369895286484,0.03938744561422155,-0.02294581710538673,-0.0013734648914271836,-0.014290165641248288,0.012024418803716323,0.003074463714519333,1.0284042181284294,-0.004956523473979135,-1.190282772956338,0.03271275732236884,0.07661793195830326,-0.02636237254715875,-0.05756673489552897,1.421875
0.19752447685883087,0.008935662101619486,-0.02960720089701762,-0.009236125491433525,0.009706876021821203,-0.0011812512051127084,0.010303607642906004,-0.6184618700677103,0.0062911526190939145,-0.13911224294230962,-0.02445787145448145,0.762980676839414,0.009556607571905748,-0.184684501091588,1.4296875
-0.09879147226869375,-0.0767134564294197,0.022562939060002042,-0.0044303620601781205,0.035425451532413416,-0.02727681498377412,0.0034899166485186186,-2.694879172578076,0.01621394409088038,2.4122612492838584,-0.09064419966222632,0.46952618205040675,0.0616084914280033,-0.029250873700510886,1.4375
-0.3659551869432853,-0.12403884219196913,0.06605373095999631,0.0037892417220725698,0.04100984894638366,-0.03942275135733359,-0.005882721923941216,-3.314704580954883,0.01721436373390879,3.7393201743154054,-0.10768560183157441,-0.15194226672414293,0.08026439359489003,0.16256647592405485,1.4453125
0.09211536727941133,-0.033858646821667775,-0.009537577062903639,-0.009112161657779073,0.02611992266956976,-0.015188432191051425,0.009212198737435758,-1.8744528698251544,0.013101639667105374,1.173815085180234,-0.06563063600422578,0.8056392693803135,0.03977362460065497,-0.15077543656244188,1.453125
0.9177050985638248,0.1170180548075115,-0.14443412007783377,-0.03389169509869619,0.006140223360924524,0.024075230408758704,0.03767663351939972,0.23400696154760184,0.008782079037462961,-3.0732760951696734,-0.006417036461856271,2.6706374314625867,-0.022210340106812238,-0.7355966361756602,1.4609375
0.9040132640517554,0.139623234859417,-0.1452232727923944,-0.03023401734101272,-0.008320025447016863,0.033015352276919124,0.03449174404962621,1.251937842225152,0.002175054080950587,-3.823616056737318,0.028457849986835326,2.340109569760869,-0.04496673902596002,-0.6823767190411725,1.46875
-0.06182135095987147,0.012413444869203719,0.006687610125136993,0.005139951167745917,-0.013979749222754566,0.005891089835076839,-0.0041337868649783584,0.8515321164358818,-0.005878248880902591,-0.46428564225671376,0.029548343208591406,-0.4298598020590387,-0.019123897765425498,0.08715294104777144,1.4765625
-0.7397744226164312,-0.08516931137820336,0.11433822635697523,0.028902677838011318,-0.01306450196549084,-0.01632576418995472,-0.03034991672605367,0.22224745554647474,-0.00932319462838798,2.1656492708438457,0.018455501050982415,-2.275220791556891,0.006881281921758758,0.6128690568487706,1.484375
-0.5740924977217505,-0.055251705340957656,0.087329712823446,0.023890525907243235,-0.016860335890722413,-0.008596412249197884,-0.0245978699456701,0.6297597657727285,-0.01009307142985187,1.3262312955512219,0.029803087449650004,-1.8966784439719597,-0.0052029675149468935,0.4947929407889117,1.4921875
-0.34293820141665743,0.0027331474933384708,0.04767147220925348,0.018996719888822122,-0.0317322659665469,0.008402946518357279,-0.018330031849333833,1.88035190654666,-0.015491325831307252,-0.3764705309021928,0.06885507450842393,-1.5625251717845225,-0.03746153841921601,0.35836065070712164,1.5
-0.4644294958401658,0.00040442644723295373,0.06512749122584076,0.025216322430243698,-0.040502347733169054,0.010217812871776935,-0.024668531239663852,2.4038716499210846,-0.020141703247764417,-0.40082984842900454,0.08852835787905534,-2.074189438868566,-0.04716671222528983,0.4789936448464603,1.5078125
-0.3504186716364527,-0.01397502288291509,0.050699395204701896,0.017223974017188583,-0.02251918721559137,0.002215670783305613,-0.01693467970757855,1.2193015360037964,-0.011373477060372075,0.16084789558736656,0.04646017807501816,-1.396273519751798,-0.02240320535013779,0.3373184753667389,1.515625
0.1956748962544969,0.0061818771792325165,-0.029007745278573218,-0.009490796772149514,0.011173950428567385,-0.0021946146753108408,0.010498809912683068,-0.7243315342446045,0.006944811032084198,-0.04967768718648906,-0.0280421126803863,0.7877749422409301,0.01198586177306541,-0.18751695962838835,1.5234375
0.4895125581530786,0.01609904723417137,-0.07178656532719409,-0.023978453220163995,0.02984775626254179,-0.0049282166001156395,0.025362551874345208,-1.8090470200898614,0.017044768455257816,-0.13172647729791007,-0.06946692256949756,1.9737147036442104,0.03138066354925366,-0.47154670312581537,1.53125
0.22230141102626907,-0.012574541267289569,-0.030541922861585677,-0.013339308945140502,0.02444189166575194,-0.009949681336229213,0.013974273819203312,-1.646537828295328,0.013081233583530569,0.5855739171271818,-0.05987258160496768,1.1291341294264234,0.03237393196984059,-0.24729976534687703,1.5390625
-0.06338811084141752,-0.033200194398886954,0.012360765808695896,-0.0006751331043244266,0.012759193336791055,-0.01148523048426889,0.0007123998340398743,-1.0526460180099468,0.006181926133934702,1.0236279039491007,-0.035285785686133206,0.10686944117015881,0.023926549414820933,0.009810374866537038,1.546875
-0.017238440917650123,-0.02094699285371489,0.0043743477511607376,-0.001576237514185246,0.009396793065312289,-0.00782887385991926,0.001888497740769091,-0.7750106410806729,0.0049289216476637535,0.6601206385538128,-0.026509873053129893,0.16598482907367504,0.016829892107477075,-0.016339185898365572,1.5546875
0.06115045425362388,-0.011887089055949223,-0.007789644994146311,-0.004615178551051613,0.010598178721374921,-0.006108073704370876,0.005157222286063723,-0.7952923118447854,0.005917506748516515,0.4285844288122089,-0.028385449424816047,0.40622765092052704,0.01591133853206602,-0.08105062129966935,1.5625
-0.009001260028223214,-0.016508598564219414,0.002696996415880898,-0.0014384052243728521,0.007461020794641283,-0.006319042689786898,0.00185248221968958,-0.6302748095694419,0.004100039073092027,0.5233290894672085,-0.021714472293450745,0.1497122879470047,0.013418321690320815,-0.017088902191799468,1.5703125
0.0366748623321381,-0.00042366317823389684,-0.005694971524225193,-0.0017962887489053553,0.001794934045598256,-0.001200927762709203,0.0025929249949460035,-0.18920599274479602,0.0018020801832809874,0.03745230282605322,-0.007412405062385642,0.1601478072548301,0.0026846204284928002,-0.03593721230458885,1.578125
0.28224041589569454,0.03443159132420215,-0.04462077599179667,-0.010465756731975955,0.0017556109867530245,0.0066477591425095316,0.012142820218277721,0.017406831195924982,0.0031850725611483363,-0.8980944480619265,-0.00412011971732171,0.8345005370488843,-0.006247078554989801,-0.22727098242639926,1.5859375
0.3858236538111077,0.048581580934677515,-0.06097523763061774,-0.014204019142746072,0.0020680207674529574,0.009750780740895372,0.016230370945129934,0.08110685631775343,0.00391816136438579,-1.275674926588109,-0.0035138155930723785,1.1260531323389258,-0.009501519062708826,-0.30907504402952296,1.59375
0.16615792165177276,0.0468411785498545,-0.029687273926843876,-0.0026419068636276905,-0.015231604829686662,0.013964383824481308,0.004508831143583532,1.129708853827806,-0.005142603615438929,-1.4005130549062914,0.03555263310494106,0.17191757517775585,-0.029380700914908475,-0.08705657696408958,1.6015625
-0.09825133527241914,0.06403430144836027,0.005672776291308389,0.013788124246561076,-0.0474215168411038,0.026390118357685476,-0.011684461400479523,3.200800056003631,-0.021181416293677757,-2.1790197045174216,0.11010109235546177,-1.2074287821120366,-0.0715579580105663,0.21378683377141278,1.609375
-0.14815091511990275,0.0794560071321979,0.010905186376650817,0.01847875343463799,-0.06067399149648828,0.03337172914644486,-0.016057952409058284,4.10244702899644,-0.02744896874295502,-2.7217112019480716,0.1415460510569045,-1.6135430498199987,-0.09103567800804233,0.2917968232757486,1.6171875
-0.10654758400776095,0.04000899148999028,0.009753708869895648,0.011139934856320944,-0.033969530754517405,0.0173870638657974,-0.009542549174473112,2.2366531125175206,-0.015156677317613304,-1.398338472936531,0.07736753674836343,-0.9582423759095644,-0.04960592854750675,0.18086562249333937,1.625
-0.16876828970366956,-0.0432551877240509,0.028510568724535418,0.0036821532060999206,0.009887915344838436,-0.012998308693848397,-0.003919594096778584,-0.9361075972181997,0.0042881022963690224,1.2673165801786646,-0.029710171983586303,-0.2404669191959654,0.023122887903686072,0.100283351004954,1.6328125
-0.2552278578412954,-0.10155433249551948,0.04769059099876225,0.0007535511884017203,0.03701619749572213,-0.03330454513537274,-0.002306830136638694,-2.938477103833218,0.01604283597839755,3.0960792312164265,-0.09655307720989706,0.07177265606099711,0.06982794372529552,0.08783899099262228,1.640625
-0.19660174696097424,-0.09697442221848435,0.03883093160156724,-0.0018058678615590492,0.039204453920930527,-0.032841633358552495,0.0003765970035927812,-3.0452982529499364,0.017364527110876642,2.9930254940034344,-0.10107844761099546,0.27725120431703665,0.07121846402977822,0.03582755688756156,1.6484375
-0.07456303771145763,-0.06023376349964704,0.017179377176071542,-0.0035860576860008726,0.027740191292145656,-0.021536814996716044,0.0030224485463677827,-2.127861100496054,0.012883314300328593,1.8954991645891683,-0.07171700726438565,0.3801099741287531,0.04839679457712822,-0.025429515491132332,1.65625
-0.14268194889738212,-0.057482213704358937,0.026511852690056303,0.0004394463470358969,0.02044097128041226,-0.01899656502304025,-0.000967100320341934,-1.6652345999970202,0.009199886558607345,1.7520402483849038,-0.05493955929974774,0.04466895774875955,0.039146514768019516,0.049089217248623265,1.6640625
-0.42668610909221344,-0.11590591665299665,0.07369621472916814,0.008112942700167183,0.031167631762970126,-0.034997467128353915,-0.010050411297480917,-2.6651105550991114,0.012425875923116957,3.4258303894847573,-0.08464532267976238,-0.5185857938783579,0.06665498652319526,0.23871016817259266,1.671875
-0.5406882963916715,-0.14906584214361973,0.09378277824092282,0.009924270540295134,0.04118761976137944,-0.04510911746301006,-0.01264777387499211,-3.473096907114751,0.016300409489948674,4.412672706018144,-0.11040089147047019,-0.6285746473311181,0.08686699586076554,0.2979894262638052,1.6796875
-0.05737675711549848,-0.02383050906095537,0.010392817784121348,0.000202977185697761,0.007736007203729725,-0.008031964033280482,2.4509287775700437e-05,-0.6904359599007555,0.003949367816223787,0.7209754973675319,-0.023018263683292108,0.022396016509371612,0.015615806531671514,0.0197272380991601,1.6875
0.8708387966598667,0.22637416810948593,-0.15089156143962174,-0.01719623471922457,-0.06219960700688651,0.0668415243561668,0.023316378136065193,5.0585090415219405,-0.02233865836627859,-6.681661350943355,0.15856807412085105,1.156846310735001,-0.13035159164752821,-0.4979760811095685,1.6953125
1.4437298430215277,0.3645423394304185,-0.24847545820864203,-0.03003949268913428,-0.09577581161835362,0.10683563927234196,0.03944859988256273,7.924251916084354,-0.034232718265351736,-10.717972631313524,0.24740268819659086,2.051299583357634,-0.20502905011453215,-0.8457610704630395,1.703125
1.0327462197515807,0.2392136778475832,-0.17530743781582026,-0.02421977524272487,-0.05623238302296664,0.06812159696399701,0.030706575449290598,4.768299055762585,-0.018717712013724505,-6.963523988563292,0.14621172699173884,1.7229339424568801,-0.1266099217040324,-0.6417966604556965,1.7109375
-0.022449727945602224,-0.006584856415782602,0.0034193066926960494,0.0005690207926246352,0.0005083849560642711,-0.002251308494485481,5.307085791651301e-05,-0.147026573004319,0.0008903039610789985,0.19083477987007014,-0.005058173246516989,-0.027890575732567296,0.0027427483721442713,0.013745074192187831,1.71875
-0.7811666511779974,-0.1412502847990656,0.12687932983100783,0.02384856371793383,0.016512104865596542,-0.036787177479335346,-0.026533390876978338,-1.916674513300528,0.003791867948795171,3.9601071763656495,-0.0537433529975703,-1.789411400659918,0.05589985759622509,0.5580959659533464,1.7265625
-0.8098768911424552,-0.13155257842858686,0.12976868467538072,0.026652019027873234,0.008392202160118115,-0.032441823892779685,-0.02913861457178738,-1.3626034898609276,-4.0722201327495054e-05,3.619044396249707,-0.03444682989369492,-2.033182303021771,0.04389253816158826,0.6044494628570981,1.734375
-0.5050807998508436,-0.09248602662872578,0.08197116685832403,0.015357850678572616,0.01081469441441461,-0.024306997072560076,-0.016834043505694764,-1.281637217114178,0.0027888170984144735,2.596043687409395,-0.03634841600023523,-1.146456890338061,0.03677799660215459,0.35979976627529514,1.7421875
-0.31046692328061276,-0.07812329512957981,0.052729823946836674,0.0067717332929044475,0.018604858590269495,-0.02315754874057569,-0.00783206952256462,-1.6743960903553448,0.007416800578704023,2.2886436967317274,-0.05268990708462493,-0.45356784468237127,0.042269356209652706,0.1851475167108016,1.75
-0.15061017181129382,-0.06249936154326641,0.02823459500564254,0.0002055644883267212,0.022744645282341023,-0.020735112011279134,-0.0008509431935643263,-1.8361155984041928,0.01019705491965942,1.9088278498796702,-0.06062058672721434,0.07003468584819772,0.04312907807166873,0.04831098082593216,1.7578125
0.1587773727058697,-0.036749892765615765,-0.018655750891866475,-0.013080972443649972,0.033385277783380275,-0.017749418599256755,0.013140664006341174,-2.335836830581084,0.016760825899451052,1.3201172469414477,-0.08233988917147961,1.1363755939834532,0.04901937168519462,-0.22411116758564537,1.765625
0.40638989370571366,-0.014879199871401402,-0.056326957733825095,-0.02354616315047644,0.0411590249027144,-0.014888638367971075,0.024200834667347397,-2.682952184177304,0.02167943800339976,0.8090719596874636,-0.09793219143364486,1.9745700641760278,0.052551886010459736,-0.43992384488529523,1.7734375
0.2715224402477706,0.004332191245289678,-0.03951748960747926,-0.013806531334905961,0.018595376565292764,-0.004586598982130297,0.014812553988844804,-1.1895860796068827,0.010726843767526743,0.07283259701385628,-0.04503231819069177,1.1464572130231556,0.02117766602828024,-0.268474755687956,1.78125
-0.10843479291858976,0.02481662153844977,0.011832769676166989,0.009264513523695506,-0.025170780689275196,0.011634483092686186,-0.008001127662949133,1.6086365458583898,-0.011193548053500927,-0.90598669737974,0.05603136244481464,-0.7849973677824656,-0.03540730628110098,0.1563284716048775,1.7890625
-0.23854838218502225,0.04316573076211662,0.02805216525286262,0.018637899246367898,-0.04684255248330979,0.021519327409257997,-0.01703961146476706,3.042626953546013,-0.021719135979246722,-1.610734874838773,0.10683029719079432,-1.5818695775268863,-0.06552580645537033,0.3215068813197601,1.796875
0.0576527117644171,0.06079036946146295,-0.0159966690174825,0.005013833314837187,-0.03251315198838665,0.021684074906276374,-0.002885708761713556,2.269550442536883,-0.013564682634539301,-1.9425837780552788,0.07598487549477477,-0.4772699792931211,-0.05321095651379022,0.04857805090396952,1.8046875
0.3414325793599435,0.06851350076699782,-0.057090299993309626,-0.009234117947933315,-0.01337541643005162,0.018341185745194218,0.011666407192231942,1.1439093349662732,-0.0033083530242126818,-1.9625085358393484,0.03334273662480395,0.6907209230995921,-0.03273153667794297,-0.22890769435142558,1.8125
0.15189580777067543,0.04185296271037148,-0.027063185575788278,-0.002518082051645024,-0.013479356457267545,0.012371654602901272,0.0042708958444591235,0.9936277462005277,-0.004433711136072482,-1.2494612796489513,0.031134504164502527,0.16773137079546444,-0.026062462446982685,-0.08097529707992723,1.8203125
-0.2638467357626545,-0.009998674552707889,0.03798757981227951,0.013091294059802777,-0.017634415880804357,0.0018104280826277844,-0.012668373962670343,0.9434210875527168,-0.008678376458170569,0.10105406401483452,0.03576017572916912,-1.059362157229633,-0.01770244615093742,0.2552708326701015,1.828125
-0.24932058217488956,-0.032619531335444346,0.038629413368340616,0.0093886238141645,-0.0031089353531569192,-0.0071375055054255405,-0.009434707082249675,-0.07817096336124227,-0.002040973700454952,0.8524422961318442,0.0007285774196448269,-0.7253263934430091,0.005143906262465638,0.2013421718507312,1.8359375
0.2325112709560811,-0.003523115633422059,-0.03305157023392115,-0.012714373790996073,0.019960456415290335,-0.006719470086770726,0.013551227437906533,-1.3190888527229057,0.011116381973244006,0.29956049997162026,-0.048880320225139065,1.0666156399778484,0.024812542060070202,-0.24200023468708076,1.84375
0.4959730433477874,0.02673640999809345,-0.07395244471665027,-0.022951540191500787,0.02413348031061728,-0.0010184338390776984,0.024568887247811515,-1.3969779379045169,0.014502015217693955,-0.47223126566288937,-0.05552646394057604,1.8756821992866557,0.021975377288785864,-0.45972206521644277,1.8515625
0.22444994159408832,0.008294651407019165,-0.03331549729214764,-0.010769917892632857,0.012342961667325581,-0.0020333673470753575,0.011835680457308033,-0.7837482121154755,0.007634464166250474,-0.09490074676835451,-0.03048394131601073,0.8905112525771706,0.012819952724411192,-0.21350578356088104,1.859375
-0.12348576856936029,-0.039361068539966175,0.021613798495691984,0.0017418697878602224,0.011369828566111169,-0.012497330704359731,-0.0018852235796813217,-1.0037709402521753,0.005213675564688206,1.173942293392977,-0.03268157725973463,-0.08594484433868603,0.023841578871141054,0.0606264133789163,1.8671875
-0.2664392886468712,-0.06669775054316718,0.045106925081982156,0.0058858303826373705,0.015535523693571094,-0.019760146331387958,-0.006683071447576325,-1.4191426188474634,0.006280599409653039,1.949897434721972,-0.044670751338778174,-0.39478419853815094,0.035733605504478086,0.15992040956197137,1.875
-0.48114146425148746,-0.05840722929405494,0.07451827842495776,0.018491625088448014,-0.007254188235314933,-0.011849479851285845,-0.019218174749988003,0.023783210177490962,-0.005227300730362168,1.5052288838559766,0.007733649090954063,-1.4465282914752955,0.006884658644848981,0.3942268452330095,1.8828125
-0.6979509971673108,-0.02902740248967868,0.10170536530585023,0.03393315654471964,-0.04263692101789425,0.004158747977880605,-0.03414779634165634,2.361147401264955,-0.022431943595500898,0.36890512997109104,0.0906509375488256,-2.758957781364089,-0.042157944030889884,0.667086322357377,1.890625
-0.3717456093931312,0.007681040730907201,0.05113153526357923,0.021166861459008864,-0.037043351508432076,0.010944787419471724,-0.02042814780986416,2.234478945573278,-0.018049579589850637,-0.5637808241310981,0.08137840969703167,-1.7487501187264032,-0.04498795205911609,0.3963608549224798,1.8984375
0.3650906030889984,0.038265338629777955,-0.056837476963641304,-0.014431380748924806,0.006404753254015178,0.006298770181532412,0.016217941712291496,-0.2442776051814959,0.005756955584876355,-0.9597588860658617,-0.014272245683362971,1.1567838158074453,-0.001807110584280054,-0.30551400726330746,1.90625
0.6815027935785545,0.048709172119347464,-0.1028649545043494,-0.03005598002469131,0.02664423225440663,0.0032683866529661493,0.03224466377105376,-1.4211747298572512,0.016692746144617087,-1.0400733410468248,-0.059194167989703894,2.436248897175399,0.01929388283957382,-0.6114799052932735,1.9140625
0.4839716682255169,0.04372641656154117,-0.07428661546537796,-0.02008802867892951,0.01310957929142128,0.005724555101121802,0.02207327179774844,-0.6222257409908621,0.009457221675615373,-1.036281601061182,-0.028986512462972968,1.618845786586506,0.004691605372891743,-0.4177843579594832,1.921875
0.4725923077938228,0.04191623903168536,-0.0724515684437173,-0.01971788350584023,0.013244354748152788,0.005274639331216546,0.021655492150216355,-0.641339488909428,0.009453070514606192,-0.9854016815652729,-0.02945180831299094,1.5904378358518367,0.0053107527928956426,-0.4094982935478337,1.9296875
0.6026998110563486,0.04275637763401374,-0.09097865055742813,-0.02660680450647103,0.02360575062461121,0.0027244492508282604,0.028623087659746894,-1.2706548592392757,0.014870837708486585,-0.9083463823819862,-0.05284470556695907,2.158300528072684,0.017249177132625273,-0.5414533563671858,1.9375
0.10165780153312143,0.024765545693020002,-0.017914761260668287,-0.002036878786882831,-0.0076177615207595655,0.006981401929429854,0.003399190713384516,0.5343397980991483,-0.0020770388411554697,-0.7341878639566594,0.016264706045922353,0.14843440916838693,-0.014807872013156701,-0.059047801715764195,1.9453125
-0.8421557210187924,-0.022425313798148046,0.12132541453087979,0.042534120054224925,-0.05857644336964383,0.009889887165378851,-0.04268025011108771,3.3756273600468973,-0.030453391474244685,0.03297207514780855,0.1273940259534648,-3.4787265341704448,-0.06256089513029549,0.8264978434259923,1.953125
-1.09041443226443,-0.0863443589058185,0.16411342165522413,0.04758540264155977,-0.041627556930057735,-0.009010390052117982,-0.04923492354237834,1.963191723878669,-0.024214039203273963,1.9176955010258367,0.08307100535272147,-3.8179852728443646,-0.026334993606741724,0.9701306121033503,1.9609375
-0.41249792708668087,-0.13631311647933936,0.07412569605969438,0.00470069971227395,0.04438204645519003,-0.04309755450687071,-0.007074202062421897,-3.5933551425639476,0.018472019229640046,4.104161580351867,-0.1164697076436239,-0.2117082430986955,0.08737246947934796,0.18875895120543523,1.96875
0.19130038195678217,-0.12614311193214714,-0.012567777940895745,-0.026412560033929708,0.08876367864696497,-0.052578067221400016,0.024566815463830452,-6.249330735759597,0.04194233279493867,4.2647532089430324,-0.21610110174767738,2.3476129955953793,0.13684804440585022,-0.41236035712024943,1.9765625
0.1379735040338127,-0.0307181870025567,-0.016430536110542703,-0.011178249429164018,0.028084635118875174,-0.014977508984140962,0.011358126237799832,-1.9756877486507018,0.014246376481946372,1.105373900490183,-0.06976334162600474,0.9717772785824158,0.041248201527930406,-0.1922435926907415,1.984375
-0.09268690261162106,0.0983318071156333,0.0008038454782903696,0.017949216489361798,-0.06718629307259674,0.03935333712656781,-0.015101162729195408,4.612030397295522,-0.030071389781672953,-3.2934475913650916,0.15805492123967435,-1.5926788607137534,-0.10351650056815224,0.26781522603390573,1.9921875
-0.009356679523540598,0.16222807284206334,-0.01861886922866784,0.021767842521247086,-0.09785841787273376,0.061856216169027284,-0.017488410962338594,6.863962151993548,-0.043440368543675084,-5.3072412403703755,0.23344659253414532,-1.9852652874169128,-0.1558143356382618,0.2930182961564004,2.0
0.2526414856090379,0.12331680764655029,-0.05106307468429608,0.0026506362057303573,-0.05305847487864611,0.04119548239734328,0.000929011783657366,3.8937510885091062,-0.021725699915303497,-3.8216451751770033,0.1283145221292298,-0.3574451538779779,-0.09328870922045407,-0.04311008238970219,2.0078125
0.3732302609198719,0.037229250582811076,-0.05786152926216195,-0.014998328689029748,0.007715751779362311,0.005696812236279438,0.016777684158928084,-0.3309066010906313,0.006393540206531403,-0.9155449575245727,-0.017359603092456,1.2054731629754702,2.1998294613548728e-05,-0.3159048569953922,2.015625
0.28689662669905724,-0.023986462199377778,-0.038324154138455906,-0.018306930229622997,0.03655745447729368,-0.01572122935143518,0.018713535018547674,-2.4552606649465036,0.018920876015679308,1.008419508729564,-0.08836206149435731,1.5526356648678123,0.049500747386698574,-0.33332601952883234,2.0234375
0.17965610508001026,-0.03156203788891628,-0.022220452997889655,-0.013528791655244437,0.03206168761805923,-0.016228705820412817,0.013714695267931546,-2.2244794887309984,0.016280709187479595,1.166894073070158,-0.07886431502273912,1.1667899891262237,0.046153555565095095,-0.23641070725416496,2.03125
0.22355699645933827,-0.005163161412862002,-0.031583199778579145,-0.012457916000871185,0.020181186292814773,-0.007142707538842135,0.013240332492150933,-1.342384570764042,0.011167451830980737,0.343305504975619,-0.04950726536096905,1.046690957628447,0.0254666959924776,-0.2357339337954484,2.0390625
0.23749767269545863,-0.00415647819433256,-0.033689399358755506,-0.013072190807102995,0.02076390397190614,-0.007080614573036333,0.01388837723357834,-1.3722016213636459,0.011510602440831538,0.3241792632786396,-0.0507487514260555,1.096698160774141,0.025902126069002183,-0.24839105290264063,2.046875
-0.10880343475082305,-0.066536117539751,0.022780939023265143,-0.0025628286651065667,0.028613916731972694,-0.023202440141820192,0.0018528487455638787,-2.218874857706579,0.01308352419558246,2.075933968207935,-0.07429989191007323,0.3036933821517813,0.05105124768706447,-0.001521808715014967,2.0546875
-0.5689732540775801,-0.1259306937618057,0.09503376441922214,0.014445700525517273,0.02519301786219085,-0.03565133608050501,-0.016682753398575594,-2.3581327971523027,0.00891835029337687,3.634815054124404,-0.0720100576028669,-1.0305671676864288,0.062187170433160126,0.3672768900010683,2.0625
-0.4716985605427649,-0.07950716516404331,0.07572771334708657,0.015238130101625705,0.005957870269460053,-0.02009028198103544,-0.016428377443350867,-0.9083082306975558,0.0007871015077695793,2.1982053345890753,-0.02411263580217063,-1.152728760943695,0.02773124496663153,0.3479899898484432,2.0703125
0.125232862380973,0.04086066002842418,-0.023169189093424653,-0.0012104680164976476,-0.015130013941128586,0.012593049340789414,0.0029314776828829403,1.0889022247361022,-0.00533356315543348,-1.2393024092904021,0.03478151994317927,0.06102429136522917,-0.027753441547232045,-0.05532947060583399,2.078125
0.3797074615741775,0.09576024635028053,-0.06577229375499127,-0.0077511431441091,-0.026225840112318065,0.027883506076116126,0.010800015496455491,2.0901743037065246,-0.008891332293406105,-2.819885977065332,0.06496825845915895,0.5355650807220177,-0.05476239045220924,-0.2210102662755302,2.0859375
0.03721363272006288,0.04917097550963514,-0.011718766442246913,0.004607658742700949,-0.027361268584371917,0.01769327354387961,-0.002735830867943216,1.8861086375655995,-0.0113529914930994,-1.5792042755118438,0.06322792834467665,-0.4291821132195465,-0.04417756994609609,0.04936625670517728,2.09375
-0.270459377000787,-0.0019136400957102944,0.03796184553903097,0.014504902170727734,-0.022952297596853286,0.005029410940314493,-0.013901800677074142,1.3163957689246222,-0.011115917459966672,-0.16544293152292708,0.04853544843697717,-1.1855258449515376,-0.02597687254527319,0.2762023977812072,2.1015625
-0.28928303815740863,-0.010532155222405045,0.041663395896800154,0.01438763352669414,-0.019452992703158038,0.0021724216575727327,-0.013993719177433398,1.05159227776463,-0.009644546664775627,0.09817215669390214,0.039833706306512326,-1.1659659633052373,-0.019701227517916215,0.28048161576681696,2.109375
-0.3900479154860109,-0.01848352214313487,0.05685629749382781,0.01875975434665202,-0.023174929475060144,0.0013817417509876455,-0.01859619920361133,1.2325532960498262,-0.01189755528245644,0.273542013998782,0.047542768662312024,-1.5181959906486024,-0.022044987001736988,0.3699191076958124,2.1171875
-0.48007015303802186,-0.02381934324340945,0.07021799679892977,0.022906364014157757,-0.02753904185801054,0.0013382136195390464,-0.02289710101501231,1.4682651997078353,-0.014379170462458178,0.3744625760040507,0.05692514518778895,-1.854365732903559,-0.025781362849973767,0.4529944250752912,2.125
-0.11819252405250158,0.009496405666638424,0.015021687790833977,0.007803829572330326,-0.01696780050300918,0.006015788799109339,-0.006874202415564914,1.0170352556633424,-0.0075472718807357885,-0.4137533120422237,0.03601925060467746,-0.6457174573400587,-0.021859102731027952,0.1399312901847001,2.1328125
0.37948964798077534,0.039313691783819986,-0.05896623009927423,-0.015052666508398042,0.006996543954433048,0.006351550550526681,0.016888448242385633,-0.27443321587388414,0.006103727142232332,-0.9770280296231802,-0.015547741660730339,1.208004954379092,-0.0013452340655344586,-0.318493204720046,2.140625
0.4024476940679292,0.012118864318575758,-0.05896201632102545,-0.0198208813060043,0.024937215201096003,-0.004530568242304278,0.021072547906138668,-1.5321768931908646,0.014334393953172249,-0.07145338183277355,-0.058705046677790904,1.6349375089529792,0.02664471223915511,-0.3892676978222264,2.1484375
0.2872400904352289,-0.015095462395034452,-0.039422549842015916,-0.017174366880640262,0.03135835878534113,-0.012348296861476085,0.01776869503994253,-2.0849476579896655,0.016578173136923984,0.7198091561087819,-0.07575277000132802,1.4484586509288342,0.04112307594053186,-0.3183787862775309,2.15625
0.645722697342412,0.024444263229843416,-0.09491051577351262,-0.03129920530148635,0.03797401001067646,-0.00519709175508614,0.032934918069246165,-2.257288708799738,0.021603628431548838,-0.2781031581374242,-0.08709195422371835,2.5676961545702053,0.03878926455785017,-0.6171141181556946,2.1640625
0.9929934876400504,0.06753909789971539,-0.1492122583528516,-0.044349553110310844,0.041558362891041825,0.003548038182370536,0.047106904731006545,-2.2232300174377992,0.02519541668684251,-1.3989608226990324,-0.09124568576884502,3.5945739802987826,0.031991552129675735,-0.8981985314960689,2.171875
0.5454973496091741,0.03187885953602844,-0.08158548452694342,-0.024933086391344873,0.025227026045473066,-0.0001517584964888498,0.02669462314823345,-1.4334399492030896,0.015275677259607193,-0.6002463482561249,-0.057536057983977214,2.033441003320513,0.021934467182812063,-0.5014277645315611,2.1796875
-0.274128264786655,-0.03425949245711794,0.04234942226855539,0.010503095045595242,-0.0041957518686745665,-0.007232514368023541,-0.010601209540473396,-0.02192690813460506,-0.002668048830444317,0.8869491956272125,0.003037185805774471,-0.8154924065555488,0.004297524076324826,0.22376404956080514,2.1875
-0.5668469889390376,-0.04982884227458233,0.08563473381969544,0.02419401866666342,-0.019447471684192166,-0.006682354391872714,-0.024792069167640533,0.8198299983627622,-0.011216526541099383,1.1541324926882937,0.03617589763729982,-1.9287901361152766,-0.009632548355156608,0.49669160028654147,2.1953125
-0.4604203449516094,-0.04049734136066963,0.0694392063125427,0.019687183502159467,-0.016071951642775386,-0.0054645029931481084,-0.02003280375248351,0.668835504715087,-0.009089891583326853,0.9355949230308447,0.029405939685543194,-1.5678404304527265,-0.008073901804233796,0.4039331844813791,2.203125
-0.591568933994832,-0.056312545306720876,0.08989536411223463,0.02468969978630856,-0.017707902609890885,-0.008582827261579596,-0.025437640490322263,0.6768272002452702,-0.010580114924321286,1.3442751788439136,0.03165991356100168,-1.9618768605479668,-0.005966987726382159,0.5111207066837079,2.2109375
-0.8131588407816788,-0.05589881362708866,0.12122978709056308,0.0366527392600598,-0.03644317459073739,-0.0035252724750399656,-0.03749711227237077,1.8254075392778328,-0.020299514632081753,1.1504426645953103,0.07414036001719852,-2.950825380886856,-0.028047224414034493,0.7389128744636326,2.21875
-0.5857702891567816,0.006882649603741848,0.08155043216867042,0.032579539484491944,-0.054447201487474055,0.015370723474240304,-0.03194945859556051,3.2948078190150434,-0.027127690530885998,-0.7111057306171237,0.12071685646721868,-2.6902721903744964,-0.06518855127529598,0.6144744692359538,2.2265625
-0.06461619832229891,0.06718893489223537,0.0005650750818855039,0.012400782306176054,-0.04648025006376541,0.026829145532532156,-0.010206845293751994,3.1610909004630607,-0.020560367648615286,-2.252645275776896,0.10823211519470172,-1.0958206914363222,-0.07123838767686191,0.18478730219804618,2.234375
0.159545440607087,0.03357148176646149,-0.02716446575497817,-0.004004128994090311,-0.00797234383860782,0.00905369182974789,0.00558022569878005,0.6079294207895468,-0.0019021863804877985,-0.9732685005443877,0.01788229398557984,0.3006621129067576,-0.017475886780359585,-0.1030572517783967,2.2421875
-0.019089780271784727,-0.06648737590077275,0.010069390340244514,-0.007382886681394006,0.036059252557572696,-0.025148354797095925,0.006707799895142711,-2.6734534976334303,0.016952896920747643,2.1450921154152827,-0.09113428588898947,0.7013752137751768,0.05974867712882077,-0.09320759459438248,2.25
-0.1564842008252512,-0.11219436843360596,0.03498143806556749,-0.005923123592692923,0.05151867572533781,-0.03954949165736637,0.004200833680006328,-3.8881231493325497,0.023146495843950034,3.5249094885005094,-0.13040957380896487,0.6365146833647888,0.08958201212141807,-0.03165539446106746,2.2578125
0.15349795378871717,-0.03561873208763777,-0.018040538163500035,-0.012637283664165055,0.03228509081649729,-0.017223821579158173,0.012738052527300097,-2.2621800848191302,0.01623033020669483,1.2812008335884322,-0.07977425849785187,1.0989003214676698,0.04747196163779994,-0.21686077138840093,2.265625
0.8534722281349307,0.10711835385369402,-0.13417538457491746,-0.03172485851223445,0.006621086147272966,0.02171118575122314,0.03526927831595163,0.1462225677498999,0.008633224801283727,-2.802673475613202,-0.008434092350265205,2.5033954670576657,-0.01909897735746876,-0.6870049390794764,2.2734375
1.4039440899703022,0.2003376064221701,-0.2232357648498336,-0.04920577688868929,-0.002360451848248459,0.045082963408426865,0.05504118627843533,1.2435414799180406,0.0077136092733716514,-5.393778888035324,0.020541659490625978,3.834852595179906,-0.05345684346911737,-1.0895223835084686,2.28125
1.2500398810778521,0.17735609636926714,-0.19870134468326278,-0.04391920632537027,-0.0016758611047221652,0.039732470888348505,0.049175026457686004,1.0669450229719282,0.007145838959164556,-4.7700945322011705,0.016874002595455496,3.4255560578569475,-0.04679060343691282,-0.971454751344305,2.2890625
0.42750831539308826,0.06433453592693135,-0.06875313133687527,-0.014394866312016918,-0.003737861781118195,0.014839357853581791,0.016785538770943534,0.5293172381159568,0.001532919413089089,-1.755868261969467,0.011107209417773295,1.1225554765913222,-0.02034729099295181,-0.3243019868917688,2.296875
-0.5150767767469054,-0.06818264366058689,0.08051234655451595,0.019045302545515216,-0.004325892972891906,-0.014827995295701734,-0.02000433750736459,-0.21295330555150277,-0.004097566331920721,1.795794368954046,0.0002054821534714913,-1.480322730678796,0.01280055126028912,0.41200400851470853,2.3046875
-1.1294952728728627,-0.16333904559552817,0.17883850644874424,0.039700176069435364,0.00045664424758794345,-0.037500711827221755,-0.04303710791428648,-1.0640314448230583,-0.005437884526223295,4.396323082359193,-0.019405691727039362,-3.072226848801587,0.04270184950186756,0.8768095412671987,2.3125
-1.2431862816066503,-0.18076695814779295,0.1969922111602219,0.04354173448062946,0.0012285020693635453,-0.041614613183488705,-0.047319777460091014,-1.2131284596627916,-0.0057398099396945325,4.870374598094916,-0.02274811701681365,-3.3692358800054976,0.04804425076754451,0.9632317801364815,2.3203125
-0.8225902625425169,-0.10773210202103586,0.1287328156245372,0.030422584703105594,-0.006699799537353486,-0.023074120019774894,-0.032407080092616614,-0.2991268745268953,-0.0069254106935836245,2.8313436218638057,0.001967662415973959,-2.373895697722329,0.020082142324696607,0.6587579384051493,2.328125
-0.18178746451774094,-0.005335861281931069,0.0258140749978406,0.009288344214343958,-0.013541700288989787,0.0017734325078991385,-0.008724618733955539,0.7203579461601346,-0.006364267330180115,0.016492637716384703,0.02691385138963771,-0.7509113862369302,-0.01408784727733662,0.17933976709941712,2.3359375
0.1083142360034049,0.033859643361476364,-0.019926857579302855,-0.001203172506352773,-0.01241928294485661,0.010285673035930696,0.002773217464000683,0.8815483303003704,-0.004204875767038667,-1.0226908941926531,0.02796512509279228,0.06944247010273573,-0.02275829111524134,-0.05013414241530003,2.34375
0.034786311028003614,0.018638920205152367,-0.007714953510338256,0.0007767402709367425,-0.009585909171615658,0.006106760027191926,0.0004341734218494124,0.6189019663047298,-0.003345000568557729,-0.585417127127584,0.02012606992414678,-0.0755088667887616,-0.01552794218627802,-0.001096257614515295,2.3515625
0.20745357542231366,0.045079544648087104,-0.03532147486122795,-0.0050711909505659555,-0.010745752010039343,0.012367514321819552,0.006940762269958638,0.8452051849583672,-0.002885462628846713,-1.3075617896295446,0.025206278487873844,0.37534780043246807,-0.023642387532883957,-0.1322034499411358,2.359375
0.6582893503968555,0.10975138508349139,-0.10685731233396525,-0.020907141589653778,-0.011216246628124841,0.027048342727094315,0.02439653074230303,1.2535490334921335,-0.0005288164492894332,-3.0496874871932462,0.032260616582928524,1.6053709833111613,-0.04072377276073363,-0.4822656340289733,2.3671875
0.6040802709171947,0.09246592830294985,-0.09712607393821361,-0.020241975395033772,-0.005562294844823562,0.021660431715549527,0.02332238509543913,0.805954087668225,0.0017174717594917934,-2.530551099166733,0.017851523027064338,1.5713963812356406,-0.029679823022617614,-0.4567077535074861,2.375
-0.08336959851298566,-0.020807953802275115,0.01369661422964656,0.00199571046546012,0.003790505243874692,-0.006311711296792866,-0.001713665754286778,-0.43130323259657993,0.002025556740584265,0.6027924616306994,-0.013817159483219446,-0.12889697082451787,0.010232939863944277,0.051655327223335816,2.3828125
-0.45511687924496375,-0.08895916380763066,0.07446942370199418,0.013132624608711991,0.012914467632901832,-0.024076233133609844,-0.014505059072719048,-1.389576481480631,0.004024736656798975,2.523111794165925,-0.04079405109785854,-0.9664389706023212,0.03835575730610612,0.3146622313471581,2.390625
-0.08197185170608863,-0.0517918216990008,0.017253302463997602,-0.0020869079409075726,0.022161143191436403,-0.018176381646363232,0.001712645415682704,-1.7371980975964478,0.010320002787582614,1.6170118619558558,-0.058307962713875096,0.2465164288091853,0.03971409055670733,-0.0033978126675652783,2.3984375
0.2900975873000475,-0.007535185773939553,-0.040680251418516084,-0.016339214871620277,0.027136941652068723,-0.009535011594219088,0.01710410435381651,-1.7819446073142011,0.014683561563081177,0.47695833588655095,-0.06548070173649904,1.3705638622152074,0.03423392537368479,-0.30814889670597384,2.40625
0.20164727334685476,0.0003689401110663847,-0.02913799539336111,-0.010572698112664546,0.015093801877434483,-0.004539644758553914,0.011452800141487245,-0.9985494385652018,0.008744531208533728,0.14396714602341773,-0.03744726577177564,0.8837873012756582,0.018058358083442857,-0.20383504481538184,2.4140625
0.1533269055668751,0.04288655753060293,-0.027418121169457146,-0.0024615231808403945,-0.013988387709004327,0.012763092169214322,0.004237695912246592,1.030891724737852,-0.00465802092998768,-1.2845050591460105,0.03238050071962814,0.1615297408206279,-0.026938589837088717,-0.0805531692981682,2.421875
0.3414497995413182,0.10351180998063798,-0.06128438605787556,-0.004689839595725482,-0.03400210128130869,0.03170721287858765,0.007886395597394373,2.6116607063370023,-0.012621682916720584,-3.106704256222263,0.08331381623073218,0.2726627566302089,-0.06588899772531816,-0.16820318651122826,2.4296875
0.1909077308667685,0.06347006006419863,-0.035159530225407666,-0.0017877771162173165,-0.022971303132021254,0.019743534134280746,0.004050387914116544,1.7014419313417235,-0.008498915503079716,-1.920397849750462,0.054601260974949196,0.08208399355351595,-0.04268763703800958,-0.08330315897783146,2.4375
-0.4052986310184899,-0.06384587348591435,0.0644515701165393,0.013715457892755996,0.002283225075196085,-0.015616861756996895,-0.014518425792355235,-0.5917284797824377,-0.0004913946188566465,1.745724316667616,-0.014380415755309392,-1.0448985687018242,0.01946914832247285,0.30700607101025645,2.4453125
-0.7094486141438046,-0.11842414614307199,0.11400313300715523,0.02295742962230198,0.009055781156499965,-0.02967815357243552,-0.025111655841745902,-1.3267000800701807,0.0008355617945059073,3.274923532485796,-0.03474461599168397,-1.7433008770646015,0.04132990993102527,0.5240622392477456,2.453125
-0.3785367094629172,-0.04967728663863719,0.05893329887618415,0.014096312667182559,-0.0038332641149765637,-0.010771051876190532,-0.014598825972018163,-0.13413950013145337,-0.0030989763960641704,1.3014222783841056,0.0008225247318491571,-1.0946857455235968,0.008628383057442719,0.3041148799480933,2.4609375
0.027233462401898542,0.02213155069465443,-0.007075586820124576,0.0016272349807020035,-0.012277439863545259,0.007621962486182796,-0.00035746247215325786,0.8043795169600977,-0.004601324125310089,-0.707706975339031,0.026572545714203262,-0.15072710441135925,-0.019604850654611483,0.012818544056379184,2.46875
0.05858343738609765,0.019141536180577633,-0.011139496170012728,-0.0004348830223670625,-0.007893586003590145,0.005767906187936939,0.0016676368350508233,0.5183558404771104,-0.0024434572659646865,-0.5824108464991425,0.016341315743278084,0.023940682524118947,-0.013669609690619571,-0.024506582459645477,2.4765625
-0.006122348799478199,-0.0024248183952420713,0.000601937013222909,0.00023734689412009647,-0.0005800573503365057,-0.0010304359108045326,0.0004923360720141567,-0.05619231868417469,0.0004908233212263763,0.06810125884275793,-0.002221971918670936,-0.005529193706627576,0.0004241158456962935,0.004262636276312949,2.484375
0.17019911697819087,0.012071630218832135,-0.02609989400921354,-0.00736512954151567,0.005592881123630574,0.0006043636456966698,0.008486523343924187,-0.3488396949479725,0.0042815276631729925,-0.2623207498943938,-0.014854922308876658,0.6047005837670706,0.003948915042803567,-0.15142213969980386,2.4921875
0.36571730163773447,0.032074249737408425,-0.056179717980501864,-0.015273763575988213,0.010115141876612617,0.0039153573243596055,0.016924720843595045,-0.5077132857272268,0.007434529367519023,-0.7560327667631437,-0.023247613941405003,1.2338214061111457,0.004137327878921365,-0.3170182090773127,2.5
0.24786014430225098,0.01724483377447537,-0.037718197877982335,-0.010856051477315718,0.00900670270482475,0.0008712960858504736,0.012135154877723252,-0.5266378059345382,0.006260466238660262,-0.3683062150586643,-0.02211149914428874,0.886943986811666,0.006626316836350043,-0.22174102739610302,2.5078125
0.04299071507230786,-0.011351739346378321,-0.005272338886857949,-0.003551283168369615,0.00875399152968169,-0.005506095660263999,0.004116031743031409,-0.6792256929482192,0.004978029302701554,0.3981408275385091,-0.024187932378010073,0.31836769629010886,0.013635124514535748,-0.06130775456028637,2.515625
0.1792501102324977,-0.00916370214246483,-0.02480181033858312,-0.010587273341389368,0.018839574772186826,-0.0076981233804026905,0.011268329412319568,-1.2838739666205254,0.010306898721713954,0.43914058242021015,-0.04684262936576626,0.8974918906523649,0.024911392250317823,-0.19729585062461077,2.5234375
0.3936347885711834,0.015540121178424937,-0.058117729085114256,-0.018907491685167508,0.022183184104484683,-0.0030224998587867224,0.020224405830610807,-1.3434106837802238,0.013038554800181509,-0.19166269501355737,-0.0521310326509089,1.554906786225953,0.022524692367177492,-0.3742957765667214,2.53125
-0.005120149247941256,0.005067839035749549,-0.0004594053358169975,0.0011447843279124939,-0.00492119753906453,0.0018290396188315509,-0.0002666807650833705,0.25414597300598973,-0.0014664755547842258,-0.177801358546305,0.008338529598696728,-0.09041323521777164,-0.006618127116413105,0.01627968026316279,2.5390625
-0.8610934399493568,-0.051238212072709,0.12741701189613222,0.039819478890590745,-0.04318466347709767,-0.0006775930041816335,-0.04059926732059822,2.2653455045007207,-0.023613262971736455,0.9576786680489658,0.08985731685793791,-3.218970438785785,-0.0371533912610505,0.7960617110949905,2.546875
-1.1532390104061296,-0.0776671410999284,0.17194510269341062,0.0520903459303951,-0.05199345841371809,-0.004296302809578652,-0.05358505653954673,2.6489147243503144,-0.029251956334715473,1.581853374469129,0.10736550405857785,-4.2006747374966915,-0.04073157285760387,1.049653659378075,2.5546875
-0.5413021037301123,-0.023693808337588853,0.07889538091718291,0.026224912346042326,-0.03271372079064475,0.0027179896912245165,-0.026230993481885023,1.785329562640891,-0.017061819130933735,0.3235515776354509,0.06863597960898499,-2.1277323046152783,-0.031862737611811943,0.515895106041294,2.5625
0.20677723741107873,0.05017715563725461,-0.035824297376332095,-0.004379240592265058,-0.013799903908012503,0.01432186147122888,0.006354459899218788,1.0613742029420485,-0.00426401917690867,-1.4742646158111277,0.03259158932075647,0.31205153465364893,-0.028525058157250014,-0.12284823218443477,2.5703125
0.6080365627229743,0.07284133891977534,-0.0953446134360627,-0.02299533381157251,0.0063212272542598315,0.014092883988760721,0.025660615963564865,-0.036403645713011946,0.007100626515317636,-1.8868435924859421,-0.010898593122605925,1.822765766878563,-0.010721759440735423,-0.49470229977404445,2.578125
0.9317160599288078,0.0655223799648089,-0.1402910401776197,-0.041327002800193045,0.037628122831526105,0.004139449765105372,0.04399802574131009,-1.9947112363278274,0.023074218079916702,-1.3837771184382959,-0.08251617135966749,3.346896222040173,0.02787730185668518,-0.8389555020374199,2.5859375
1.0798754449577523,0.06390564897558847,-0.1610616985093927,-0.04949107673836492,0.05094555675093141,0.0002334612114034107,0.05220780403051787,-2.819355941412958,0.02993166181785363,-1.2088888264290043,-0.11285851423941312,4.0241653121035466,0.043938858128802466,-0.9936035346455641,2.59375
0.5563478049662728,0.039450471738009606,-0.08402496424367588,-0.02454394156591279,0.0216778416335216,0.002493539600013218,0.02646727290228523,-1.17238112077692,0.013740929167469135,-0.8387127933424883,-0.04879859386313289,1.9920281788113856,0.01585312326578577,-0.4995676459465739,2.6015625
-0.26753650703389237,-0.018049714237097496,0.03947420348225171,0.01224992138527471,-0.013193881211549748,-0.0011904951589409548,-0.011994015261594172,0.6240983196437748,-0.0066932591920857475,0.36320241809581555,0.02492995824267057,-0.979598026848832,-0.010397929681224508,0.24512407816746284,2.609375
-0.4461615586634028,-0.05108942151452588,0.06871399186329559,0.017559872734029328,-0.008638238485350114,-0.0098369224622312,-0.01811447416339478,0.15192417604694838,-0.005655646589000077,1.2952965069008182,0.01157290992046261,-1.3785209402874044,0.003368683502672571,0.3710341649561856,2.6171875
-0.10063871631367421,-0.04183044874615763,0.01869595703054769,0.00019858185305043287,0.01473902176394638,-0.013958014212069696,-0.0003812896057984129,-1.2241084893238476,0.006865902899388061,1.2756635368510578,-0.040542272668749185,0.045135430819729365,0.028434110061436747,0.03300016860243392,2.625
-0.2085762648216231,-0.0505263430889927,0.03499309403137446,0.0048611758452771076,0.010851657401300749,-0.014873338329009137,-0.005292275844950809,-1.0377365854783407,0.004498218792728603,1.4690999988050295,-0.03253878935909533,-0.3301009952655885,0.026089202770186535,0.1284619596042965,2.6328125
-0.8245969266725294,-0.09214257471737164,0.12714508488997453,0.032552537998964994,-0.01604792208053146,-0.017088989130319594,-0.034197655017724586,0.36372122218561326,-0.01115400052218574,2.3210926387095827,0.024569186860780245,-2.5687093050579795,0.005142122583611956,0.687657630442062,2.640625
-1.0173851178835562,-0.09821078814028376,0.15516811171596945,0.04213267034132207,-0.028567509958082354,-0.015135898465076722,-0.04399699628076337,1.0944872158229915,-0.017906695538578307,2.362426306378007,0.0523700115047172,-3.3527878690716153,-0.007995112323240683,0.8748387891882982,2.6484375
-0.47697952399820875,-0.040532062366730674,0.07180779791454762,0.020594218921609876,-0.01744073783819925,-0.005121297122946011,-0.020925356841781435,0.7525342387745844,-0.00980765604465498,0.9253552060259609,0.032477661402229484,-1.6418940518422176,-0.009651578743061898,0.42098917518236645,2.65625
0.14257362596747575,0.0248229810565291,-0.023689684168422206,-0.00421551218502897,-0.004225616762804504,0.006076420955788059,0.005610764008871751,0.3274018205033087,-0.0003124037000408067,-0.6994061721617306,0.008573710223537572,0.3294184994387955,-0.01083014784729615,-0.10086855173834315,2.6640625
0.38484071354966753,0.06011573779613745,-0.06221622836009528,-0.012662142610025061,-0.004799487538801735,0.01418003504082573,0.014933708944162103,0.5694675753499111,0.00080970213183701,-1.6542580100630533,0.01314173752890574,0.9841909637223478,-0.0205273756090279,-0.2881227743317002,2.671875
0.44474897299142885,0.08498663295873952,-0.07368670537242435,-0.012651665162603038,-0.014464884638441925,0.02234794748104448,0.015490399319402702,1.3070384199677358,-0.003212278058293566,-2.4174925415298087,0.03733472865179004,0.9529586757015928,-0.03822200946872451,-0.3063080289530112,2.6796875
0.5189944112715639,0.10013857232635157,-0.08600737978318299,-0.014663011007575374,-0.01720137289650932,0.02647878161174346,0.017877361518503106,1.5636250545541186,-0.004025088551585829,-2.8497671744385302,0.04491718755433215,1.1012757109672417,-0.04528545844402463,-0.3559756040029079,2.6875
0.4925663172627744,0.07448058860036681,-0.07918821378055395,-0.016568630323663635,-0.0042825761818015675,0.017267353306829606,0.019220595696177286,0.6222364661667156,0.0016568210141490805,-2.0327436603751967,0.013263271637970017,1.2903526131808125,-0.023560473893091766,-0.3734133097306044,2.6953125
0.2948633661995169,0.0175065371785867,-0.04438574540366417,-0.013348962003904601,0.012793773022518279,-8.791226358658463e-05,0.014659982601340785,-0.7575813062084605,0.008240904494310076,-0.335988176408393,-0.03068312034161425,1.0931924147088967,0.011017307861714034,-0.2697292099305175,2.703125
0.09763215497529447,-0.018612041770211942,-0.01215489200728948,-0.007449679468437362,0.017612886671271612,-0.009488344275797063,0.00786645976833713,-1.2644933521044577,0.009294363659513841,0.6793039104281429,-0.044918174839918355,0.6488590703888624,0.025876152579652454,-0.1302194210821064,2.7109375
0.06115876211827868,-0.01650364478605066,-0.00725701018423888,-0.005215987072250908,0.01331943163953216,-0.00786756046182485,0.005658130211293182,-0.9889673685187857,0.007148539584254677,0.5795639444496185,-0.03498771151614362,0.4614104504889988,0.02029723317925333,-0.08899332976998944,2.71875
0.08239457071849146,-0.010447081811311902,-0.010992893120786862,-0.005560725324999317,0.011516181649703897,-0.0060283983843699325,0.006155410916925971,-0.8428204943775833,0.006453940532290758,0.40001687657952123,-0.030357805876502712,0.4828961954599738,0.016651883375417006,-0.10009542915072166,2.7265625
-0.017207091221943045,-0.020576097576673103,0.004328532057017531,-0.001515288837127888,0.009168314754622164,-0.007695030428616965,0.0018499032782969761,-0.7587988181240434,0.0048251413293442695,0.6504413793058301,-0.025990940736597235,0.16137921650085768,0.01649461549692944,-0.015611087398767218,2.734375
-0.15125998078611405,-0.02731796318699462,0.02412522276927706,0.004810561133349944,0.001954343899111868,-0.007303177914310996,-0.004691938231144348,-0.3572094404903202,0.0008050351926315914,0.7609320978666161,-0.010264647400819697,-0.3531410639603379,0.009739415073197906,0.10994086794030733,2.7421875
-0.15629224457966137,-0.02353002893639805,0.024379595793257377,0.005563604544785454,-0.0006940670732398008,-0.005740062364841036,-0.005375391236631757,-0.1728661316095716,-0.0004183770793580787,0.6316771143209374,-0.0038942881070506297,-0.42041567617970327,0.005643736323304085,0.1215957787822449,2.75
-0.22514208360683993,-0.03733603611004344,0.03575708337147767,0.007463650932634253,0.0016951164841628912,-0.009468692601733568,-0.007615907740066202,-0.3997861837538768,0.0002678800967324431,1.0242490975401366,-0.010565789124621798,-0.5612847023201712,0.01196474095107727,0.1683119694902443,2.7578125
-0.5771990530556357,-0.07386848502749083,0.08995945915855595,0.021637445289861352,-0.006162405192551816,-0.015604142711830742,-0.02275740970491679,-0.13320838286650638,-0.005284922184600665,1.9286192996325944,0.003868552133946527,-1.688567337607902,0.012081224634891342,0.46593257946723443,2.765625
-0.7689567450466832,-0.0803914554881491,0.11790883710919739,0.031100207577700264,-0.018319241339602395,-0.013859156323438038,-0.03245082564913638,0.5722235008209726,-0.011864628682724379,1.9867584862611702,0.03080063343918322,-2.46225594924035,-0.00050403040684554,0.6511582192790453,2.7734375
-0.20377655978119621,-0.01772355588339239,0.03042960247927181,0.008875913678694114,-0.008069331718496418,-0.002486709020658997,-0.00857551328221688,0.31252212250964634,-0.00401853599939819,0.40601440629917207,0.013341901967786337,-0.7007884211568396,-0.004469035498373957,0.1803971403476812,2.78125
0.6409821219023104,0.06173600178966503,-0.09866607417161753,-0.02619747411852505,0.015613536961386705,0.009118154143589978,0.028646234817938765,-0.6702930759772198,0.011482317405956914,-1.496260394359274,-0.03299201004584972,2.1016549158572753,0.003027105386471631,-0.5477614807805369,2.7890625
0.6194852349366584,0.06920955537840358,-0.09654498383254044,-0.024083712204206287,0.00941064977575957,0.012465445633842023,0.02667287494297977,-0.24654009195586588,0.00855926740028528,-1.7598536648083523,-0.018228511125122478,1.9171218752282808,-0.006175882022304592,-0.5127211542551643,2.796875
-0.27215673200148816,0.0060539065491319,0.037213873920429005,0.01561181614739963,-0.02779027119871845,0.008132928251654821,-0.014852436241597098,1.659291756881036,-0.01330969852193059,-0.4295856463168031,0.0602572349291542,-1.2877734047146676,-0.03371120673329903,0.29172321392119566,2.8046875
-0.7248861312952549,-0.031886659678979405,0.10584781533063298,0.03501169286259415,-0.04320912413541673,0.003673887908485698,-0.035300762009173904,2.3797937591427565,-0.022845880578298002,0.4393048824094943,0.09168657894944038,-2.844882292154056,-0.042105903727189316,0.6898802573808729,2.8125
-0.10497229109304176,0.009204611499061214,0.013192802939352238,0.007051717600957688,-0.015679107489097323,0.005599023045494644,-0.006124854217663487,0.9360310617837779,-0.006888452158706095,-0.39246207006269274,0.033071306255529606,-0.5830262689081579,-0.020276471575369496,0.12562314123131266,2.8203125
0.6671997286772934,0.07421267572739354,-0.10388457349738439,-0.025989101631725627,0.010454789889094292,0.013292820005749256,0.028720681641112036,-0.2815069494350666,0.009304505489699886,-1.8817583511487304,-0.020157470162730527,2.06919181894973,-0.0062035719989002695,-0.553056467831652,2.828125
0.7333634607507403,0.09891196841905006,-0.1162027010896041,-0.0263427268792926,0.0014167210344781932,0.021261223882971,0.029637747949866143,0.4168508821797195,0.005601334522719421,-2.634886857929893,0.0026169110355829515,2.0679694067292536,-0.023120569038861904,-0.577878272480341,2.8359375
0.4686946241608466,0.0892998414301491,-0.07757820234114873,-0.01337465524377468,-0.015008889019959162,0.023461017780955325,0.016323780685066635,1.3657380283069778,-0.0033202577313351344,-2.538346133521302,0.03896291856966789,1.007554004516961,-0.03994545847559398,-0.32319163599160866,2.84375
0.38391355319072523,0.055579142373481986,-0.06153259487168029,-0.0131881203491246,-0.0022182826671472513,0.012467624896900214,0.0153689190695108,0.385118117553803,0.001969569584923508,-1.5062583413514856,0.006859533988060374,1.0335906833341295,-0.016328351625273865,-0.2947901480547007,2.8515625
0.13378804780862152,-0.03132148589880544,-0.015736056342811822,-0.011017924383774684,0.028100739623373876,-0.015145822984356622,0.01119487717865512,-1.9803293091118088,0.014230724447478572,1.1255997681186694,-0.069878035041445,0.9602793998120693,0.04143844982674224,-0.1890716989922479,2.859375
-0.485195548788227,-0.1447646476525,0.08542869527919837,0.007511868995914838,0.04327701899798191,-0.044700174167712436,-0.010109258639689124,-3.5750150253528443,0.017557871376252684,4.31938634537864,-0.11473706659629605,-0.4338330393752937,0.08821448540237954,0.2487582429149687,2.8671875
-0.7038840299230277,-0.1682068845524173,0.1191667044029367,0.016207282721991515,0.03883943149631944,-0.048784411813797446,-0.019431038575381632,-3.4412024041406553,0.014309860493176412,4.902552357408198,-0.10683054425377268,-1.1249668810200304,0.0889871486523199,0.4322659023963447,2.875
-0.026337690939037144,-0.05170911653587614,0.0093304539688608,-0.005080138288023716,0.026749784723882213,-0.019349565949477277,0.004720147958404162,-2.017534579248703,0.012708436908386822,1.654672059766677,-0.06867084652572064,0.49267312551849873,0.045038587527442706,-0.06032983642895435,2.8828125
0.6399577717095294,0.08334977663550179,-0.10110880181883287,-0.023346073246406085,0.002788638582453152,0.017398927418335215,0.02625201226266385,0.24172326721954646,0.005684918598352656,-2.204704096176237,-0.0019083257499630502,1.838965619632099,-0.017572111184058225,-0.5092243401285664,2.890625
0.2864982259170848,0.0932320353967906,-0.05223938478104018,-0.0030721184183778397,-0.03252055275448909,0.028980716082040683,0.006016546122141022,2.4605010839725967,-0.01226405465013531,-2.813088827040356,0.07900613091490681,0.15195301088249866,-0.06151208313167925,-0.12984608429970737,2.8984375
-0.5707074746389806,-0.006860961053635002,0.08105460188269449,0.029989540967103705,-0.04508290690124738,0.009783598015287012,-0.029646538916845117,2.6414759883417305,-0.02281308526956585,-0.24788591760708623,0.0982228493952521,-2.4591899930431365,-0.050671989806673555,0.5752807500629825,2.90625
-0.8255159377294083,-0.0932989113874226,0.1274283554546551,0.03245910249843345,-0.015432960131466089,-0.017528017771083274,-0.034120349159979114,0.3194450607745879,-0.010880999854830334,2.3614869256121334,0.023055388241563408,-2.5590424293557783,0.006188995131391776,0.6866685143704155,2.9140625
-0.5890188638330615,-0.09689245623050668,0.09436333449309216,0.019280502417332313,0.006412458796850485,-0.024118125292277793,-0.020907419950131644,-1.0385095924051606,0.0003245169735367688,2.6694842931719505,-0.02676424699692821,-1.4661005012870851,0.03271575250407197,0.43800526561060227,2.921875
-0.627609219286729,-0.038518617013538085,0.09284700448600357,0.028917953037762876,-0.031187775954523624,-0.0009961118552378977,-0.029307360151492077,1.605050794831701,-0.016866630327445085,0.7330432098255132,0.06384133109942867,-2.3336754773196375,-0.02631948289690805,0.5786018604822187,2.9296875
-0.6916629287241263,0.03456493299731655,0.09318801998756511,0.04184332738949059,-0.07957655606704311,0.02828341047061404,-0.04067769214721712,4.995146709358239,-0.03907115299077922,-1.701739095428295,0.18022835303488097,-3.4901838915561174,-0.10173815341839991,0.7708902542329117,2.9375
-0.06866839237955365,0.07580843930141926,9.595019931355149e-05,0.013746999758722423,-0.05189115027890384,0.03020064031838851,-0.011354557309367049,3.543295034533406,-0.02302769032124054,-2.535254441962361,0.1212744344426845,-1.2170652783118194,-0.0797587418947307,0.20403759898794477,2.9453125
0.7775671355191299,0.05524363664355211,-0.11719917406283936,-0.03436258011722219,0.030829507765135926,0.0036084496133504313,0.03675162001047293,-1.639016927453521,0.01912660131802275,-1.1711254171885674,-0.06807770688672976,2.7849039028550786,0.022552231237104127,-0.698736440404766,2.953125
0.9328868190638443,0.011553014983371447,-0.13394990527964643,-0.048378816530847496,0.06952920386344189,-0.016492199181164183,0.049893981791743425,-4.263578812361907,0.03747889940380778,0.38021931032315853,-0.15978699979548794,3.996147090570877,0.0790967750632813,-0.933689333353685,2.9609375
0.8216463105394574,0.033112255934746954,-0.1208070108231951,-0.03962031441495927,0.04754688195209093,-0.005794992184388474,0.04153305481917187,-2.7921543744842863,0.02692597027121708,-0.41620937032100974,-0.10797684843423326,3.2454224475520577,0.04779202248785375,-0.7824422849938383,2.96875
1.3123252887628347,0.12468056109019486,-0.2012457062876343,-0.05409804275382089,0.0345379729281246,0.018273577005609245,0.05824535737469907,-1.4587421995670506,0.023849537993453233,-3.003169037428963,-0.07006858317961087,4.330886448995057,0.009161632185434207,-1.1265947611976501,2.9765625
1.6833683202255594,0.16012151094785754,-0.2580091794314617,-0.06941910728820233,0.04461266300505032,0.0235739419396355,0.07453540820683371,-1.8670553584439313,0.03050762695353549,-3.854915834043772,-0.08964831881888369,5.554724796107811,0.011945662290197414,-1.4453284397489932,2.984375
0.6999893627832859,0.055118650175228816,-0.10623477763347561,-0.030217818579721584,0.02442133879202058,0.005294064445409796,0.03255999298788852,-1.247888613260355,0.015792069263093723,-1.2323119920425014,-0.053572653745299195,2.442080014595713,0.015056444075621175,-0.6195284338896649,2.9921875
-0.9228625303938667,-0.08827223343286462,0.1406391406028641,0.038335520972925835,-0.02650781339040882,-0.013461755582460834,-0.039942698170188924,1.026594113013579,-0.016435552746827183,2.1180486263859244,0.048636338647977846,-3.050833299650676,-0.008110374520086661,0.7949736887857768,3.0
-1.5051059238541467,-0.1300305917680243,0.2280387799955777,0.06417837928706929,-0.05048564430142643,-0.016488845882714435,-0.06700356771957694,2.248730001847147,-0.03057115623731895,3.0026816659245905,0.0991434302408591,-5.136918453487408,-0.025599582942071247,1.3192502233489778,3.0078125
-1.1811761566725933,-0.10542232191134611,0.1792236760360871,0.04997026190848446,-0.03795611333838084,-0.014267458268625962,-0.052099845226564766,1.6269086199012803,-0.023070490709612125,2.4638267065302837,0.07302704478141503,-3.9925857936400737,-0.01718682330532587,1.030035657598615,3.015625
-1.2501295719202967,-0.12881148412849003,0.19176639032929457,0.05064758138047746,-0.029937588420589478,-0.021656839580688574,-0.053311270761345717,0.9992093288615737,-0.019845111164555666,3.170611034797313,0.05268808435452079,-4.0199662880317195,-0.0018015656626573096,1.0603026056148062,3.0234375
-1.491122603751011,-0.1611176207852521,0.22974190141609066,0.05941012671666686,-0.031021680006142877,-0.028644437290708553,-0.06288624172527309,0.8756839236085637,-0.021708078930747336,4.028293501016644,0.05214280062889835,-4.704644624259138,0.005189053591500292,1.251328266442136,3.03125
-0.7125808435309359,-0.08179320698914275,0.11007062047031754,0.027891855079951317,-0.012793193592984847,-0.01563889315386341,-0.02924079654258908,0.22558980193202935,-0.009048357839277947,2.078356552340948,0.018131041782524133,-2.195179965355903,0.006343574893935027,0.5908921881160338,3.0390625
0.6898715023553141,0.06468085430820474,-0.10593951280021627,-0.02842924344188033,0.017941395266207968,0.009161597418679938,0.0309788749851856,-0.7953425536921829,0.012808678024392133,-1.55220481788906,-0.03801571732766739,2.2828390688142006,0.005022987150407557,-0.5925711907347464,3.046875
1.2253705199325229,0.12132840521293008,-0.18850487342877414,-0.04984346385383113,0.02925388717350048,0.018907876122919092,0.05389495505228228,-1.1550092474235303,0.020963473983827512,-2.962298966316565,-0.05842363790247897,3.984155463777991,0.003835322528818969,-1.0432037759675274,3.0546875
0.7778837569049262,0.07550670968534945,-0.11968976367902229,-0.03175830309644269,0.0189100978460312,0.011344989041796828,0.034581696575108484,-0.7910975221484738,0.013747903099585143,-1.8340727085864466,-0.0392018796541289,2.544586959624803,0.003390119474722789,-0.6640327572376232,3.0625
0.4225266755370263,0.044489314408262065,-0.06568331160594144,-0.016702349046883287,0.007538338905295147,0.007383964968767867,0.018664656209303118,-0.2774388429538347,0.006593928769778926,-1.113111059522213,-0.016284259028365364,1.3374963437923062,-0.002040324503571597,-0.35367532593688156,3.0703125
0.4371291439667323,0.054928824249480965,-0.06899678131259683,-0.016138676979121053,0.002617853555914071,0.011038951109696356,0.01832969702086051,0.0848326622834789,0.004457801136587272,-1.441717276946114,-0.004162420798717497,1.2781115523211661,-0.010483022589241843,-0.35065514070927356,3.078125
0.3362955384156139,0.04429527216172593,-0.05345901212766064,-0.012107478434285725,0.00047132573268151044,0.00922035460754568,0.014011243907272248,0.15384193389665324,0.0029150925465013054,-1.1777483803664992,-0.00026911354157131717,0.9575694279791904,-0.010295345730129387,-0.26577485653681554,3.0859375
0.15195271306549746,0.021399330978869577,-0.024640859016200802,-0.005178209867967485,-0.0014307059374601223,0.0045802126925649595,0.006485557352249972,0.13623043259980377,0.0010062377203474498,-0.5823333531399746,0.0019404414477570595,0.41227107646981853,-0.006695698384210206,-0.11641031897117705,3.09375
0.19135656629280903,0.03566502946023035,-0.031924245681345255,-0.005440258075940828,-0.006554313873761863,0.009150183968293814,0.007075577383935649,0.5338902516165985,-0.0010829082142464602,-1.0155046235132175,0.014871850357761422,0.4165493298513107,-0.016357171168935432,-0.1319217366749992,3.1015625
0.24333796668016472,0.053837701621688924,-0.04143893515240953,-0.0058675459694008895,-0.012921232196277749,0.014918858498977108,0.007930653481878573,1.0300355510560424,-0.003661375430194152,-1.5648689524963328,0.030964979110398156,0.43020069969307734,-0.028457871433197265,-0.1537183933215598,3.109375
0.041934626068153,0.018865157642351776,-0.008739632911777762,0.00041953495078822495,-0.00912067974813235,0.0060303016891654826,0.0007942690751454394,0.5917090951124431,-0.003093373093550342,-0.5876486557418023,0.01910461749920154,-0.046450388586652555,-0.015050151695541438,-0.008065035918947033,3.1171875
-0.18842122221897784,-0.039267261957725966,0.03080472445257601,0.005252948589643556,0.0059024774742297845,-0.01103654606110972,-0.005411001494319928,-0.6689019745909911,0.002375093944839975,1.120433843865511,-0.02031243406970831,-0.3751989401221364,0.0174295481775569,0.12722722511887263,3.125
-0.24167025616669743,-0.06150117517521857,0.040981019577343084,0.005225249180607826,0.014553659479539526,-0.018325211507361067,-0.005897397595471328,-1.328412478307883,0.005976430257549056,1.8010293077317636,-0.041955280549146864,-0.3463481584443399,0.03324823546837961,0.1433883350025307,3.1328125
-0.2864520846319483,-0.05398333357020287,0.046420555236210956,0.00860022573536097,0.006387165908934121,-0.014460626128664606,-0.00914153335853034,-0.7844353644648235,0.002036165476433843,1.5179378197019557,-0.022737704696518292,-0.6350176863233337,0.021729862955882983,0.2023903222444052,3.140625
