AF3,AF4,F3,F4,F7,F8,FC5,FC6,O1,O2,P7,P8,T7,T8,time
-0.3780290620261504,-0.09691694579883472,0.06452924310075456,0.007962460006816175,0.024030220397114836,-0.028816587797089042,-0.009467066146384456,-2.116404777787066,0.009479031734077605,2.8457201937779932,-0.06671027729715182,-0.5292975475335953,0.053414483690952655,0.22187626065231955,0.0
-0.5329367809992686,-0.14858267753940746,0.09264852297932412,0.009574949151995063,0.0415302879827314,-0.04507990134409631,-0.012289681554455688,-3.4901972499653025,0.01649669437891088,4.40290251427233,-0.11110714029002791,-0.6003294133424871,0.08711749963717574,0.29124039373603827,0.0078125
-0.7499822190880012,-0.1715014819632784,0.12609524335242742,0.018251369737188505,0.036922930883697136,-0.04900716121843719,-0.02158159841331085,-3.3428400945379053,0.013181767263344269,4.971340100129352,-0.10276870002432947,-1.2901601195930648,0.08755034059435997,0.47387857484091833,0.015625
-0.8180616264694174,-0.16204485666100737,0.13457844299258925,0.023135715674745146,0.02568020466483947,-0.043898654218504196,-0.02628889157424414,-2.599748310855647,0.0077193319595371505,4.607567089366281,-0.07643862104300218,-1.7051968252815863,0.07196043295830479,0.5598692719724498,0.0234375
-0.4200023023216688,-0.078008228702457,0.06820071200280559,0.012664720592912357,0.009396829972453743,-0.020677923532821278,-0.01378181352435584,-1.1102576922429415,0.002635013441855927,2.1940933083959795,-0.03180785249962721,-0.9410949308914227,0.03142313383829509,0.2975018248932576,0.03125
0.22049079851320577,0.05023964156161194,-0.0377507721079377,-0.005099530366086226,-0.012706160234185476,0.014043464745368574,0.007087649605615599,0.9952834933612075,-0.003696551621414074,-1.4644317472826909,0.03012301150258904,0.37169492091427697,-0.027258916167039612,-0.13660881232854055,0.0390625
0.5264421567922125,0.12020036440333215,-0.0894080102945095,-0.012467144423723904,-0.028389832452318128,0.03395886039027368,0.016114348570876815,2.36592606002106,-0.009034667158487993,-3.4979354649803813,0.07214866538686254,0.8951796176279603,-0.0635525831827284,-0.32893807042427325,0.046875
0.40422403887201097,0.10530337799187947,-0.07035783106897468,-0.007842566849463172,-0.02981111901631073,0.030992330441168215,0.011097434240923305,2.365366729450052,-0.010370439440986772,-3.1135987299369012,0.07399885499620637,0.5306432416918881,-0.06142701724279554,-0.2295939829403933,0.0546875
0.28160911387177473,0.07502610530018118,-0.049407450848944434,-0.0051783344582938,-0.02220241137761403,0.022151524560715008,0.0077234583689411145,1.7217860161433163,-0.0076317092290459024,-2.2249897162029946,0.053934406897871164,0.34763705892800556,-0.04474146889373739,-0.1564392268589315,0.0625
0.323090428285982,0.05799418353213712,-0.053231149774702155,-0.009604880291728284,-0.008703733305504452,0.014721885504591975,0.011814892016974478,0.7957631383485503,-0.0013028155395825465,-1.6329592451830348,0.021753411675128887,0.7347964265387148,-0.02452691323718561,-0.22840720838748885,0.0703125
0.2730227001327005,0.02115074289836198,-0.04172653485760285,-0.011694630219361728,0.008821273378592964,0.00178146642700446,0.013080875432543394,-0.49274720327283295,0.006320207593545414,-0.472096271809851,-0.021348229304631375,0.9521255562287665,0.005433159718028906,-0.24090386543872233,0.078125
0.07916475925213323,-0.021900901794789714,-0.009159958742905866,-0.006876049363106938,0.01800054894782133,-0.010326652309615287,0.007220377645500302,-1.3071437700853559,0.0093598631423884,0.771107469974978,-0.04610498337763431,0.6055273569085191,0.027169253520373752,-0.11687293151366118,0.0859375
-0.011579487710724857,-0.019406733382824285,0.0033605843002415896,-0.001683207951073146,0.008957276159981912,-0.007358562201848568,0.00203001376142092,-0.739213959857281,0.004764209458937868,0.6140579110142047,-0.025383949530824436,0.1730923666844749,0.015919260890065103,-0.01957201281696508,0.09375
0.017411317474773584,0.014333998879149653,-0.0047677740440532305,0.0011407504943466602,-0.008494698039043723,0.004855521784911762,-4.437253734100483e-05,0.5268466150084574,-0.002946956491070334,-0.46166301538697924,0.017270810452861017,-0.101049451706008,-0.01315551752313032,0.009245387746923066,0.1015625
-0.02118269665424872,0.023159712848686214,-0.00033022746968741374,0.0043629581969541024,-0.016911140194087893,0.009066251170238144,-0.00309177547975969,1.093830234651689,-0.006968121234328321,-0.7796998503073503,0.03716401469882668,-0.3779917219106691,-0.025281765335041135,0.0641489615467013,0.109375
-0.025479646131551063,0.010124842199023959,0.0018472920254859312,0.00290303292049755,-0.009598003382746762,0.0041965933618585685,-0.001917093478984193,0.5697523154975146,-0.003694061802585555,-0.3581649247821855,0.019393832751309424,-0.24152885657553025,-0.013386400990350069,0.04595463357047608,0.1171875
0.18830858648055185,0.010326932089649,-0.028448192160636307,-0.008552230566039043,0.00811176730381997,-0.0004511095909061597,0.009653234883929772,-0.5128878642973554,0.005517162842334073,-0.19031051111759936,-0.020730244759033147,0.7052880044399631,0.007338219668837588,-0.17279944502867872,0.125
0.3085049131330806,0.005136526945367211,-0.04484515679680707,-0.015677839385268098,0.02119514053124015,-0.0050916985760940635,0.016730420492374196,-1.3437737567173111,0.012108073677918291,0.07766433158946189,-0.050863975904039814,1.3008291155824667,0.024019823658406634,-0.3049020478885524,0.1328125
-0.08432318278450798,-0.03670150206337528,0.015769067921213055,-7.327716866050454e-06,0.013063598558003271,-0.012347941561143206,-5.2259367046423165e-05,-1.0914262551827456,0.006200950786707305,1.1208944611607308,-0.03628022787936659,0.05611803413937518,0.025149512171478483,0.025266494364806217,0.140625
-0.6740264031788685,-0.07729119446791481,0.10409415976057212,0.026393315758858633,-0.012231156121543255,-0.014762269764575203,-0.02764360983041129,0.21812607865467945,-0.008574178428035912,1.961232465735624,0.01731505958609822,-2.0773357931440377,0.0058137057553536145,0.5592455409156846,0.1484375
-0.7558589921035993,-0.06404937673846342,0.11408088252965051,0.0325025419707568,-0.026855731313159884,-0.0079004720373511,-0.033507905448441795,1.19028925189512,-0.015640322592095694,1.461892768688741,0.05166786048147591,-2.5984693373026677,-0.014718494117719406,0.6659121577752359,0.15625
-0.33113079461674594,-0.02593746034860231,0.049395994278833275,0.014639510289230832,-0.013858275560998437,-0.0027854771463918936,-0.014589776938198157,0.618298846090915,-0.007354735310830501,0.5676371739937816,0.02570164483175413,-1.167775371780602,-0.0091633203188712,0.29658250099187977,0.1640625
-0.04207598576592556,-0.02493271131835391,0.008372314052498208,-0.0007487780299206487,0.009671110905579684,-0.008814096563085329,0.0009761792679892055,-0.8154838366156157,0.004910611145601206,0.7726259146929053,-0.02753356483246751,0.10321921781826773,0.01820450165778745,0.002154549158885457,0.171875
-0.08855276943191802,-0.04493964546986928,0.017361369935534613,-0.0008501367614944578,0.017571213737793887,-0.015407419354742645,0.0006131493473362111,-1.4159897190033934,0.008210740001015801,1.386267079654849,-0.04725872496271749,0.1355447928590108,0.0325594341604145,0.015237151278934168,0.1796875
-0.0353860065242515,-0.020129038779713688,0.006867325296908217,-0.0004963157249865925,0.0073892509698305735,-0.007110073644094493,0.000812602267812631,-0.647203709438956,0.003918194605619582,0.6186597957328779,-0.02187668333366437,0.07574413816458742,0.01425395791305482,0.0037221843376379956,0.1875
0.29061162565073273,0.045817585297861736,-0.047185285733704105,-0.009454970787204585,-0.004246465913255601,0.010818424752775595,0.011367869111652669,0.45164374649309247,0.0005238415221080966,-1.2657498634942335,0.01056228735145693,0.7362965959249658,-0.01622433964194151,-0.2162688444991487,0.1953125
0.5038444913108873,0.07981612369545454,-0.08144831657304616,-0.016490371064649893,-0.006471191448446032,0.0190480768095932,0.019262107847608154,0.7870600332891747,0.0007339745503004094,-2.198463328261866,0.018710256769879526,1.277123051994515,-0.02748452198144232,-0.37599607668369966,0.203125
0.3770022562473747,0.054450799643009834,-0.06044837299207714,-0.012958240255991078,-0.00211559410072981,0.0121763660330609,0.015124485376139802,0.3716939710734109,0.0019765031541555747,-1.4734926151156307,0.006489866325762438,1.0163522998439474,-0.015889393341170493,-0.2898642598198186,0.2109375
0.19715704311461732,0.020902700198287705,-0.030957471433802865,-0.007650194777967557,0.0026304438872427082,0.0033725343016996452,0.008991328280410252,-0.11527836143200418,0.003094189260666907,-0.5268529479045844,-0.007338704226323644,0.6181318446089678,-0.001777641045007637,-0.16350040876408936,0.21875
0.23480935109616646,0.022738330310821765,-0.03650423899899954,-0.009443795982710779,0.004687191095474772,0.0032506174136573496,0.010829915495912527,-0.23007021420590199,0.004238056303065857,-0.5574734424922201,-0.01180336436049804,0.76361298363343,0.00014241790323223772,-0.19884413963242897,0.2265625
0.341807079331416,0.04319711167760466,-0.05411647558503965,-0.012543998268502402,0.0015673754580474842,0.008687151018775806,0.014422684741735976,0.08082041647516425,0.003440044961963663,-1.138140730460819,-0.0028441390012247684,0.9947490298521692,-0.008743474245732958,-0.273157501605364,0.234375
0.2653766160173455,0.0458124014307299,-0.04362793910894702,-0.008096026209458299,-0.006347323622197071,0.011371865702155459,0.010000781967407139,0.580152384035072,-0.0005684504372980098,-1.2853496170301135,0.015310803713599462,0.6241986972693848,-0.018681342309175616,-0.19042502561787839,0.2421875
0.025642908183318044,0.019604363829750924,-0.006552747410712336,0.0013895638559017136,-0.010915704943107256,0.0066806908940905815,-0.00016496856967753324,0.7057633105737696,-0.003997059676397744,-0.6252684065473975,0.023229114389550047,-0.1275668150865129,-0.01733826414143606,0.009876987589835797,0.25
-0.19781257316013293,-0.019484294544400083,0.029776109447692836,0.00832371107432674,-0.0065436090718978285,-0.0032749920357367803,-0.00806250656387847,0.2090832229978448,-0.003296272203110722,0.4672757957003417,0.009727267547498657,-0.6532438376412051,-0.0022374313328780188,0.17132429866847945,0.2578125
-0.343107825328592,-0.04531687096361526,0.053445235675529404,0.012769952894203615,-0.00345680959658779,-0.009899421337822088,-0.01315566005061868,-0.1311000444307413,-0.0027292224001328838,1.1896294825782197,0.00037685895813666646,-0.9898960698372288,0.007955893059964185,0.275586951408061,0.265625
-0.44461759254165606,-0.044629682916860154,0.06771689656909048,0.01830434015920447,-0.012330103244575816,-0.007383919219858485,-0.018734520680630713,0.41584484097124425,-0.007311211169650211,1.0826147852417403,0.020556926249610523,-1.4485670275012905,-0.002643355630289863,0.3807296029847385,0.2734375
-0.45808160871066805,-0.03251723244495423,0.06815148476348953,0.02060150706341896,-0.020581074395062533,-0.0024736107769275893,-0.020767896158627376,0.9914474432520941,-0.01111192578027297,0.6770162664241952,0.04034873839980395,-1.6528751541143054,-0.015399046998733805,0.415358772715866,0.28125
-0.30893320569245464,-0.03118903745258321,0.046885404699960866,0.012772416085631006,-0.008914181390571548,-0.005283592787863304,-0.012819563936857924,0.28509936706751543,-0.004997627294069753,0.7578351920378278,0.014007509023260431,-1.0067994210409856,-0.0020188968786184667,0.2647925489494164,0.2890625
-0.086272353090501,-0.03931192395122521,0.01636704804996915,-0.00023751201241447602,0.014447240381242482,-0.013316448027075016,0.00013065194135465256,-1.1919532214247128,0.006813398112491622,1.2057227534977961,-0.039675165247582383,0.07846713872281268,0.027470348793920123,0.02263563046136075,0.296875
-7.836718225509885e-05,-0.04364552316150008,0.004690520397536187,-0.0054373205065835414,0.024189112082477343,-0.016868100201415884,0.005270027896865959,-1.813328755487224,0.011701325769411347,1.4158252586664624,-0.062126672534043845,0.5130053309259123,0.039984527406871445,-0.07318910775444357,0.3046875
-0.09425553471911836,-0.04225978253527221,0.017824174383015735,-0.0002067090944287864,0.015516893796062073,-0.014245654060323642,1.4856175962534074e-05,-1.2746719994284736,0.007252588268279686,1.2919714218951672,-0.042345426451136245,0.07868788599793879,0.02944593285554119,0.025607666278009405,0.3125
-0.15095595176780285,-0.031668740152120796,0.02456012603041415,0.0042165861665851775,0.00455289199268615,-0.008958180744934537,-0.0042003561731605524,-0.5418735457237508,0.0019823482533288528,0.9012677296304119,-0.01654837881314931,-0.29940291042063166,0.013899769096887305,0.10198304538919974,0.3203125
0.015788638878812617,-9.135191435462545e-05,-0.0027994917506612826,-0.0006350628508766326,-0.0001305643908632264,-0.0006212682860764295,0.001429999127251001,-0.06993116068284258,0.0008165712595989258,0.00991628124387812,-0.0030347481081484367,0.06374951751046395,0.0003607045758677137,-0.01415245848573499,0.328125
0.27324598742048556,0.041496169575721345,-0.044188869065897855,-0.009070159820195173,-0.003145865836096689,0.009538654742039201,0.010894277973780219,0.3589064085758922,0.0009193842423107656,-1.135998156743333,0.007652351358141396,0.7103491029625069,-0.01381017430409485,-0.20590885541448128,0.3359375
0.3477687350851156,0.05984616551693368,-0.05694282188267847,-0.010701871242198461,-0.007739472101616267,0.014900496021920827,0.01295107154897081,0.7477900629634502,-0.0007292760991409165,-1.675657151893722,0.0197725449131743,0.8224614425787353,-0.02390748022024797,-0.25052071428191613,0.34375
0.26187994711255386,0.052806676770381644,-0.04396952925320887,-0.007005032835444869,-0.01075999640339623,0.014123407401269805,0.009055112841886906,0.8912793900774438,-0.002579206941007126,-1.5172402852707987,0.025963692330309582,0.5253212629015542,-0.025650457495657628,-0.17469405674803304,0.3515625
0.3404761597642088,0.057089586522501734,-0.05559755521979536,-0.01066363132160563,-0.006722823087376676,0.014005871511245369,0.012853201949830972,0.6695504224276523,-0.0003087082870729521,-1.5913611936449015,0.017202101847760876,0.8229024120624557,-0.021991320982383707,-0.24771897025709466,0.359375
0.6680004137004119,0.08281468827373066,-0.10499991964884323,-0.024910472142316,0.005451618086171969,0.016554157034114232,0.02783020549711143,0.07583652373556359,0.00704917964989556,-2.1612643941672864,-0.008008758778358755,1.969633453714633,-0.01427631719049699,-0.5387154988753036,0.3671875
0.8070004443592158,0.08774510907268195,-0.1252576393962833,-0.03173623156317392,0.014139274642130752,0.015360792764501092,0.03483359261540933,-0.426897288087454,0.011760096617663938,-2.208680223999524,-0.027239297188683842,2.5278707891882854,-0.0053528464085710985,-0.6726577060228359,0.375
0.3489408624133494,0.039859670954992384,-0.05472031212033579,-0.013348548429179277,0.00411906871134905,0.007252757493122898,0.015171685108713686,-0.09514095060780935,0.004629919419247781,-1.0222650776450584,-0.008960401256491288,1.0659537119909166,-0.004884779597328701,-0.28626398853256546,0.3828125
-0.45329068798919403,-0.0364749314312552,0.06794728422284807,0.01983567968069662,-0.0178568879191646,-0.004087986450389987,-0.02008056435870363,0.8014799566599559,-0.009855523499065936,0.811109448495784,0.03379649665702988,-1.584515905691491,-0.011181708590735395,0.4036598830070533,0.390625
-0.9528090740228367,-0.09397860390293697,0.14554271636834074,0.039204015921796544,-0.025665106916764928,-0.014953013312453044,-0.04095659852164821,0.9420361730266426,-0.01622407540434149,2.2777510730686465,0.04620683521170059,-3.115920755784123,-0.005679411560363488,0.8160504984664027,0.3984375
-0.8915236981857795,-0.10846881820658137,0.13860883102769622,0.03402962542036158,-0.012015717775747723,-0.021833297202641943,-0.03606864213627409,0.021848793263748677,-0.009715072319448013,2.7996950932284026,0.013954470539619769,-2.670839474476736,0.014022133279557257,0.7281314402011911,0.40625
-0.5779020308049109,-0.08521424151793745,0.09142002684117112,0.02020051059906497,0.00046134735261050376,-0.019915663315683684,-0.021569695401517805,-0.6055340684821212,-0.0022973868051271913,2.297864096104171,-0.012191572602705125,-1.5558566929681699,0.02274481247167277,0.44685442236124573,0.4140625
-0.36798451790366077,-0.049558765905671306,0.05743167212760631,0.013555382083677153,-0.0030148638453833245,-0.010982693309361483,-0.014032999044404077,-0.18394878031901415,-0.0026704332824571,1.30833042249273,-0.0010551827721864422,-1.0494450348523816,0.009600538391632694,0.293371444694778,0.421875
-0.2954829390622626,-0.029387044956266407,0.044773695219214024,0.012283212211342718,-0.008843979659815926,-0.004905792969087933,-0.012281539379512034,0.29120773842015785,-0.004889212239501631,0.7111017617770535,0.0140104712084427,-0.9685681021212272,-0.0023782947999385295,0.2540786972478073,0.4296875
-0.1831721746631162,-0.02263836063843046,0.02809216770554769,0.007124717543586316,-0.0034561105554159273,-0.004810915038291008,-0.006926792971293124,0.0015164085637418537,-0.0018190753797187134,0.5819753293890614,0.0024484619924343767,-0.550678322539413,0.0021942528807103352,0.15082105644612606,0.4375
0.11162147167446636,0.0028662299442555684,-0.016688694682760987,-0.00540818703049302,0.00611193600891952,-0.001597510788815237,0.006299139005053912,-0.4340603165119672,0.004178434201038699,-0.010760472896139189,-0.016861430741659376,0.45389785098865537,0.006884527785202391,-0.1070825559453159,0.4453125
0.5303427878968672,0.053343554481235844,-0.08201897876981006,-0.021353735366169014,0.0113225631255245,0.008381552674930496,0.02355331235942474,-0.4567786044579219,0.008916270794295265,-1.3150268277970338,-0.024024505415440534,1.7107591978162249,0.00012083014135909723,-0.4488742904577713,0.453125
0.7951538416563015,0.08300098437206924,-0.12306290894453399,-0.031723121663841045,0.015957149800351296,0.013815504880285637,0.034712917280021446,-0.5665363316507942,0.01251661900672722,-2.0640999748674336,-0.031819739377507435,2.5324433784823377,-0.0019837919196693025,-0.6689664398512564,0.4609375
0.6954281939959335,0.060463294774704905,-0.10623983802952752,-0.029281025070341738,0.02090845618764983,0.007421788477886612,0.03174014839213397,-1.0017997360492656,0.014182245985198946,-1.4092626848194356,-0.045130185683581785,2.3583041390834167,0.009589327543975524,-0.6057355759081703,0.46875
0.4012159660706524,0.02374994498019005,-0.060184374790360554,-0.018241049190799608,0.017973954814516416,-5.650911581337861e-05,0.019747775420824933,-1.0374535116727757,0.011181348438748292,-0.4531659990262598,-0.041847847257785106,1.4900577577644012,0.015497499546328859,-0.36767609248947414,0.4765625
0.22608327095063813,0.01865914033206999,-0.03478354171291953,-0.009504281660432096,0.006355079777876376,0.0018923237766257722,0.010796692363611098,-0.3560883032596779,0.004940532594913525,-0.43211488636538725,-0.015960600940021975,0.7735040277845022,0.0031377042985116254,-0.19696722343117967,0.484375
0.1369412009534885,0.02349877847275971,-0.022763681790449596,-0.004095230821546611,-0.003927229175088298,0.005714587407475409,0.0054417748756655495,0.3014780492603142,-0.0002069813544530307,-0.6635928457328468,0.007791136849793512,0.3203090054206559,-0.010165640106762354,-0.09732809225002578,0.4921875
-0.08946582451844783,0.00023816253191072915,0.012046705326919824,0.005052410178927313,-0.009109414768867449,0.001849581234769765,-0.004316070665247839,0.48175681964640793,-0.0038354411508780854,-0.08905396743011026,0.0173671864588113,-0.4072257415201453,-0.01028870018461955,0.09427971750252873,0.5
-0.33770923179514833,-0.0253039924580716,0.050246512135476255,0.015081816598280475,-0.01477797298987523,-0.0024022093044810153,-0.015014941309566111,0.6785196060614248,-0.0078085828069245624,0.5425996939377422,0.02783760578592963,-1.2047521898115947,-0.010402804485225452,0.3044530903709081,0.5078125
-0.3588597793763792,-0.016656380513912345,0.05223558854431935,0.017341394731782173,-0.021644330088646534,0.0013652968492457304,-0.017100565262417256,1.149630807066735,-0.011028805407398631,0.24353367011289273,0.04420576351878138,-1.402046404408282,-0.020674166843827616,0.3412613921641902,0.515625
-0.3455360354729976,-0.009124748485238632,0.04946733934970945,0.017594617452828205,-0.024974950385743443,0.003952192545539125,-0.0171972230394711,1.3979585787704754,-0.01245615817096932,0.007266038204697226,0.05247817624191553,-1.432684537869746,-0.02652968014391802,0.3407482784014862,0.5234375
-0.5659439910169481,-0.04127578166662754,0.0844954818188294,0.02525481251162141,-0.02442480764703861,-0.003421966171964343,-0.02567419228663195,1.1755664008394122,-0.013462343269290316,0.8741738819520208,0.04827774197750296,-2.0272523907082616,-0.017689574770530094,0.5108364533404597,0.53125
-0.6248566613357498,-0.05880523025627438,0.09490551963958066,0.026147948554291093,-0.019007324580570972,-0.0088089322418982,-0.026969017571250267,0.7408196433519093,-0.011351987813496616,1.3983724525841794,0.03436133168055289,-2.0795189705344552,-0.006839331991041955,0.5406957971660602,0.5390625
-0.01675070055060496,-0.0014236433118617043,0.00197011380794766,0.0009385045366360093,-0.0020647356829764695,-0.00040386924664347957,-0.0001913993955739006,0.04066174825295055,-0.00024252032367512615,0.026111044817821078,0.0012326198470878763,-0.06481248293976408,-0.0015783603575052671,0.016901942212693838,0.546875
0.7501729466531057,0.06804905900446122,-0.11486934406618228,-0.031239115672689097,0.02099924879829757,0.009106418927531262,0.03388589179888646,-0.9627220679996752,0.014533404092328513,-1.612213017244678,-0.04462143515347311,2.5106828080724384,0.007750514487464372,-0.6485890403359961,0.5546875
0.645071313597624,0.046076355402461015,-0.09736119204667897,-0.028451963905353303,0.025167131776909452,0.003066496312926628,0.030557322166289234,-1.3465292258186463,0.01581651043858403,-0.9834199635546703,-0.05606845531372153,2.3064630626057228,0.018223438391533293,-0.5789115432395929,0.5625
-0.28993529393240264,-0.044342521900525615,0.045770487757355226,0.010031767060314127,0.0004139150530428763,-0.01070310073120901,-0.010372744848833403,-0.3626945442652772,-0.0006773509710212587,1.1996460373977367,-0.008309555105672647,-0.7651061506959544,0.012249268691274823,0.22256335614310632,0.5703125
-0.8531314337854098,-0.08746878559293231,0.13062586852982905,0.034690918588376,-0.021167916276329628,-0.014687576985018328,-0.03624823457267297,0.7045246103141728,-0.013623615135598018,2.1470303840803577,0.036596932274761795,-2.7507048699157877,-0.0020417635640542055,0.7249477198064663,0.578125
-0.3235396046058175,-0.04225274535822571,0.05027103321120261,0.012121221374704878,-0.0036090414869197557,-0.009185431242258122,-0.012415005693061499,-0.10452391174617015,-0.002684581760632691,1.107636225428737,0.0009601059350562235,-0.9394931698446333,0.007041387331499251,0.260574280568242,0.5859375
0.6388583045912393,0.024938092986892885,-0.09396776921726124,-0.030851465159089562,0.03711247395025073,-0.004872669470735483,0.03250898364201194,-2.201709412203126,0.02117286961672922,-0.2967014473853813,-0.08511317968941348,2.5310506804540958,0.03766140840857378,-0.6092498961266843,0.59375
0.9628659088318396,0.049212858530935016,-0.14274022281716423,-0.045112163540677354,0.04984477244665519,-0.002777582593598926,0.04745345455077611,-2.8382191792743092,0.028765225093409792,-0.8253331864222532,-0.11171185193416866,3.6799893708651323,0.046384290862821594,-0.8992424961207598,0.6015625
0.4759066810633849,0.032856996194068525,-0.07187571881248143,-0.021084387017119715,0.01884714857571677,0.0017740502698645707,0.022815972034436117,-1.0374672025498641,0.012003175062523297,-0.6912251030622235,-0.04297434404162382,1.7134974990902152,0.014187563715045638,-0.42855204370226857,0.609375
-0.06331383334210021,0.017028960374744495,0.0063468356334890575,0.0058270116068135595,-0.01681877243415351,0.007671073609061249,-0.004712414107171363,1.052164024964118,-0.007166372084683795,-0.6153046076140571,0.03638742902146827,-0.4916728924415164,-0.023612651749686582,0.09664437590120568,0.6171875
-0.05884170532381462,0.026967760053951406,0.004549667249455693,0.006881314569911067,-0.02229922740451015,0.011355133308620903,-0.005545574806038575,1.4460283117328334,-0.009617499913772835,-0.9349031933377889,0.04972963012024324,-0.5907198421457359,-0.03258622744368741,0.10930979321553011,0.625
0.15480487147964386,0.04035278086497361,-0.027280284089953304,-0.0028561851477880533,-0.012362250746486614,0.011732031279709681,0.004591264296474518,0.9164794633345896,-0.003916859568100239,-1.1966718860338927,0.028447860578465194,0.19799925535316534,-0.024354214832979018,-0.08644176143810947,0.6328125
-0.08099784877433809,0.015896693113044997,0.009012533895481609,0.006635426728848158,-0.017639537501083317,0.007635017497501823,-0.005552365890096554,1.0956284330282058,-0.007640242253852154,-0.592036793630442,0.03814174439870492,-0.5568638921369348,-0.0243011211689205,0.11285114027096352,0.640625
-0.6436855756607227,-0.037691649886512406,0.09505950332347957,0.029905582084418465,-0.03302820106366923,-0.0003367798920297,-0.030273996061039848,1.722749858259346,-0.017788829638883556,0.6955295230423916,0.06806890013916098,-2.415370267068263,-0.02867495420351243,0.5967138742988077,0.6484375
-0.7825210884958707,-0.06022833824308725,0.11740950150442857,0.03443642460443788,-0.03133703399302305,-0.005854168539931395,-0.03537004140292812,1.4872621299274995,-0.017815301274813723,1.3163976944230322,0.06217394360234727,-2.7627576900606234,-0.020951141432984672,0.7000139302130993,0.65625
-0.31105966758250336,-0.026997926044660826,0.046701254047184115,0.01341907484754283,-0.011568665843945154,-0.0036196372384090145,-0.013396752725813237,0.4727118301413602,-0.0062067898736270135,0.6171517674107356,0.020454424255204877,-1.0660495678921427,-0.006249602334108901,0.27439183306955833,0.6640625
0.1530929333183573,0.014957443708725444,-0.024029816682615265,-0.006071045538743325,0.002455481418515095,0.0020954385796052057,0.007243747721720357,-0.13959058118945222,0.0027676397605527854,-0.3714568492513122,-0.007471386816316217,0.49414336627789535,-0.00048413016604858915,-0.12874872270507104,0.671875
0.19431345429695424,0.019187578927072443,-0.030381692693459382,-0.007731493253725288,0.00341346178506761,0.002780167511050812,0.009028618789248063,-0.1737983693947485,0.003435163074901554,-0.47400412769595174,-0.009280953461969787,0.6266401515107813,-0.00040320047757730186,-0.16378820514476505,0.6796875
0.06534849192389579,-0.0033562254427010312,-0.00941871183501895,-0.0037218262830578217,0.005931978940370313,-0.0029696682360371017,0.004470947631243487,-0.4601503879169286,0.0038364647750789636,0.15701333738453976,-0.017073114599990287,0.32278993305338466,0.008315773307003296,-0.07060284730286173,0.6875
0.07696397062610408,-0.01666993103610831,-0.009446333681290851,-0.006071920254529541,0.01473095779129204,-0.008293964102210104,0.006532359584628093,-1.0762825136530252,0.007872459427688558,0.5998318627307331,-0.038216613292604666,0.5329681174784302,0.022010093556350457,-0.10538192323927566,0.6953125
0.19398384642154,-0.006826442606023138,-0.02718464878848698,-0.011086162095625763,0.0186874108171671,-0.007115676271285588,0.011810561969745536,-1.2603884871527302,0.010323654800620764,0.37268660213979937,-0.04625480536761955,0.9351182679833084,0.02411261964665692,-0.20821399101659838,0.703125
0.28328234972086447,0.012803243304312338,-0.04219704962813853,-0.013339360390326998,0.01458148471348187,-0.0016061269070393035,0.014536613992542741,-0.8941493821934884,0.008978877868841181,-0.1947932353391314,-0.035151734787768535,1.0975832106471075,0.014292280719509179,-0.26589661954154076,0.7109375
0.2866492516067308,0.01947437901217221,-0.04349086372149625,-0.012649418083081648,0.010943915709692196,0.000850861739458355,0.014005190438659141,-0.6327213147989216,0.007356001142470248,-0.4080925582374158,-0.026321490275796063,1.0329306062957513,0.008349791531727976,-0.2579410759663547,0.71875
0.19409943880903474,0.006180825654100983,-0.02879114462958027,-0.009395708228625302,0.011053703764192097,-0.0021773189168059087,0.0104235067462599,-0.7174530441920264,0.0068778113857863475,-0.0488488919968001,-0.027804831873022115,0.7804324388292663,0.011882785132403085,-0.18606526656505434,0.7265625
0.08315727937970684,-0.007988382874018454,-0.011372559381900644,-0.005276649202733755,0.01013700005698207,-0.005118512009623822,0.005932913137470434,-0.7442035301111352,0.005832474072575545,0.32216461273207614,-0.027012779077840304,0.4568836128895125,0.014405770257774833,-0.09675414252831396,0.734375
0.009189298029877427,-0.008894145544772143,-0.0007923317850110943,-0.0014308018487609383,0.004495145928414353,-0.0038149607643695503,0.0020148615723603307,-0.4040297362523529,0.002866401962827755,0.2896103281763292,-0.014285123754817594,0.13953276896738104,0.007993027633740433,-0.022457846898891,0.7421875
-0.13078042404825888,-0.010843102677466484,0.019236484700874346,0.005829042338495151,-0.006035147622718919,-0.0014539166045081987,-0.005363731905313991,0.22882901675680808,-0.0026826034257686642,0.2376721479841596,0.009400337909392103,-0.45839037640890745,-0.0038703171576496484,0.11753539149523183,0.75
-0.33192957242776133,-0.021512790203495887,0.04897239236990142,0.015254450465186573,-0.016533265014824165,-0.0010730694345210516,-0.015113799721614739,0.8083294417083599,-0.008567538656536242,0.4217944290554499,0.03218499639222479,-1.224160362754987,-0.013449800601837513,0.3051069905899503,0.7578125
-0.32276173800250707,-0.01795747420784059,0.047257846236954996,0.015232042733327561,-0.017863433670632468,7.197714116315708e-05,-0.014999020639404975,0.9104602651692463,-0.009116887730745189,0.31489079425678124,0.03550899345402174,-1.2261327790142642,-0.015902044489680297,0.3018933171714468,0.765625
-0.062398864074908036,0.007600480244729546,0.007370993124560333,0.004563867566344825,-0.011196282564117921,0.004051451008004667,-0.0036464962065947213,0.6526926493591121,-0.004624225797174622,-0.3052131937182437,0.02276641333255527,-0.37532190329247245,-0.014606342553183861,0.0794718619261986,0.7734375
0.03285918657206525,0.023818360004639008,-0.008037169770976972,0.0015430468393855415,-0.012804393559630367,0.008134541379362821,-0.00023938268867977733,0.846601150851367,-0.00480621115471879,-0.7576242808807746,0.027934799106728827,-0.14580803394163083,-0.020656447515592265,0.01003642223682196,0.78125
-0.20159928638983904,0.01657473169715203,0.026004827247244518,0.013189479744690277,-0.028100789063052252,0.010571687387882455,-0.01217096461863403,1.7401338094602876,-0.013045405502152527,-0.7147483232167596,0.0619434206507392,-1.100076884743175,-0.03677284025485435,0.23769866080331017,0.7890625
-0.3188192388126736,0.013199104077327798,0.042979259618232075,0.019051090568283035,-0.035888569025828154,0.011875415811949893,-0.01815734784528467,2.1965546008555137,-0.01722886346713919,-0.7000768871588655,0.07925897921212086,-1.5802269484049993,-0.045034749240493464,0.35184116799280535,0.796875
-0.05048266401689985,0.021260140005172436,0.004034644538480574,0.0056938792752292845,-0.018243183779530856,0.00899418256593957,-0.004473199458308053,1.1638521038089404,-0.0077372437938809805,-0.7414611295840023,0.03998797206245625,-0.4853704993492381,-0.026357023858711207,0.09078842519075743,0.8046875
0.2461958855813997,0.013313689923685952,-0.03698637143379125,-0.011269240771845143,0.011190768852708149,-0.0006100311533030863,0.012472407738890287,-0.6838179537118008,0.007236789468830545,-0.23894129071893835,-0.027442297620624338,0.9264356656623489,0.010215074587238079,-0.22692821747976288,0.8125
0.32768020440376616,-0.003183392330826119,-0.04654322294410206,-0.017794402079981165,0.027704409547240044,-0.00869519198249524,0.018671164173449085,-1.790968755259153,0.015154530188640433,0.3639938125495616,-0.06636119244313361,1.4852661898133723,0.03378069352598132,-0.339001283198095,0.8203125
0.4310228287763885,0.012111248999500588,-0.06302636945173765,-0.021368237438211604,0.02732020045546747,-0.005143142438978812,0.022623277759842634,-1.6778022173593454,0.015571328632346183,-0.05180736509567136,-0.06407815618088393,1.7618738237468805,0.02941633862251225,-0.41852664322240374,0.828125
0.5610909279221216,0.03739101117133989,-0.08447868421851819,-0.025070094186513202,0.02328794623346576,0.001608694519636518,0.026948218355833716,-1.2829420423031739,0.014493498446533496,-0.7686832997097164,-0.05263551741597704,2.0376631856686167,0.018255468933849817,-0.5081014007917019,0.8359375
0.3150350656309035,0.0001119369730513088,-0.0451794674730554,-0.016680476397528326,0.024718396933662838,-0.007170827663600262,0.017635285542387837,-1.589273092855667,0.01373676642838126,0.2481527387987167,-0.05932900533993548,1.389901709447512,0.029469959464714146,-0.32046505461507413,0.84375
-0.2620261099734834,-0.08560509514460721,0.04676501618264724,0.003195025827969368,0.027055396750694776,-0.027075937710801114,-0.004396118014602419,-2.235151611139466,0.011503208765492101,2.571785784234412,-0.07251331694425264,-0.1491661987295665,0.05407721416829903,0.12248736169674071,0.8515625
-0.5528652790930212,-0.1090416333120747,0.09071946143699497,0.015767655731782196,0.016588185596838566,-0.029557409942350635,-0.01763689195443353,-1.7321042796712078,0.005122959335139837,3.0961864475733756,-0.05093680261225747,-1.1604673184410328,0.047751359343748516,0.37992601396548553,0.859375
-0.36148222373707833,-0.03497185624671479,0.05475438199427077,0.015092115685128325,-0.011071347949888299,-0.005544683724281646,-0.015262945241837182,0.3951259457736266,-0.006269039241898138,0.8358445510082151,0.018571717832441256,-1.194619389824305,-0.003612317067577641,0.3120918171924964,0.8671875
-0.16631625614598267,0.03453589308284965,0.018832971945444296,0.013630745180838007,-0.035724397026667264,0.01662868989497109,-0.0121908113855842,2.311748624729278,-0.01628475192319182,-1.2704488109534384,0.08084330494687837,-1.1579027528655954,-0.05026870721725643,0.23255859482098729,0.875
-0.2155657758625458,0.025947200790093862,0.026864067619200432,0.015168414548042243,-0.03477544364082175,0.014435043922056882,-0.013935050158180752,2.203458015249915,-0.01613971282297569,-1.0292928733042066,0.0779061589939391,-1.2743830527734503,-0.04696291175850686,0.2682278834592247,0.8828125
-0.20256828294022405,0.0017732898184520311,0.027923042375418636,0.011335451037366663,-0.01945886642360573,0.004933037155629524,-0.010619256932843846,1.124278770089232,-0.009154293991360129,-0.2302226629356483,0.04096935388157204,-0.9282056684916028,-0.022829802927795555,0.2130177739810057,0.890625
0.037830720418794844,0.032591116364574964,-0.00980862267996922,0.002417277342365894,-0.017557107169194165,0.011369964246778675,-0.0009125142566240492,1.1885724436661826,-0.006925689616157245,-1.039360841371641,0.03949302275923753,-0.22846742917409907,-0.028464822074445957,0.019976150688602434,0.8984375
0.24332995994046708,0.07317218158369669,-0.043759061407257716,-0.003359723886702903,-0.02431261183877117,0.022297261091664224,0.005845837953589785,1.840179694989308,-0.008802836684432878,-2.195230257811886,0.05854418251596313,0.19971497362552948,-0.046747541842483684,-0.12031450208286124,0.90625
0.23374490469531198,0.0506618632864399,-0.039700124628699325,-0.0057664073117109855,-0.011853657174808359,0.013926756673604188,0.007755380305652095,0.9459761732426046,-0.0032338500618076457,-1.4694001059252901,0.02825160000785753,0.4257516079773928,-0.02639325686750186,-0.1494017424634637,0.9140625
0.15032059497361466,-0.009493947324478792,-0.020694398657899772,-0.009089571970017472,0.016616236180997928,-0.007162941740403831,0.00973027241796622,-1.149186783728118,0.009141104790335289,0.4236217688362857,-0.04180316874257268,0.7732923222559285,0.022357962502554694,-0.16810449916411593,0.921875
0.13255563232664125,-0.0323807414265371,-0.015459763214745074,-0.011103331315045798,0.02861888232260321,-0.015501612577033036,0.011244680512444656,-2.0184165843364545,0.014458365364251168,1.1557304579903918,-0.07113218215824715,0.967688678356,0.04230041700085489,-0.18967878239440977,0.9296875
0.141972832258609,-0.009587938317492472,-0.019529706857284848,-0.008647882027601505,0.015988954581384454,-0.0070327129240166705,0.00929877834690529,-1.1121838291601012,0.008811674692110654,0.4216381088788485,-0.04043681225738963,0.7374560606449981,0.02169551221684375,-0.15996554764822296,0.9375
0.1140960506531397,0.008809953491834005,-0.017767716506665684,-0.004758960855198651,0.002829299379064504,0.0005909062757257483,0.0057990243972431,-0.19880819985461565,0.002711671618174074,-0.1999115945450641,-0.008920214601761125,0.39385055226204735,0.0015670216064312976,-0.09946894114304072,0.9453125
0.04676960839939204,0.00017252174285247373,-0.007182980279815925,-0.0022654120890081776,0.00229318570494624,-0.0012040406974613202,0.003076088656091023,-0.21629039743456888,0.0020848600398967435,0.025940230046039757,-0.008475072600207799,0.1978997353052498,0.0031163589177944763,-0.04529927866257284,0.953125
-0.042252255763520104,-0.014401317301578181,0.007154582265658699,0.0006162812808583518,0.0034459436333904303,-0.004774876611012607,-0.00017842657193305872,-0.37225277160813186,0.002098935862118854,0.42654750130583835,-0.012410670808343226,-0.023096694595289034,0.008162832626295276,0.02068088766618887,0.9609375
-0.13377526934627326,-0.019379450511804824,0.02067736732003795,0.0048817786294071035,-0.001254216837400852,-0.004643153275697022,-0.0045990554040767195,-0.11414485394743103,-0.0005420988100161563,0.5136452242876922,-0.002230343829221676,-0.3696726316145367,0.003925569588715178,0.10571229802290347,0.96875
-0.19606231647963138,-0.021205911457962034,0.029700939432322375,0.00799776266051137,-0.005371671773789256,-0.003971009477605279,-0.0077748801562081615,0.1268224859682733,-0.00275530261387906,0.5239090349721516,0.006903477774320788,-0.6245231279609139,-0.00041270018975090477,0.16631527027923182,0.9765625
-0.19420746617119727,-0.022719416440566326,0.02963763914574752,0.007711674017708515,-0.004328067932412687,-0.004597655201665913,-0.007512271928605288,0.054184869986644825,-0.0022753227388829945,0.5762453567946143,0.0043908696239312525,-0.5986415189795187,0.0012065246677387253,0.16189283600849044,0.984375
-0.1319224187830338,-0.017135580793020196,0.020174777040152456,0.005089570143825746,-0.0024253242889694976,-0.0038425869779843266,-0.004743831111441148,-0.029117413827474167,-0.0010624379317686968,0.4445144697145483,0.0006159718133443722,-0.38890422089823545,0.0019934922738541107,0.10787273171216825,0.9921875
-0.08617381901381543,-0.008147561514449685,0.012618905181140502,0.0037879200559307416,-0.003904149029827997,-0.0014167531828777138,-0.0032377998778656608,0.11432035641816476,-0.0014677450851272905,0.1870403840247439,0.004819050323822747,-0.29277730376440764,-0.0020573245458457273,0.07657984816774287,1.0
-0.11908379513813944,-0.0085596259770863,0.017298195901649698,0.005495986688231985,-0.006404277916038689,-0.0008413196742480336,-0.004975473136769745,0.264701252187264,-0.0027814483538849666,0.17274245107102282,0.010441279148660105,-0.433635567070406,-0.004881558227340533,0.10948630924670852,1.0078125
-0.13077216579434203,-0.012939519048052591,0.019456752730474296,0.005561053241855982,-0.004794289946280342,-0.0022604826453803974,-0.005130540434840226,0.1401535155804872,-0.0021210928086035277,0.30700576908067473,0.006362224724524692,-0.4332525933235758,-0.0018511005851009521,0.11376722628055085,1.015625
0.04109741600582511,0.002212362674392762,-0.006668762651895926,-0.0016948424226818025,0.0006227140423987206,-0.0002980337196199929,0.0025535106102005205,-0.1024131443769932,0.0013008004252667905,-0.04500655206568223,-0.004530430455233144,0.14866314555596882,0.0006514034642743634,-0.03609376426041327,1.0234375
0.3369348057891978,0.03804809807435116,-0.052791527014783075,-0.012933246995670349,0.004192079709404966,0.006816701927254151,0.014717769215957013,-0.11011923756779415,0.004594553688252737,-0.971526592967584,-0.009296660819559766,1.0341257746944013,-0.004320912010717826,-0.27703398388036327,1.03125
0.49047297878767265,0.05938911929859649,-0.07705474800689319,-0.018418336175426174,0.00442414551934269,0.011565078791807794,0.0207308217603977,0.0013229843107273578,0.005573121497397271,-1.5435313328804594,-0.007823496036654514,1.4611008248088022,-0.009523996719819058,-0.3973009662061029,1.0390625
0.3874313147302226,0.044320085591967505,-0.06068454550600823,-0.014845317476490032,0.004701913524729417,0.008108183959205716,0.016771638281892605,-0.10415655089227711,0.005112452241940658,-1.1379750906316242,-0.00983466818481439,1.1836863607951684,-0.005363872454302097,-0.31788345698564124,1.046875
0.19775575316208965,0.020782588726384693,-0.031049801937567602,-0.0077084862415435895,0.0027459977215761027,0.003327948946115324,0.009035529429058057,-0.12301221750448957,0.0031500290369467546,-0.5250474123882344,-0.0075965710815520445,0.6225779353682979,-0.0016336293995307166,-0.16442585344466218,1.0546875
0.07012730983882386,0.01859116602757143,-0.012717866028016181,-0.001130215699694399,-0.006609059323248445,0.005307423049512123,0.0023553347870153268,0.4363008133607916,-0.0017999370301126911,-0.5560266198146867,0.013379015090697876,0.08192855274303458,-0.012027282174892405,-0.03744282414756633,1.0625
-0.08584121817089521,0.014366845046851581,0.00989340408603279,0.006699242998130111,-0.017137164657002796,0.007148097880639619,-0.005647316889045515,1.055808912085576,-0.007441016072705058,-0.5451231946715769,0.03685722591240287,-0.5602094894786221,-0.02330342412666529,0.11517481215476344,1.0703125
-0.36385372643874386,-0.022967166554082364,0.053713551532071975,0.01677919261912001,-0.018345462131181538,-0.000922706937549748,-0.016690806158360407,0.9107342890506553,-0.00956864702968434,0.4435040686757567,0.03617651903938542,-1.3486778681691505,-0.015212724299927446,0.33542535200565154,1.078125
-0.5882513829765361,-0.06202651150832423,0.09011397102215327,0.023758511046369207,-0.014058996770245984,-0.010842188794974976,-0.024636849959044447,0.41902575896416866,-0.008908864865113213,1.5324806391166135,0.02285943102054201,-1.8784303876266635,-0.00021734437644967662,0.4976246607583668,1.0859375
-0.5230110428999064,-0.05698868362990573,0.08025486288187805,0.020913788478475404,-0.011577396364046314,-0.010375128436837733,-0.02164028568606018,0.2964980651399155,-0.007415427777384367,1.4228538883140873,0.017672537570445613,-1.648934431174865,0.001434455899269724,0.4394367047855535,1.09375
-0.2719424248462277,-0.0367034411015665,0.04230684148412174,0.010070260672122544,-0.0025736359992155587,-0.008212608605542137,-0.010216629430422921,-0.1353685891332731,-0.0019232494775430703,0.9690434435028581,-0.0008770327795112794,-0.7766898380835323,0.006843859470851353,0.21733087483454291,1.1015625
-0.1495296227790662,-0.05369018555039332,0.027025420498574388,0.0012922616199048495,0.017645222812758533,-0.017398160208261917,-0.001743972274789874,-1.4720858187548937,0.00789735682483529,1.623238958712668,-0.048250151795804094,-0.030593751051199353,0.034893161482616,0.06248396460437138,1.109375
-0.1374786659335811,-0.07083910578819631,0.027351334091546244,-0.0015882053726559901,0.028748893631520753,-0.024188708554477228,0.0007617286561162127,-2.252105111332462,0.012977909317578643,2.190049333300754,-0.07497725601055139,0.2278167762434975,0.05227386183545229,0.020374749569107932,1.1171875
0.09892410861701517,-0.01453690923463359,-0.012861293958012178,-0.00698610540073208,0.01531010376139324,-0.007948138615923235,0.007496078205617994,-1.099266875913258,0.00826036136779512,0.5458020268194886,-0.039329451805349816,0.6055565462616711,0.022129138139797826,-0.12436896929043198,1.125
0.5630336477338991,0.08111507829708507,-0.08997018418935025,-0.01949948829466768,-0.0023039927311285925,0.018237986434170586,0.02232460066882918,0.5402248655746349,0.002952873826802,-2.193038413037891,0.009404829511960786,1.5242000412036294,-0.022941522198594237,-0.434187473699566,1.1328125
0.830801732478875,0.1149120344170355,-0.13187781930874645,-0.029489918405026825,0.0001306643601215737,0.02518651736331299,0.033189938539857376,0.5898626393994572,0.005573873372653677,-3.07488889062789,0.007008926725568444,2.309282120729934,-0.028709369288782673,-0.6499589943436138,1.140625
0.7356832169640283,0.083578673968332,-0.11466605166464257,-0.028445565088874473,0.01064406758332258,0.015350367445221452,0.03141768267712297,-0.23747879216239157,0.009775511964839138,-2.13108874392814,-0.019704256789914977,2.2609200355683146,-0.008385763501964552,-0.6068015707397906,1.1484375
0.5277400962081746,0.06369609361995733,-0.08287821455731266,-0.019860072249220977,0.00499926082106455,0.01238370097477671,0.022292211110933893,-0.009047839498090359,0.006044076141778073,-1.6535609342654662,-0.00875437720178747,1.5752571640972202,-0.009937498084172717,-0.4282294374574278,1.15625
0.2550117907174156,0.05372496566770896,-0.043088410826281634,-0.006507502090996154,-0.011884216719902469,0.014623081944988814,0.008581065240747247,0.9655491635312519,-0.0031279160745570954,-1.5514239243218433,0.028584948089304327,0.48359425886898,-0.02720029913814824,-0.1659857541884515,1.1640625
-0.2533111012377504,-0.0074535175762549056,0.03619086516048178,0.012856678959779594,-0.018262838849718275,0.002550251542642038,-0.01237494782299089,0.9969871312336008,-0.008900481391508704,0.028063999555048312,0.037412861340141594,-1.0430171683907978,-0.01907701253908729,0.2490669180366203,1.171875
-0.7445364136169724,-0.08937987591046591,0.11551762774661258,0.028609223398896953,-0.01099558622204632,-0.017809518909916642,-0.03016028685531064,0.07133939167803528,-0.008416616423389816,2.2974203516534892,0.013398929102507883,-2.246032795337573,0.010352026717408902,0.6105575385395158,1.1796875
-0.7686775580719497,-0.10197845953728168,0.1204225324398978,0.028270386234681703,-0.005585413128119424,-0.02208210059906465,-0.03010367518208055,-0.3341011910862959,-0.0061113031163530325,2.688394637311074,-3.860140013284472e-05,-2.20271859678198,0.019929524771114322,0.6133319503065164,1.1875
-0.5277323704324142,-0.05721320553078132,0.08095865973132035,0.02114161930287085,-0.011838841834350309,-0.010361691074065081,-0.021869960839081215,0.3110439815220628,-0.007562233142427585,1.4269603585913657,0.018237169772601165,-1.6673482507167834,0.0011941222070600385,0.4438482040497839,1.1953125
-0.5457598177590809,-0.04192179844773736,0.08170212669317428,0.024099788735811416,-0.022346036596407895,-0.004141201905138434,-0.024500421759006474,1.0439671864957203,-0.012409137496811802,0.9148310931310278,0.043458971796261514,-1.930180852391586,-0.015032620679888142,0.488883532163382,1.203125
-0.6224469370754686,-0.055309850128471776,0.0941785299400251,0.02648026565329286,-0.02086674490082202,-0.007539548693981535,-0.027218085301568308,0.875251625583968,-0.012179200218705699,1.2880016099808937,0.0388967309387289,-2.110998208409571,-0.009905531384518896,0.544429125136074,1.2109375
-0.16537598032929926,-0.023867011182532285,0.025714998529855274,0.006001966894993651,-0.001256207763593912,-0.005655882349923706,-0.0058335375180099324,-0.1400812895183596,-0.0007241837615194275,0.6346464833660875,-0.0026293447095737344,-0.4567786593176419,0.005059865299144722,0.1304985780644948,1.21875
0.6055900747164212,0.047194780462574346,-0.09193574830322694,-0.02619108784942518,0.021221612657325712,0.004370060136910507,0.028298285870035352,-1.0986406878394916,0.013813017058174478,-1.0525891349300347,-0.047029935349185904,2.118236659264719,0.013311244575818695,-0.5366378333881509,1.2265625
0.883823887140373,0.07785064332262662,-0.134995945279453,-0.03715098626254438,0.026389633151469364,0.00988530481368413,0.04007856564637745,-1.2351600719530136,0.017729925437953514,-1.8232923946222603,-0.055941226617120435,2.9875355690831475,0.011578712700422622,-0.7687669853829198,1.234375
0.5592218505153232,0.05093382479427526,-0.0858138595753702,-0.023199896676657852,0.015158365162217335,0.006800963261623413,0.025384341149749075,-0.7058299862893982,0.010810637444222544,-1.2097564746708758,-0.03297678627235852,1.8672718647475373,0.0052755397974668505,-0.4826578046937483,1.2421875
0.26832057806785714,0.027580987108263292,-0.041822455577257646,-0.010606529269932772,0.004631896111458875,0.0043447324320414005,0.012127266016563549,-0.1984635195816112,0.004402010362395509,-0.6867344757835162,-0.011253009626825025,0.8543092670276538,-0.0011384882161578715,-0.22484122089221448,1.25
0.28503510084957323,0.03481352382281641,-0.04505542232650935,-0.01057624234031799,0.0017627540863546741,0.0067452958327139986,0.012248478960829536,0.019769268008300745,0.0032030769104200575,-0.9106522439790459,-0.0040598287063851185,0.8424551644455804,-0.006374567680482267,-0.22941075610260112,1.2578125
0.2661491196401798,0.035604912700199,-0.0425045661226325,-0.009466042775931457,-0.0002731689624943541,0.007469000352106607,0.011142041421126103,0.14884757620910286,0.0021780716313137736,-0.9527423993207563,0.000625434476808644,0.74950614647907,-0.00896433811626914,-0.20880771443854348,1.265625
0.04024975782582179,0.010777527548427925,-0.007582572341696372,-0.0005495354611619772,-0.0044910956535694595,0.0029963282049514928,0.001581225298783966,0.2608765867881638,-0.0010119061933734311,-0.3268428138342799,0.007870141298211656,0.042932716682166146,-0.00755506168210798,-0.02043574172327139,1.2734375
-0.1344878427793903,-0.010450211574177783,0.019699108612390655,0.006091118595944958,-0.006568630265292146,-0.0012372186362829961,-0.005598737054186825,0.26329046202053674,-0.002945779127510373,0.2242216910228097,0.010603175318821585,-0.47973662964978236,-0.004558728068432587,0.12189286213840489,1.28125
-0.1406489538674162,-0.013127024091777238,0.020922183322989178,0.006077497407603712,-0.005515181682791227,-0.0021196391814376167,-0.005648700852041776,0.18338028685966568,-0.0025061614742639964,0.30686864053276425,0.00798036891908866,-0.4753260115992874,-0.0026484556203076877,0.12372839136762706,1.2890625
-0.22395412921383565,-0.025454038621688012,0.03420313908867845,0.008946280388984514,-0.0052136900603497755,-0.004965308984387335,-0.008840292860753912,0.09289547236219682,-0.0028438294609709827,0.6392852022823627,0.006187342441806116,-0.6979786802783419,0.0008265930132836994,0.1878558406075286,1.296875
-0.49190134606069497,-0.0601847518052743,0.07626596323724137,0.018826602681638323,-0.00711400713094511,-0.012269693533051556,-0.019617798539152007,0.005307860270742686,-0.005226082010229922,1.55137334104814,0.007299056526198834,-1.4728790962754799,0.007449769663129445,0.4022287605450189,1.3046875
-0.6213348442429287,-0.0773074471971132,0.09661119237109111,0.02356129109920423,-0.007822010541554455,-0.015939682495649896,-0.024781261613518946,-0.05220457395024784,-0.00628218650872394,2.0046074905544895,0.007301135921878957,-1.8431391221894915,0.011007748430505527,0.505086392709924,1.3125
-0.3326103917767528,-0.04310573861132135,0.051660038271512713,0.012499373660798261,-0.0038726020538237746,-0.009303257830574431,-0.01281641331768551,-0.09338389573242038,-0.0028563097181427597,1.1272938187536568,0.0014801552422218068,-0.969691495123886,0.0069401880746750985,0.2684285780787029,1.3203125
0.11106471987071304,0.010721912699976561,-0.017547302369416005,-0.004347146249111425,0.0014396509611174925,0.0013959301522251005,0.005424751151501663,-0.10240478686831564,0.002066357236515784,-0.26493448092753363,-0.005586174825985224,0.3574932331338734,-0.0005645616478085914,-0.09292360636915675,1.328125
0.2451157277616915,0.03238782620220102,-0.03910052970170002,-0.008745688989439537,-0.0001395932989007562,0.006699526367811047,0.01034913074180211,0.1216682400550493,0.0021162043936250544,-0.86379532317301,2.094569488596505e-05,0.6941783749704191,-0.00797536270805658,-0.1927413433509359,1.3359375
0.09087752562649534,0.023816221401598097,-0.0162660913978309,-0.001579956465844918,-0.007956819551923575,0.006852667891384973,0.0029115646214875565,0.5497391723277509,-0.0022892817684871435,-0.7117987012644608,0.016953943381635823,0.11197338926275097,-0.014974808308085421,-0.04961280577947079,1.34375
0.0413701974813312,0.018518629105533847,-0.008648391916729057,0.0003964032235345372,-0.008959048385481096,0.0059195366368613896,0.0008033106342768563,0.5797476300593991,-0.003021915151858268,-0.5782213635595049,0.018712230448197132,-0.04454416196728625,-0.014775973873427993,-0.008138075075576857,1.3515625
0.1492172991125481,0.016277755210347425,-0.02363788799856345,-0.0056789698773124665,0.0013638455595045228,0.002664563511832297,0.006896172910381421,-0.06518590583403912,0.0022509021533870205,-0.41476963970896474,-0.004905945048126831,0.46080611935703886,-0.0020660486167944025,-0.12252872680322657,1.359375
0.12060103541738192,0.0012331463853272762,-0.01776902664465896,-0.006093730542903196,0.007832690265290352,-0.002434016656487529,0.0069683624729329815,-0.5491592817095252,0.005005077833529735,0.05233318253764221,-0.020939274643904042,0.5131748719801991,0.00935144867255583,-0.11921053344600904,1.3671875
-0.012762632700675656,-0.005222947780782842,0.0018711132398480889,0.00022494558539132458,0.0004997504540106362,-0.001925314328377799,0.00043146784730048503,-0.1381943004712533,0.0009351627375186648,0.15154613746502818,-0.004898357711886685,-0.001750308758394807,0.002364210046054309,0.0062822498844444415,1.375
0.07784909231643894,0.01924133573421957,-0.013909401033729497,-0.0014719963989414519,-0.006349532634837529,0.005402742808779607,0.002701603169998058,0.42443093278634386,-0.0016374044174448656,-0.5734431296491277,0.012873581289076168,0.10872544309207852,-0.011917118262939175,-0.04422497448199588,1.3828125
0.3155332086685684,0.039606424380593225,-0.04999120482207911,-0.01159271676752146,0.0014951222583912851,0.007891013915902682,0.013391186051750844,0.0638418974365535,0.003259550172421191,-1.0419074977608238,-0.0030410024959800163,0.9208650220038256,-0.007882343613081473,-0.2525121326342364,1.390625
0.3029513042746528,0.018830095988531522,-0.045694797267152004,-0.013606225389313423,0.012686685348132611,0.00023333536920221517,0.014953458979965745,-0.7428506391069164,0.008238144487069745,-0.372680938482928,-0.030318436583377684,1.112772711237927,0.010564859758246566,-0.2755540900730716,1.3984375
0.10180217557325498,-0.004161350486393683,-0.01445429590556971,-0.005782943114599758,0.009438786926072671,-0.0040748669681564854,0.00652864553464602,-0.6789619369462626,0.00562376531057836,0.21285325802056815,-0.025070251669366297,0.4940650335960886,0.01260658858792255,-0.10922238540548812,1.40625
0.11421482142123109,0.018936611176748174,-0.018990972831988133,-0.0034557499035838784,-0.003139822867035014,0.004472879614781563,0.004705207608898244,0.22630385742472975,1.6346836640931792e-05,-0.5315600512920875,0.005563208187817494,0.2736185206962421,-0.008063328403700996,-0.08195457274403269,1.4140625
0.2301387556614423,0.04230491555987753,-0.03821349672272464,-0.00665363078885218,-0.007235640365798447,0.010823850426465427,0.008465216062721976,0.6141558801092513,-0.0011704839997913768,-1.1998660850770027,0.016997688549291318,0.5094784286915531,-0.018835244707984648,-0.16025457217538064,1.421875
-0.012764465774157236,-0.002751103267134808,0.0015670797412064472,0.0005469960169221793,-0.0009649787699788817,-0.0009804270828749591,0.00015942956110087867,-0.033846496249203835,0.00027787267371804367,0.07080676806193127,-0.0013561144594181516,-0.03122654301610756,1.955150860051195e-05,0.010708737097848309,1.4296875
-0.49203416537100264,-0.07480410557292567,0.07803932128810276,0.016941341702163368,0.001487371711382602,-0.017846389951686973,-0.018044204770868506,-0.6068801198720986,-0.0013444903860978148,2.028922336333823,-0.013547440011258205,-1.2990654286356214,0.021282723268785476,0.37706694421282905,1.4375
-0.6355815262409216,-0.0821224887555087,0.09922478156939162,0.02370145296753934,-0.006171942661135025,-0.017463777833113234,-0.02503217521984208,-0.1815473538224298,-0.00561914405126019,2.150592884339167,0.003122892059484379,-1.848877674118053,0.014176479770980655,0.5113581649992955,1.4453125
-0.41522484715705804,-0.039021674761191935,0.06286371386134154,0.01745971585072793,-0.013162569932366622,-0.005919121440155584,-0.01773422814774779,0.49887016377851434,-0.007519561331571483,0.9261709764774497,0.022915437215188156,-1.3849516707023444,-0.004999019440975811,0.36006053957382705,1.453125
-0.30615930683722237,-0.03171437832028894,0.0465613542521949,0.012555030455474113,-0.008365140710070613,-0.005555451949360048,-0.012610320794291764,0.2483277732767154,-0.004733738380913902,0.7780083378037892,0.012713431737565735,-0.9882224955041531,-0.001225841389973629,0.26101212878923385,1.4609375
-0.35161569822245387,-0.057044082412544495,0.05604895751303152,0.011711311157643872,0.0027520537958596394,-0.014199950303856658,-0.01234461733416678,-0.5802206802747786,2.417859307571243e-05,1.5663263685339341,-0.014792627126231032,-0.8879599010178193,0.01825892156535972,0.2638955572702265,1.46875
-0.13953322934445048,-0.031283546919354456,0.02295090049152823,0.0036541530463014196,0.005267893883955123,-0.009057372872384237,-0.0036309540493480604,-0.5827899576689051,0.002367038745783853,0.8977564908181394,-0.018096719951970257,-0.25364829421840834,0.01460734040776732,0.09119625469637746,1.4765625
0.3461224300434809,0.0529682380256097,-0.055891732318814925,-0.011508297992968666,-0.0038300200244470637,0.012319923898550805,0.013604280839115782,0.46823004351001785,0.001026625847547233,-1.4536930794408707,0.010282802160271783,0.8973343984809832,-0.017569657490767915,-0.26073922012545775,1.484375
0.6331936796944231,0.10538475157173872,-0.1028107311215748,-0.020123206269002877,-0.010743291089829517,0.02594002951294658,0.023512106100796598,1.1986525512467974,-0.00045896130077341336,-2.9271876105024,0.030756627696327532,1.5462500187200472,-0.03903518569697168,-0.4642614210723201,1.4921875
0.5185428811590664,0.07893657048082488,-0.08340705225629659,-0.01738603831854596,-0.004732496553360383,0.01838451411267699,0.020152168171603216,0.6756588063375972,0.0016002544822066528,-2.1568335141784796,0.014685247345923448,1.3525089266898114,-0.02522095209010839,-0.39249276624680185,1.5
0.30596967314467965,0.030995582528798707,-0.047563251905295825,-0.012186191406585738,0.0057605251239514306,0.004815928609852302,0.013799947405419082,-0.2474722706836399,0.0051253316284587454,-0.7674404750006665,-0.01349556026205711,0.9807118066077501,-0.0006899512075064951,-0.25751810459669505,1.5078125
0.26740499503061166,0.02614535802225158,-0.04152576957765566,-0.010753741918897079,0.005395636947666473,0.003832704072430343,0.012228997938043482,-0.2533860231255226,0.0047422879384637195,-0.6425458536451306,-0.01309164596554695,0.867641478782588,9.757269252826488e-05,-0.2263565077287544,1.515625
0.30473702675244896,0.0492579846734029,-0.049599576113204515,-0.00976807849415656,-0.005098867379780805,0.011823618572083576,0.01175791303184157,0.5242894283698042,0.00022008414953981863,-1.3667539491292822,0.012819868206697931,0.7579008581926415,-0.018114730808444203,-0.22469145179336325,1.5234375
0.19624538342673192,0.04149045391845601,-0.03333346489311837,-0.004943577588598699,-0.009569102260542545,0.011255520293540404,0.006719771388264191,0.7518972156936439,-0.002414896499421968,-1.2010440175848502,0.02220765345092084,0.36896288737455724,-0.021353726411812955,-0.12707392617731897,1.53125
-0.0802824152875932,-0.014837637240260399,0.012553837157501841,0.0026124860126883268,0.0005387487354807809,-0.004112280021040278,-0.0021856046532211064,-0.19735058629935984,0.0005717463216495526,0.4118856850066612,-0.005910767860064142,-0.18670954441170082,0.004905262900084045,0.05876622150088245,1.5390625
-0.350582722671602,-0.07726521361818224,0.05830462208677832,0.009034846947738333,0.014752812814181287,-0.021934735779869347,-0.010100206213036426,-1.4333337638361554,0.005447844764185053,2.2275147463430898,-0.04386753560936581,-0.641836680871449,0.03751567899805766,0.22776244553416983,1.546875
-0.4826203214126415,-0.10079941994934637,0.07981803628155584,0.0130663525890222,0.017591974087807112,-0.027976794945000695,-0.014722441229603828,-1.7449558745854048,0.005978290319299141,2.8857318968718597,-0.05244630867467154,-0.947073663565486,0.04683286733945775,0.3223920556584829,1.5546875
-0.51190110976825,-0.08521848070652288,0.08208442143221047,0.016654111279243704,0.005968597605937807,-0.021379002812186767,-0.01799501202852797,-0.9423036638487013,0.0005657195868805266,2.352080428067155,-0.024662554550636612,-1.262901214173917,0.029203770101000708,0.37933497673692423,1.5625
-0.46786804932328785,-0.05355749445020163,0.07204979203882196,0.018399921381885224,-0.009004174576208186,-0.010284142806815716,-0.019024390970438856,0.15943871024018652,-0.005942371953543802,1.3558862050047011,0.01216645703942792,-1.4453135508053188,0.003565584169580435,0.38894439016758486,1.5703125
-0.2512879814026471,-0.01613655401994345,0.036927564720988175,0.011629455263481712,-0.012972169878784965,-0.0008199673932998085,-0.011320443621263674,0.6217254529245724,-0.006501324736981394,0.31431557057198783,0.02458922351299529,-0.9305395082086618,-0.010621558257221816,0.2317968400738653,1.578125
0.10417658411900009,0.02021254446711101,-0.017707563920391366,-0.002747186272796429,-0.00472519846024694,0.005169209671591064,0.004025026176406875,0.3306323189060243,-0.0007558857994561331,-0.5801119627809029,0.009263363522455579,0.2137029846368332,-0.010226832280354706,-0.06943532944981157,1.5859375
0.28015319496684943,0.04171510014219574,-0.045176498558183155,-0.009418306617389722,-0.0027122717495307296,0.00948408173470654,0.011239611329193704,0.3339662021791207,0.0011543503045126032,-1.1394915003872472,0.006714750714263371,0.7384657344777662,-0.013383319295176768,-0.2124833308440392,1.59375
0.13059232303239704,0.049690349544115754,-0.024978327366979792,-0.00035732782910411886,-0.019888804664393012,0.015845546239912554,0.002267276188359309,1.4318230299926704,-0.007449289837066041,-1.5236951628595599,0.046383774445624706,-0.02052644774740258,-0.03559086317576873,-0.045466126200832374,1.6015625
0.012303058330585223,0.053190572459992105,-0.008674104560106734,0.006454354417588593,-0.03181277668713793,0.019790756897589676,-0.004521365371507349,2.181743040257519,-0.013503627370416754,-1.7335502725898488,0.07370493537333732,-0.5874631071004056,-0.0504549076687781,0.08173814594579612,1.609375
0.2220324904941162,0.03591811308532226,-0.03629018883167226,-0.007041248941539965,-0.0041332075366357765,0.008544803228752168,0.008720951055910227,0.3864923680337437,0.000183816623871782,-0.9961979735114145,0.009364160204774789,0.5495642403178502,-0.013536030338840186,-0.1630962827744773,1.6171875
0.448011598399968,-0.00926977499797346,-0.06285822657139781,-0.025037999274035626,0.04133538815228455,-0.013690580250090019,0.02585705009026418,-2.660881452127163,0.02199167944350375,0.6628072068892101,-0.0978356798426431,2.0919675206999724,0.051350566394126905,-0.47289310434173054,1.625
0.290558799839148,-0.029801677950585966,-0.03812516116675649,-0.019252302284129767,0.0402848307620882,-0.018018217919607376,0.019535780040296723,-2.717006581859054,0.020620797676811815,1.2014971275277027,-0.09733086847181713,1.6381562290081093,0.05533333115231589,-0.34711382311604433,1.6328125
-0.055880418185457366,0.013443868190092969,0.005715901721211527,0.004957115949675213,-0.014091621357460983,0.006151033119326859,-0.003922989704502305,0.8641070763316466,-0.005892906214147382,-0.4937758458277466,0.029884539912730827,-0.4157042147349274,-0.01951926026178451,0.08275518880653727,1.640625
-0.17106371773539944,0.0544816416508723,0.0171119825811269,0.016468507081966805,-0.047864680430932297,0.024338468526406767,-0.014602009327821885,3.17153633230685,-0.021790887681138623,-1.92514514392228,0.110194270980391,-1.416805420293962,-0.06960510087367859,0.2718672294525399,1.6484375
-0.04659551031072934,0.019521181550445656,0.0037015452765691123,0.005255481537219625,-0.016883530542707914,0.008237701930232754,-0.004074880457502282,1.0706455985812207,-0.00709996793542075,-0.681074878185686,0.0367598328114629,-0.4472351913760625,-0.024314237803534623,0.08381401797745318,1.65625
0.1182774230833056,-0.031928871013119184,-0.013471649420582505,-0.010270104158920122,0.02717124423582295,-0.01502865100162636,0.010424045187600192,-1.927026917563413,0.013720860439013886,1.1319728292704685,-0.06781602567418618,0.8985979974597089,0.040503134303080376,-0.17423808853338232,1.6640625
0.27005682942749615,-0.007074321775186628,-0.037948886528184816,-0.015199825500522023,0.025188084171837835,-0.008898453970829456,0.0159680763650589,-1.6597949167922625,0.013689821387262602,0.44427918533523253,-0.06103251613148923,1.2759101522644127,0.031819576108493536,-0.28674972163473683,1.671875
0.24307393966657215,0.036097728792723834,-0.039309934299994534,-0.00815310003235312,-0.002495388100762008,0.008167932514122803,0.009838651513789943,0.2876168095131695,0.0010430397522828067,-0.9864335531534819,0.005679859942992722,0.6410227152784568,-0.011682940101432981,-0.18428622468375586,1.6796875
-0.23175696651869657,-0.020046583650369088,0.034627395909894734,0.010065706536752025,-0.009047193835682716,-0.002728515705936045,-0.009845321740691446,0.35905940974344797,-0.004616280224995925,0.4564357164882257,0.015358084965193152,-0.7969827933066641,-0.005038908521982294,0.20517040487138707,1.6875
-0.8728363427635677,-0.12657441031923009,0.13812764677572625,0.030678452270785427,0.00020678424782886448,-0.029156080749526952,-0.033098531799149115,-0.8325323245024139,-0.004089727443239359,3.406217915850866,-0.015424451291388346,-2.3717937868245667,0.033003221156508736,0.677657482436846,1.6953125
-0.9020117410265034,-0.12451745036062307,0.1420078992034158,0.03251282257456338,-0.003434513270390273,-0.027729049197930924,-0.034899840989584506,-0.5978699320250598,-0.005900049638774385,3.315070850282735,-0.006988423048272695,-2.525838635867884,0.02820691916997017,0.7110086584794361,1.703125
-0.15115719073327077,-0.0011549152537650997,0.020966546275873812,0.00819076168568313,-0.013438760729767489,0.0026763084433381237,-0.007510403023222908,0.7382462231292262,-0.0061408561390766826,-0.09336980294961468,0.027039748424525504,-0.6646724312783124,-0.01500156336510165,0.15511267308407084,1.7109375
0.5792956270683146,0.0935503983819676,-0.093737085761472,-0.01875287182590158,-0.008273575219026533,0.022608683234064855,0.021864336316256335,0.9782260615350524,0.0003488337751037655,-2.5837095238782646,0.024064539401300346,1.4477670777037441,-0.03310500918074068,-0.42934679717792756,1.71875
0.629714558767321,0.07812763589648632,-0.09900739911082497,-0.02346367525658495,0.005009791834681343,0.015618286031157872,0.02625991301464643,0.07518393044226726,0.006630682161620235,-2.040096216529719,-0.0074380078737348015,1.8555553286743205,-0.01360200415671437,-0.5075983029786084,1.7265625
0.26404781928598225,0.023689979913190683,-0.04074651189584612,-0.010892830533845427,0.006561488984113075,0.0029696069116376413,0.012312751805216524,-0.3392335920861794,0.005248942156009455,-0.5654219524337262,-0.015956538804573966,0.8820514716633454,0.0020903768292098407,-0.2271885562228997,1.734375
0.026204479001563336,0.004915458611889809,-0.004869946081920663,-0.0005575418990030389,-0.002216049988315379,0.001077493275612386,0.0014504896268543715,0.08735611828531711,-6.65463024272688e-05,-0.14796113625374782,0.0021897773203375225,0.05051623408534065,-0.003407422570834966,-0.016171327509864875,1.7421875
-0.01405695358311198,0.007255974441990345,0.0005307946322896347,0.0019139763493032146,-0.006944674617911957,0.002848656073122723,-0.0009790288944809046,0.3900926657483378,-0.002430053062683149,-0.2555386549067223,0.013091285584944544,-0.15615901810388463,-0.009521194515982264,0.029009533044131404,1.75
-0.036491701164202126,-0.0005747499802357858,0.00466104021651767,0.002111462061121549,-0.004206743698397278,0.0003510296233705672,-0.001350281495896418,0.17662386836768476,-0.0013229008158806232,-0.017009676938766777,0.006155477452241201,-0.16262733049617695,-0.0042978556399298805,0.038529812347611,1.7578125
-0.04302017114992766,-0.00742812439547791,0.00642976310687268,0.0015730097353375651,-0.0007249189456523066,-0.0021101540854081445,-0.000970457478662951,-0.07629755869418685,0.00021094098665250244,0.20055372632097795,-0.0023451302108554203,-0.11000511050591054,0.001514686561249038,0.03353184140742956,1.765625
0.021268628193131814,0.001934855025404256,-0.0037932396964767,-0.0006747770461394311,-0.0008800669472913172,5.045660618696356e-05,0.0014996459683752751,-0.011598965456837456,0.00050801923145685,-0.054034400402926806,-0.0011054018008433732,0.06388864008564647,-0.0010829235669923116,-0.01608199304987547,1.7734375
0.07015124644700937,0.013565164973737404,-0.012129870338866108,-0.0017985853737733529,-0.0036458334664661476,0.0034063161056776038,0.0028959587074902197,0.2257901996315083,-0.00046016421492133544,-0.394092214819176,0.006234001200473434,0.14243150424166967,-0.007295158079233797,-0.04613203316937944,1.78125
0.029298183104648108,0.009960137953113702,-0.005931831474013716,-6.724636865039291e-05,-0.0049236893285112375,0.002926573690450867,0.0010749774006850235,0.28257171449807233,-0.001268859946205267,-0.3088108315977994,0.008774786770326542,0.0040823972961063475,-0.00785131681094045,-0.010594816475142604,1.7890625
-0.02298464494985478,-0.004126095027857628,0.003166693510882739,0.0009242452367954982,-0.0009901808333409958,-0.0012967943214036222,-0.00023748739807128325,-0.040824691253850534,0.00020798848775260083,0.10936303942329527,-0.0014535242349682147,-0.06023159442364164,0.00037423512978177343,0.018642738111810123,1.796875
-0.004346669976428236,-0.014274338568535987,0.0017677871126620124,-0.0013904633393763423,0.00653326596719508,-0.0055767624232988845,0.001864582598626954,-0.5604949330438314,0.003709080924294825,0.4555841696418204,-0.019426630568335296,0.14341139335290837,0.011780567471205292,-0.017890345074864384,1.8046875
0.015591342480025736,-0.01873395956385143,-0.0005135879534487156,-0.003047940263352135,0.010815606463303302,-0.007706907617984205,0.0034220216930439377,-0.8484642632545996,0.0057560965423531585,0.6156107963740706,-0.029516562315865025,0.2852651348414336,0.01791829487748227,-0.04597242909432755,1.8125
-0.06668689017956732,-0.025292158866978335,0.011898866185222071,0.0005134220977585584,0.007813355740114106,-0.008378808151350137,-0.00033089216455670534,-0.7033139188375438,0.00393369177355719,0.7607542712576022,-0.02331150231052016,-0.0015102089830641727,0.01606021371846904,0.026912871489186616,1.8203125
-0.17316195547875182,-0.029335396077767906,0.027435520288811875,0.005711687239957185,0.001316670128248562,-0.007569489589323289,-0.005662271158713006,-0.3298291634978689,0.00039498325275148577,0.806279484457679,-0.008984910663153862,-0.4259320942412169,0.009488028849051304,0.1288982439021152,1.828125
-0.12238167003603719,-0.015618170446324756,0.018616262167584042,0.004772754697390014,-0.0025220516422815743,-0.0034751415613614566,-0.004386694133240004,-0.014625877727669878,-0.001050151418031418,0.4025004563995798,0.0009569138433642793,-0.36439287162326106,0.0015063744292454252,0.10059231227824884,1.8359375
0.04343215571412109,0.010550958457990332,-0.00795563170614706,-0.0007373216216016611,-0.004102701371204172,0.0028297317869597307,0.0017753854660441837,0.23582844117479676,-0.0008209459680356099,-0.31473501840074875,0.006961070434990841,0.059309857017638384,-0.007029614510674015,-0.023923659904400707,1.84375
0.04481826521260853,0.02110173387210524,-0.009400322014641907,0.0005486232734088697,-0.010204218550537249,0.006830582260207429,0.0007067139899263025,0.6713467827913249,-0.003567001560654344,-0.6592297563123827,0.021788175971132282,-0.060317180908651326,-0.01690555771438394,-0.007027612028226517,1.8515625
-0.1870433146496396,0.008227100934597163,0.024942524864249988,0.011325898766709891,-0.021963240192106652,0.00705999158612374,-0.010474435065149617,1.3152847985098146,-0.010193660191494877,-0.4301850865058749,0.047255301535284955,-0.9358066563388915,-0.027427745559257637,0.2081985939196784,1.859375
-0.31504106055286735,-0.002369858872425771,0.044305289111315614,0.016830513401211684,-0.026392331284425388,0.005844982467717693,-0.01626520389279414,1.5238172575023947,-0.012920811155632428,-0.18811767025236545,0.05629128475995555,-1.3775811179902855,-0.029899811401886103,0.320907050434497,1.8671875
-0.06806274301735366,0.0047796387437880694,0.00849079608201263,0.00450164390040636,-0.009990239109278659,0.003089477833290632,-0.003641707709425741,0.5619524790619799,-0.004111591972813032,-0.2170922978231994,0.019757560347827833,-0.36664838710900516,-0.012451295550047438,0.08018716384481742,1.875
0.35063718239667774,0.015194688783825891,-0.05200338876355633,-0.01663333649850252,0.0188082917358438,-0.0022128648322292054,0.017935990008418258,-1.1390003762762508,0.011269877886034277,-0.21374943762153265,-0.04453993274140358,1.3677283662285178,0.01868498769531917,-0.33077982555476204,1.8828125
0.5516309758030751,0.017775420594532187,-0.08075486777461036,-0.02710017607740855,0.03405173730803705,-0.0056686780374434155,0.028553128610080566,-2.0564058706013486,0.01929370396031696,-0.13513052634319286,-0.0788247865614184,2.229322807860922,0.03589088363697848,-0.5322567932886568,1.890625
0.41394271634525837,0.016349956330436472,-0.06110968941885361,-0.019897146551652888,0.023396784495450035,-0.0031495514223518783,0.021239218617026993,-1.412711575831943,0.013700683468035359,-0.20327324129434995,-0.05479802175131552,1.6352475157456936,0.023730952733621,-0.39365195070915837,1.8984375
0.075990416766649,0.00523662014214172,-0.011963590895011788,-0.0031891701011470108,0.001740568259730948,0.00010318028295207926,0.0041133616792513,-0.1527714940018109,0.0020028380125916563,-0.11811896420553267,-0.00674848418859384,0.2675950541062881,0.0011506334840953039,-0.06656454704146701,1.90625
-0.2603230728292059,-0.01925970827551475,0.03856567109272106,0.011698934913531555,-0.011894346033041597,-0.0017909153141413617,-0.011478023171902423,0.5378379471795446,-0.006065320310377292,0.4058932807806648,0.021887879549902206,-0.9332045254849829,-0.008593102792512143,0.23571858576506677,1.9140625
-0.3806565392700981,-0.028772245426021262,0.056741257524446934,0.016929820798745922,-0.016330734511478397,-0.0027564639368799627,-0.016975921420735597,0.7535143383528109,-0.008752665184952201,0.6181049125787451,0.031064209660145208,-1.3539507636745771,-0.011368543761965081,0.34258857668514286,1.921875
-0.1948828195336175,0.0011258265348145875,0.026871966872120387,0.0108305933834243,-0.01843658472183517,0.004527586461083325,-0.010131783402793948,1.0578211919308136,-0.00864527881062146,-0.20464414175088477,0.03859044269696628,-0.8859679575072246,-0.02146724129791625,0.20396456556136822,1.9296875
0.06615265954901568,0.0349622648590812,-0.014118337989311275,0.0012012706650863878,-0.016583978530991427,0.011645924735533364,0.00036699830976237656,1.1430689124201125,-0.006322253477089794,-1.0940270942902774,0.037507954901999256,-0.13089747878637664,-0.027923759909558945,-0.004926816452817889,1.9375
0.07508528415024737,0.02052241780254444,-0.013638320964210499,-0.0011488804602350386,-0.007334988232102209,0.00593810587961556,0.0024094118197069995,0.49248306377101775,-0.002096619507863502,-0.6151332038391459,0.015220746949477336,0.08097456747028214,-0.01338415173203701,-0.03900635137989126,1.9453125
-0.1254323122902506,-0.024716579657718115,0.020167806694886003,0.003752958491829159,0.002579886084467904,-0.0068741346208308785,-0.0035761640794838502,-0.3797538694197979,0.0012360655976197737,0.6964089315691245,-0.011412549112517675,-0.26940909031629406,0.009793701278578301,0.08814596136498995,1.953125
-0.19585850793317325,-0.0396253626053455,0.031907342211955264,0.005600213429052506,0.005491125670681021,-0.01100265240744494,-0.005779239797401733,-0.6457417607540133,0.002148492299315596,1.1250968425271068,-0.019393930085948724,-0.40402170505989193,0.017023609386295643,0.13434862755579233,1.9609375
-0.042995791929650716,-0.018969200436902776,0.007779737210677761,7.104290518334808e-05,0.00608713680884123,-0.006518420208429437,0.0002839687945033231,-0.5613411891508637,0.0032882441356720414,0.5772994809230392,-0.01886298677922291,0.02823802350189857,0.012473568992853108,0.013319644631115795,1.96875
0.08251277970950385,-0.011376917928163845,-0.010886957633953195,-0.005681101500447353,0.012086236838659134,-0.006407223791071387,0.006268587775873064,-0.8837871352648149,0.006710599363946246,0.4332348838526519,-0.03176331627720399,0.4947090476793996,0.017583904318954745,-0.10209540870690918,1.9765625
0.05893878005580093,-0.024447297460024418,-0.005960896131290233,-0.006111279249771404,0.01780581128697172,-0.010860012738846897,0.006395332871914632,-1.3100309488723596,0.009156459426400478,0.8393311469713371,-0.04590367323078706,0.54580056013703,0.02760493344168754,-0.10038841655922776,1.984375
0.056940928398637014,-0.013479819195901193,-0.006985792593287955,-0.004589184939519703,0.01116995175998778,-0.006616183720031518,0.005097904895395395,-0.8393584032541731,0.006148591142156752,0.4776194917537054,-0.029827686054705812,0.40609385718477026,0.01698444427409827,-0.07930328094272561,1.9921875
0.15614671752495576,0.02969664863729191,-0.02621773277978596,-0.004322505884518198,-0.005979045047854457,0.007656421997587683,0.00581641441405857,0.4631857301550692,-0.0010262665679327725,-0.8504810260231291,0.013008908690973939,0.3315575746433975,-0.014158301938597974,-0.1063467898664666,2.0
0.19513511360250393,0.05486536186509823,-0.03476207174741895,-0.00314741702974316,-0.01753962909818085,0.016377535844596464,0.005217034680930283,1.318000100317846,-0.006021063330887306,-1.637969177252444,0.04150048263482805,0.20435466658996873,-0.03411733790488924,-0.10282752355586669,2.0078125
0.10047009113191266,0.03557232376316065,-0.01903647480422745,-0.0005571175090384373,-0.014073260300999497,0.01110515284373653,0.0021675865397478714,0.9927303502463041,-0.004996026396647416,-1.0844234550570484,0.03185872603751979,0.014003949379209815,-0.025111486955025675,-0.03913579924720334,2.015625
0.010823328521139245,0.006933804305475974,-0.002899947554485455,0.0005429911729582653,-0.0046934208501558435,0.002176091900697421,0.00039495431791612966,0.2510167489109358,-0.0012737739789571195,-0.22419252164227307,0.007983080361355083,-0.04242469553003647,-0.006816157257736411,0.003295188488866662,2.0234375
-0.023922551487558542,0.0010928963939359918,0.0027040150262040707,0.0016414495108016034,-0.004156184112060678,0.0007331790616491308,-0.0008605509852831123,0.18395234682406048,-0.0012277463673952835,-0.06407255651276839,0.006245986337289849,-0.12667041828597042,-0.004717772655278264,0.028786023990549716,2.03125
-0.12452766508519698,0.0023914523410963153,0.016751262384824692,0.0072056205326764405,-0.013308709037829098,0.0034592255908075134,-0.00645207295625611,0.7513108265129155,-0.0059288417699627045,-0.18960268608758632,0.027097505025143128,-0.5883758836672757,-0.01578135829321503,0.13397497053270296,2.0390625
-0.2700141901285541,-0.01007529541063168,0.03881582111816356,0.013407798760973014,-0.018097318922488562,0.001915098605417988,-0.01298870933158369,0.9708230661827311,-0.008918010890642473,0.09914885927232137,0.03677263459977868,-1.0855368578385556,-0.01819106589738147,0.26136458943346313,2.046875
-0.24206178794303526,-0.023467162126077228,0.03647850598553474,0.010181678371392036,-0.007877321000951924,-0.0038223076738616393,-0.01002574739902708,0.26691486308145734,-0.004147927667108381,0.5605793912898795,0.012363914721681137,-0.8020469909196416,-0.002766659008602952,0.2095900336921411,2.0546875
0.0007126940925190039,-0.020292552552718883,0.0017658688881869663,-0.002441670447821641,0.010504587694256324,-0.00798730024167032,0.0027905557580292233,-0.8388477455652601,0.005530096719491323,0.6561699275749749,-0.02898441754436,0.237667276571338,0.01798011179271639,-0.033544788363430646,2.0625
0.18959304596692642,-0.010996807415016373,-0.02606866823937259,-0.0113879141511584,0.020784822469049384,-0.008615583591152746,0.012022789322831361,-1.4130204520082719,0.01124654957767766,0.5064256395558001,-0.05139728177581737,0.9654487249873777,0.027647895691221332,-0.21091615682037415,2.0703125
0.13945886901047205,-0.01164392129801033,-0.018905417576169595,-0.008785281631479097,0.016979732182793934,-0.007745294518949298,0.009373640105451567,-1.184048015788567,0.009244084339288545,0.4853785591362571,-0.04282813136150817,0.7507571532963666,0.02334044641141605,-0.160701006675488,2.078125
0.030705390333037905,-0.012443893298112046,-0.003429164712157129,-0.0030435357281747458,0.008376409183890892,-0.005645621914726752,0.003567362641820367,-0.6626246630784765,0.004740387442610406,0.42301224803090814,-0.023427479311361434,0.27739970646489914,0.013464657944136229,-0.05073548241433388,2.0859375
0.10475731574759017,0.004750959357659015,-0.015962707606986815,-0.00478333515150236,0.004431724610704505,-0.0007381345129578766,0.005728965264963182,-0.32052470066555616,0.003380613411172022,-0.07549105093099966,-0.012922582863452374,0.40084835034310456,0.004467009121481074,-0.09688006278786757,2.09375
0.23558665692613673,0.027438887136493798,-0.03717406246544313,-0.008869192786647214,0.001988162160942597,0.005013401957924523,0.010370424930465288,-0.03772050000913381,0.0030233111361716355,-0.7078831312864545,-0.005282172455795059,0.7109984999968212,-0.004193292717049819,-0.19160362463398697,2.1015625
0.07535306263741261,0.01979139754065339,-0.013568396115606812,-0.0012637027070255182,-0.006880952210795896,0.005654719583426536,0.002503607007237912,0.46031071951911645,-0.0018913432410560657,-0.5913027523210874,0.014138358430091497,0.09104632211715553,-0.012672738521946237,-0.04058951788974031,2.109375
-0.35884354891116116,-0.02146193799096069,0.05280686393519597,0.01670250559671335,-0.018816485355305793,-0.0004519030604490882,-0.016583928741820828,0.9484775194793573,-0.00975088590955326,0.39706535525658826,0.03738624602017072,-1.344244927755873,-0.016162275212839458,0.33287807736222674,2.1171875
-0.5543418322300584,-0.04579405355601152,0.0833655398463152,0.024052282532586188,-0.020792843331557613,-0.0054064286739135764,-0.02455103008130741,0.9263269955528343,-0.01175637204268569,1.0313400379789455,0.039597022863101725,-1.9218775863384037,-0.012252591030550321,0.49098665792711,2.125
-0.18334746998806645,-0.01301893564135323,0.02694024158435035,0.008383995781500002,-0.009133913038441884,-0.0011376811454791489,-0.007971507241440325,0.40516224348074553,-0.004382218773412879,0.2681127394927893,0.016181993533395625,-0.6660963986914237,-0.00691254575405806,0.16754470569525812,2.1328125
0.36698145619509315,0.043238447126945495,-0.05765685297083314,-0.013877938637017124,0.003647774426472642,0.008126284608074337,0.015789771584563607,-0.04658041471385476,0.004518863536808438,-1.116069490178453,-0.007581808423252075,1.1056427225536143,-0.006278777580064718,-0.2989228879317959,2.140625
0.4941079082000942,0.05676901784629396,-0.07727027513185841,-0.01895732954644126,0.006276551702833215,0.010484311394019823,0.02121801273855982,-0.1278508179473544,0.006428506550459078,-1.4554770708267333,-0.012272027719805704,1.508589319349468,-0.006672840443998326,-0.4057389848366507,2.1484375
0.17163744703962466,0.016608839485687206,-0.026860614411652304,-0.006850201809662998,0.0030234332402713027,0.0023189220828383184,0.008071483771639132,-0.16457374300714275,0.0031264213338389577,-0.41095483158878604,-0.008608387785121676,0.5564193986307558,-0.0002431394800880051,-0.14488675940911294,2.15625
-0.1553840559087132,-0.029454657451143458,0.02491534422503914,0.0047422528832024614,0.0028786788857627387,-0.008015162418914337,-0.004682270407074452,-0.42617871118083234,0.0012022762608924257,0.8251836962984972,-0.012546045708261755,-0.34554698244234566,0.011367315699371487,0.11042043798898074,2.1640625
-0.22166411981874304,-0.0408178461421193,0.03567720180915251,0.006832470641624195,0.004049029406531659,-0.010893547463225064,-0.007048316809455463,-0.564415508160117,0.0013528649584602774,1.1436192166584813,-0.016248136338442843,-0.5042396676259137,0.01565319651292331,0.15868120679827286,2.171875
-0.07054350156124714,-0.012008080328506891,0.010862153163005083,0.0024518479220277905,-0.0003127080234419765,-0.003250988805636973,-0.0019668917251379134,-0.12835691394638515,0.000241543155354427,0.32758093720809506,-0.0036956996435332534,-0.17724415053618875,0.0031673315139937657,0.05370868708724239,2.1796875
0.18826359889634367,0.03780500016553993,-0.03174138909957234,-0.0049914641573940086,-0.00806446742216464,0.010026293199274765,0.006685471461463595,0.6382582918233364,-0.0017846385637679898,-1.086845523006561,0.018466599758154317,0.3773085066682479,-0.018657416228069833,-0.12527050225976863,2.1875
0.3437305254666072,0.06537642119211831,-0.05705768691205814,-0.009766244606325112,-0.011338650739373853,0.017104606785997664,0.012135166087032587,1.0004276277292383,-0.0023750036028797185,-1.8595575813633622,0.028423730604994306,0.7385360618559793,-0.029535429820785743,-0.23677013242626616,2.1953125
0.1268496422502941,0.032056980845526405,-0.022353060860095197,-0.00243675494533704,-0.009817173457594155,0.009201253845062464,0.003969449199438933,0.7120209273192336,-0.0029216554555801175,-0.9499504092118775,0.021911118814649314,0.17322311264665813,-0.01924715063622724,-0.07204298440541862,2.203125
-0.3512372024315595,-0.03705525643603548,0.053608421940994584,0.014278556829050328,-0.0090043181194599,-0.006567613996680137,-0.014491036459413261,0.2568298227026286,-0.0052781612601230715,0.9130394969873746,0.013710771734862152,-1.1246302589234543,-0.0006648748736773027,0.29827520411157493,2.2109375
-0.5567138238564591,-0.07061334646141681,0.08669480874678348,0.020962718779463416,-0.006376324258340875,-0.014818507072046964,-0.02200331002099895,-0.10117329765022146,-0.005263285441452543,1.8394671721322269,0.004654228485531945,-1.6363772687276363,0.010987382880621961,0.45058723472537227,2.21875
-0.2432258005713202,-0.0494642912106739,0.03976923028478828,0.0068723007757175054,0.007334409406978536,-0.013707050064961987,-0.007282708762214858,-0.8164056894720373,0.0027106087801306547,1.407357561170516,-0.02449367504397427,-0.4969733031480437,0.02170588936246899,0.16579734008259883,2.2265625
0.17255287682014947,-0.02643700334291441,-0.021827185935812676,-0.012467677446386376,0.028464202735321686,-0.014142122328490112,0.01277567357865451,-1.9742210266250462,0.014615745824496063,0.9978966925913033,-0.07026492509027499,1.0740126770671496,0.04064210034493214,-0.22036575457183402,2.234375
0.22830201123578464,-0.03068878935779921,-0.02918240911916888,-0.01601587620003032,0.03561197102798852,-0.016992023425327376,0.016252943999606955,-2.4362160403036994,0.018158680966142177,1.18163127170431,-0.08683240887894664,1.3721835337936514,0.05009709171239056,-0.2847200984507328,2.2421875
0.03316497511263865,-0.02417774096295211,-0.0023430257570507826,-0.004700292692363756,0.015491375706914974,-0.0101728682217282,0.004965886250933661,-1.166643453879587,0.007965076435293626,0.8073838939242072,-0.040610692697170055,0.42834203795410236,0.02479439213801344,-0.07349013151558652,2.25
-0.03412468884831257,0.020029077212903625,0.0018622707504157984,0.004641776294714722,-0.01615425923822858,0.008179409260319362,-0.0034546038378062867,1.0289833043334773,-0.0067016373538428126,-0.690550545032858,0.0351724396840628,-0.3976786789552676,-0.02362401196235085,0.0718374440891877,2.2578125
0.07233638670303665,0.06218254708515081,-0.018263126357539194,0.004396310852341742,-0.032091706323668714,0.02188475083130377,-0.002230831346313339,2.2513160725872225,-0.013289035196723746,-1.9768943884714067,0.07514922365972596,-0.428124621132322,-0.053057647363833345,0.035624935979236556,2.265625
0.11985289591097127,0.05683639927274281,-0.024329343858481293,0.0011588896509231554,-0.024978807382463723,0.018783137960484867,0.0009226872525758071,1.784754290697305,-0.00980891304645928,-1.7620239292789561,0.05852923344500591,-0.15369328396982365,-0.04333295803158794,-0.022243117038098028,2.2734375
0.0755581966624378,0.0258542294100165,-0.014332533809334583,-0.0004813869838473435,-0.010433871518165157,0.007955842169597247,0.0018629452356379802,0.7132087715563034,-0.0034966635082725205,-0.7883404573730777,0.02273216096097456,0.019253239187437987,-0.01837749132878306,-0.030360383628535836,2.28125
0.13132520755609978,0.02522152168652946,-0.022155828431160422,-0.0035679896197979314,-0.005412353835072905,0.006494249129985869,0.004952051062601682,0.4023788530511595,-0.0009111950550799543,-0.7239569383117839,0.01131598419901057,0.27466240990866425,-0.0123479958690808,-0.08857377817526033,2.2890625
0.27831725899583226,0.05616053476607714,-0.046682708636059396,-0.007455946931486244,-0.011364624338753637,0.015038774224043856,0.009582189459630045,0.9480263167835021,-0.0027581460796569967,-1.6132744894375475,0.02765401452102466,0.5583745855706813,-0.027223711072167187,-0.18571054689435512,2.296875
0.2511935360472642,0.057755517637624966,-0.04304474074383569,-0.00578691700465885,-0.01455716695802108,0.016233582249592548,0.007943496865834815,1.1524977152221607,-0.004352171907859453,-1.685978506648495,0.035013012244978915,0.4188949869086266,-0.03134937359351316,-0.1552193277810973,2.3046875
-0.0202005417923534,-0.0009871632894701246,0.002401730875010405,0.0011818004673734015,-0.0026022649732568856,-0.0001668662229110896,-0.00042554297093301015,0.07618793557988951,-0.0005026209548223485,0.009403172003504998,0.0024891808944177887,-0.08534143961118815,-0.002314915343302121,0.021220436652548413,2.3125
-0.2759547934324587,-0.07039016356980997,0.04691608883367237,0.005921419534956986,0.016923502759276204,-0.02096131076234538,-0.006800305047637859,-1.5256905671170276,0.00685254893734249,2.0635565122234287,-0.0481507387826296,-0.39283440143648446,0.038294873439156725,0.16326248001510207,2.3203125
-0.35768766947110653,-0.09538557890260949,0.06147819523467578,0.007062754136915943,0.024814668463117893,-0.028668283123764765,-0.008536713430736783,-2.155036981279584,0.009948941900160458,2.8104794792109535,-0.06831774164581857,-0.4572858354579049,0.05391165661440521,0.20381794165459502,2.328125
-0.38139293066517155,-0.0883228981512749,0.0639736953403019,0.009243303423168208,0.018679551782304408,-0.02544585115726079,-0.010583701964907807,-1.7382736760360187,0.007045997110441267,2.5597973430973275,-0.05375803367339993,-0.6464860575076898,0.04490897676449251,0.24025518540771862,2.3359375
-0.3785030682211925,-0.07680856734231092,0.0621683437494873,0.010583019141382148,0.012149016150395757,-0.021127800831898077,-0.01166460042196974,-1.2714044755586682,0.0041146800090228405,2.1872852061252086,-0.037916551015714936,-0.7709911937556125,0.034327219312434494,0.25707529269767687,2.34375
-0.18978560289550675,-0.04145984918501344,0.031237591367310816,0.005041435507503352,0.007077934434713989,-0.011837464558058654,-0.00524773028694984,-0.7537490935824426,0.0028984361974262905,1.190375356823516,-0.023183490320130683,-0.3552711893471627,0.01937005705342698,0.12487923562662795,2.3515625
0.16734159207056515,0.027213857841387405,-0.027486267033333532,-0.005229510112703491,-0.0035785726398009326,0.0064407981517719355,0.006693169748257471,0.3016682861819239,0.00012051351364449043,-0.7566676582694911,0.007311019504292682,0.41049289778803155,-0.010672136842708083,-0.12202727135964762,2.359375
0.40498709344448264,0.07534101309087084,-0.06685589989214318,-0.011759739810211892,-0.012100943596080849,0.0195389632834794,0.014374031226655934,1.1059652479216397,-0.0023726138263641433,-2.1333192362486533,0.031093479591338156,0.8913646552213262,-0.03298188964603776,-0.2821323003293969,2.3671875
0.341814978668865,0.06350642525489576,-0.056520691699887535,-0.009909692748190726,-0.010398312090677483,0.016431529330323963,0.012228053570705085,0.9322777741767581,-0.0019627315523404547,-1.8007318213135883,0.0261521148033394,0.7524082546510558,-0.027974268378065333,-0.23799639248207316,2.375
0.12463095656330994,0.03479769986240209,-0.022377512175808204,-0.0019650964797671036,-0.011604459403983873,0.010288898671932823,0.0035588301433549865,0.8372120099041975,-0.0037436378728963864,-1.041748429177512,0.02621327207238794,0.13079918342056984,-0.022044459806681384,-0.06529064898364502,2.3828125
0.015818363908044402,0.03676426456176382,-0.007203145266618304,0.004141916617127305,-0.021839394991618237,0.013438055469597492,-0.002550925638698406,1.4747983508994578,-0.008983586220915829,-1.1930399287565256,0.049568271238652095,-0.3759748035127253,-0.03453428218837708,0.04963390586667171,2.390625
0.07047324850053724,0.043593181353453046,-0.01572704072338855,0.002091864449694045,-0.021303124449377802,0.014829938090408432,-0.00032723888699131627,1.4821756501143382,-0.008430556177746075,-1.3705232988525984,0.04899369070121622,-0.21490176904212654,-0.03565070761966383,0.005551762940949718,2.3984375
0.08801425371112936,0.019916823888124307,-0.01538311113730701,-0.0019284790543345324,-0.005896028470246081,0.005421670861081401,0.003179464619462891,0.40061718180308437,-0.0013752822230862765,-0.5856176239209725,0.011914611289592942,0.1457058490772964,-0.011546888363364557,-0.05341416136598592,2.40625
-0.03945255194017694,-0.00866806279141008,0.006041503438091669,0.0012068650361899873,0.0003068150407779354,-0.0026513914549300306,-0.0006432932834416463,-0.1467442833335877,0.0007007343898471811,0.24123110240978315,-0.004782011362622026,-0.0788823658165159,0.003026291172152087,0.027636102829177413,2.4140625
-0.07388383035778602,-0.011119825201536333,0.011196857499042225,0.0027437316387127443,-0.0011185558803956728,-0.0028323299271520302,-0.002243996538760123,-0.07400231438551198,-0.00013770917439476433,0.29436798679412135,-0.0017964719167177237,-0.20255552338602806,0.00199968799043488,0.05867176289493539,2.421875
0.1403707052969633,-0.011020656857298966,-0.019115287155911896,-0.008743256185055656,0.01669927265588895,-0.007548581019262755,0.009362637150428899,-1.1636357582464252,0.009123054937193049,0.4684448289226859,-0.042171509714776984,0.7472067811494205,0.022895062661924544,-0.16063860248906417,2.4296875
0.231130305114886,-0.03322528460151803,-0.029294161205122266,-0.016496818968458633,0.03734592472797225,-0.01802137547072345,0.01668261205871874,-2.557256963149086,0.01895644214850491,1.2668076235359809,-0.09100092916403504,1.4149960219246334,0.05277953092784958,-0.2920846771423845,2.4375
-0.11684118795379295,-0.04894708490830582,0.02181331958497683,0.0001478778635213922,0.01756899904556966,-0.016297078444424858,-0.00048623503858253784,-1.4394202474448239,0.008047889378407773,1.4930754896264142,-0.0476293420927523,0.057913489989995647,0.03356883327307704,0.03720457877122779,2.4453125
-0.4628682713055662,-0.029404016799563674,0.06843584166787602,0.021262779627077816,-0.02281440883594307,-0.0011739172006594689,-0.021361557775788118,1.1463962612960665,-0.012148248757896057,0.5715433064980234,0.045690197052506216,-1.711312141853459,-0.01881359652381233,0.42564729680549007,2.453125
-0.29770308330636097,-0.004937331065219223,0.04215454379877054,0.015565518243717004,-0.023446904823723882,0.004497081155573152,-0.015053490372810757,1.3289571282031467,-0.01149189022544652,-0.09097118749345992,0.04939094438769665,-1.2700199091783833,-0.025804435012720537,0.29889230820156365,2.4609375
0.021958394326872552,-0.015303446959566392,-0.001825819305886994,-0.002945516711598787,0.009328304425570876,-0.006538711405715065,0.0033971892058570967,-0.7372917466509649,0.005121157266056429,0.5089604572156142,-0.02582883864721017,0.2727118793787935,0.015296761935166329,-0.04657580542698929,2.46875
-0.04888683125171442,-0.03814421918346055,0.010921198579308749,-0.0021019229863666134,0.016875400997313862,-0.013684880531908966,0.0020277318842791972,-1.3335004468321803,0.008123276246654156,1.1959589901379033,-0.04504952099226574,0.23073345977989876,0.029991962302563905,-0.013668285266033978,2.4765625
-0.22474214586913743,-0.02386511796169495,0.03408163690236525,0.00919664067047187,-0.006198888753754799,-0.004354175224835614,-0.00904415155722241,0.16179075723996492,-0.0032924358899436247,0.5871186614247551,0.00853247861859672,-0.720321774561981,-0.0007041684100001469,0.19111996912944776,2.484375
-0.026121474356694166,0.0230285373036591,0.0003732025032380349,0.004613348236543666,-0.017246562325672284,0.009123981421002193,-0.0033411121488955767,1.1130875614876332,-0.007147366421293765,-0.7788024628548523,0.03788825718887089,-0.3981956414336188,-0.02562621572716408,0.06885477305203166,2.4921875
0.26399309749414407,0.05307704184483738,-0.04424930509106315,-0.007072672379839481,-0.010749199340051087,0.014165349319671817,0.009136525717953668,0.8923523285314108,-0.0025639312036506395,-1.5220509048979731,0.025962075404668807,0.5310480627518389,-0.025695847963977992,-0.17622433252073819,2.5
0.21623392144758202,0.04721888350039274,-0.03678311207308297,-0.005273563445244466,-0.011289956188077347,0.013002333448540447,0.007176062359188896,0.8913164574821075,-0.0030815209288178502,-1.3719148615194015,0.02667249328026158,0.3889600143184947,-0.02486692438047076,-0.13740351066687057,2.5078125
0.07468682851720784,0.030135218497391494,-0.014733106728922885,0.00011040187990566316,-0.013029875810880883,0.009622174071675847,0.0013513203421745494,0.8972586051605342,-0.00467224347290852,-0.9308704054589468,0.029029873051429466,-0.03533450621101383,-0.022543016915251235,-0.022101969214736106,2.515625
0.17093004942629522,0.01791596819044166,-0.026910747854445728,-0.006636844621369013,0.002209241745418859,0.0028154475971848376,0.007896708983029192,-0.10730586707174636,0.002755863108088323,-0.4514761161794326,-0.006663283944459807,0.537838089103598,-0.0015053299724468797,-0.14200001053745212,2.5234375
0.2815547164252695,0.003787508967158912,-0.040862110410999075,-0.014402272057788604,0.01976032841001813,-0.005032206725272493,0.015421516388357348,-1.2641711046390975,0.011307385291614177,0.10161179549300756,-0.04775132311874641,1.1972949782977407,0.02271322114186164,-0.2797441482690869,2.53125
0.15195866227855628,-0.00943097952535737,-0.020919211204377234,-0.009157855233814958,0.016722118732735804,-0.007193125720412297,0.009817035213344306,-1.1555497595207138,0.009196345805809565,0.425685333222935,-0.04206387220686722,0.779478691974595,0.022498110587271962,-0.1696952537086419,2.5390625
-0.05631979533771571,-0.009599874367076034,0.00856793811967157,0.0019953137883888653,-0.0005612278946612406,-0.0026286311263491974,-0.0014608662408713685,-0.09886874200722741,0.0002097427957338576,0.25839188638912325,-0.0028907622290241307,-0.14291685002076895,0.002233302310360559,0.043432563879057265,2.546875
-0.17473744778914982,-0.004320003006127492,0.024665798049788797,0.009032881144949965,-0.013544949709323734,0.002009363332795032,-0.008448654392705437,0.7263325565005156,-0.006322091965491587,-0.011471729172929504,0.02701137994752031,-0.7312318801791755,-0.014341401917549372,0.17378949956010573,2.5546875
-0.2439728914332516,-0.009383197521178057,0.03505822844636645,0.012100907823032943,-0.016332702450474468,0.0015994258206685225,-0.011651207619495615,0.866931564758203,-0.007973464196067565,0.09839319322651646,0.0328353659553097,-0.978221211312154,-0.0162911051248669,0.23590173910937717,2.5625
-0.22263934090438214,-0.01581450647284307,0.032823098538385075,0.010132649236555253,-0.010765826393140564,-0.0013351108641813973,-0.00980000611785105,0.4886480719689768,-0.0053413222876356,0.32708591799279313,0.019615593913277978,-0.8072122162675613,-0.008107412087514159,0.202980694651883,2.5703125
-0.031145710749894178,-0.006484872667576419,0.004620842171090932,0.0010595103285617408,-0.00028851108373917686,-0.0020136259266205925,-0.0004293548364349921,-0.0973500947093383,0.00047646180357310917,0.17928829804405008,-0.003250176442985767,-0.06862042379869876,0.0017864592997317579,0.023021206066216163,2.578125
0.17093083796035746,0.004668481357734835,-0.025317092020075756,-0.008357167896522882,0.00999940406400195,-0.0022228381824006016,0.009318998368481478,-0.6612100525550637,0.006271775038296554,-0.020733003118121287,-0.02551112734604471,0.6956755176487085,0.010988408904315463,-0.16471226709621228,2.5859375
0.1703757851224201,-0.008588113405652572,-0.023668802475144714,-0.010053557131199913,0.017759984438306734,-0.007258748537841732,0.010721832843908888,-1.2140171333860479,0.009772957429181146,0.410017981995476,-0.04431716363244758,0.8516878085591908,0.02347499676400248,-0.18716075038149665,2.59375
0.017972383250782292,-0.03332729167990339,0.0008537402725868193,-0.005070647285117205,0.01961625133103298,-0.01332348308915037,0.0051349277033441295,-1.4730607703789425,0.00974226311213949,1.0929923505812613,-0.050826234251301866,0.4702149678744275,0.03198450879122837,-0.07389263037875664,2.6015625
-0.10550287170305131,-0.03048338707791274,0.018005602370195165,0.0019396238634943085,0.0076422163907584615,-0.009516325355211429,-0.0018648355777991284,-0.723766224889551,0.0036325598507209447,0.9012812808033412,-0.02344593709989567,-0.1121305870194118,0.01722482260612307,0.05756248610882309,2.609375
-0.15263348127487628,0.0001887303943736729,0.02103777157943773,0.008448445403354356,-0.014354564484328362,0.003220033402670771,-0.007736469468072865,0.8024186232584144,-0.006565193718355013,-0.13680982035373737,0.029243034284278088,-0.6874032407156252,-0.016420394568501008,0.15903933946800972,2.6171875
-0.1928837117999563,0.015348109373731902,0.024938075645155034,0.012567565566888636,-0.02664563787441855,0.009899986210460737,-0.011561791380038875,1.6437240145201535,-0.012341370217830256,-0.6656215586479924,0.05852207974500121,-1.046841761129739,-0.03473539736328581,0.22659761460575192,2.625
-0.2545709914730837,-0.0013328695935738418,0.03565085866143088,0.01371372136433988,-0.02197092974552683,0.004911620399664212,-0.013106043398728165,1.2597688743898685,-0.0105813936677609,-0.1736030056204654,0.04639546516791646,-1.1215860875817205,-0.025003374022699778,0.2609107204858156,2.6328125
-0.22641998837558344,-0.012616076508955413,0.032994381506880666,0.010744591476133684,-0.01297210335556156,-2.0641546425565573e-05,-0.010356580124475056,0.642646513236201,-0.0063588105514802915,0.21823775408935592,0.024937851565337215,-0.8620656000044433,-0.011545083719638654,0.21245946695327805,2.640625
0.04279138313674861,0.008547290987782938,-0.007637914758962671,-0.0009632378701844849,-0.0029679903457815672,0.0020763097437545507,0.001958997794042369,0.1545236424252314,-0.0003110296387244003,-0.2496843110192884,0.004199425958853211,0.08044446091079677,-0.005182147971482089,-0.026792949891701362,2.6484375
0.4351383014250316,0.036764040567446796,-0.06652811583679273,-0.018378616405760818,0.01314887686996247,0.004147252356793409,0.02018497173156963,-0.6659729857930289,0.009196701800537123,-0.8488886441040586,-0.029711472185506505,1.4855903736341418,0.006526750494925868,-0.37996836794526273,2.65625
0.549183951823143,0.04145767556613361,-0.08323952147941116,-0.023903333417778574,0.01989417786478373,0.0034237115752725764,0.02585928711700974,-1.0510383760225142,0.012891195289925425,-0.9109743413209591,-0.04454608813357948,1.9360626105670509,0.013221971561628474,-0.4887204835869439,2.6640625
0.2574350079503998,0.029816035329352224,-0.040586277820241726,-0.00974753600638258,0.0024058488445146565,0.0054535588547578355,0.011296652495822236,-0.049304133508327366,0.003338233062499521,-0.7715304344809628,-0.005991687117108568,0.7799007980738201,-0.00433597524683285,-0.20996019990124826,2.671875
-0.026994717551690764,0.015434773302123853,0.0013784274435723477,0.0036681255869771665,-0.012852316158900205,0.006262002027423178,-0.002570944779765925,0.7998272338654938,-0.00516751666067123,-0.5340119846904806,0.027241984828864963,-0.31128612089917596,-0.018553414067737004,0.05659829880784987,2.6796875
0.013849913173665447,-0.007424636684561602,-0.0016486146674445415,-0.0014840342970806146,0.0040229231431941495,-0.0033702490733780624,0.002114765490228198,-0.3669249506988606,0.002680235261219978,0.24686857541906077,-0.01311351728577939,0.14262342197746386,0.007097768815737314,-0.024803326963451184,2.6875
0.10766806943354897,-0.030742548814549492,-0.012125973710966919,-0.009546464096682755,0.02558425141183597,-0.014339039763842258,0.009721616129534634,-1.8230688276411484,0.012944262035412317,1.0840942439726868,-0.06411737194597669,0.8373029631443452,0.038343695500870995,-0.16132538584316902,2.6953125
-0.06248575047055511,-0.02496963489914113,0.011251554084960145,0.00033700758316420525,0.007983945004834325,-0.008358251727701152,-0.00012865271660528167,-0.7122163168332895,0.004031126555963978,0.7551357376674265,-0.023695413717904158,0.013122181870349713,0.016201745104153748,0.02299804961859623,2.703125
-0.3001554005568632,0.006558075247042306,0.04111356202732815,0.017188615834299575,-0.030419903502447807,0.008935368609881904,-0.01642455384620277,1.8228650225919623,-0.014654986623425105,-0.46821843241909,0.06624291015709562,-1.4181461287902253,-0.036918443874029615,0.3211883928011611,2.7109375
-0.3180720903662621,0.0166012162962387,0.04247568904488374,0.019454576940159854,-0.03783395301551141,0.013159955387769639,-0.018485619300929054,2.3357338286396354,-0.018103063868133054,-0.8098928735231444,0.08398171346796776,-1.6175909026801145,-0.04818640744389697,0.35706752310878354,2.71875
-0.22588068673411799,-0.014159340327936514,0.03313043358210904,0.010514779074020231,-0.01202372034506204,-0.0006173926990692316,-0.010165513974122008,0.5759747703449877,-0.0059289021065397724,0.26920026893688165,0.022667098612821634,-0.8413062850965024,-0.010052402445975854,0.20937524803767488,2.7265625
-0.18036751935327064,-0.04263274829169801,0.030077083805420804,0.004377894992370904,0.008551900071311418,-0.012488529728242806,-0.0046177270204512694,-0.8504348526063354,0.0036178706839000456,1.235261725428272,-0.026595733538723496,-0.29941314445193945,0.02136845388834622,0.1133206457263841,2.734375
-0.05580879014915344,-0.031207597553601165,0.011049956769244114,-0.0008277689862864401,0.012223752664590744,-0.01089667011565733,0.0009073822814511155,-1.0084201163650708,0.005986328168035788,0.9653615742641133,-0.03388935827190599,0.1173049894467135,0.022785742301711254,0.005357645908713672,2.7421875
0.1819601038985187,-0.00427321851571962,-0.02582093180439442,-0.01010157233115962,0.01619690150640369,-0.005894872312281962,0.010890118418211655,-1.0934392309534993,0.009134298654407416,0.282328619547985,-0.04041821280698013,0.8513992546194586,0.02058663303927543,-0.19159509261944813,2.75
0.27277532330437426,-0.001199086889647011,-0.039012890773019185,-0.014582348689239782,0.021953176181026903,-0.006726906919237547,0.015477243879225885,-1.4272844696304627,0.012247999084462871,0.255682680989391,-0.053156949550173846,1.2177812311872855,0.026537501344832386,-0.27920291174643214,2.7578125
0.11946092864561612,-0.011471054878417673,-0.016077328777356372,-0.007687701016110868,0.015205427775025317,-0.007236588771382066,0.008271695686510948,-1.0745404468113702,0.008327519337811267,0.4633702518179294,-0.038789739556156964,0.6598134599681099,0.021213924661617325,-0.13989840103070503,2.765625
-0.028329993055561966,-0.0012742439851169537,0.0035979288287642784,0.0015682557780728338,-0.003124904397654647,-7.440805778644847e-05,-0.0008387334663371174,0.10663609663511947,-0.0007875320544911859,0.009317073243919668,0.003680510703392507,-0.11774437878291515,-0.0028936363515669047,0.029028752839063917,2.7734375
-0.03605621831240595,0.01964628654495524,0.0021751090265802802,0.004701929231379839,-0.016081764483586978,0.008060874182493995,-0.0035120127871765437,1.0219012414293283,-0.006678901444530218,-0.6776433092033264,0.034942438854996996,-0.4016651711256742,-0.023406155173806953,0.07305440556267098,2.78125
-0.060796691653569365,0.012849966121495082,0.006504805874602286,0.00515749746850277,-0.014143281397289341,0.00600745948626358,-0.004119901784838236,0.8634541698733407,-0.005945553586116627,-0.47468767549600976,0.02991361017279378,-0.43069983684611174,-0.019384463629875975,0.08671641541778208,2.7890625
-0.1416308140808405,-0.01105249977026662,0.02082292445980755,0.006398220130962971,-0.0068186202949864945,-0.0013086526028649981,-0.005926447392721622,0.27533199935549174,-0.003101446547761016,0.23782641492838513,0.011133830596459487,-0.5045710735318278,-0.004714419978924591,0.12830469417234247,2.796875
-0.0790232405123413,0.005843399229536788,0.009935080679044375,0.005217073770239721,-0.011552077932254498,0.0037641280908211113,-0.004360703034759833,0.6643367262872307,-0.004881237312822131,-0.2642636886014323,0.0234435178709518,-0.4280576742205583,-0.014610870276778785,0.09342765317226154,2.8046875
0.1617610765286551,0.06933766359344927,-0.031758752059486854,0.0005135193646577308,-0.02885524953758532,0.022647840045116562,0.001837532928591415,2.095640337881213,-0.011317768080806718,-2.138805413357062,0.06850676272488584,-0.11641594831251635,-0.051117509017833754,-0.04345308747823565,2.8125
0.31685704213609167,0.10088186305975504,-0.05749092468965782,-0.003718844092557145,-0.03448692377653833,0.031229944387675644,0.006842911678400701,2.6251904748818635,-0.012975186262514407,-3.039157830489724,0.08415374825040559,0.19568661985253935,-0.06575017021742037,-0.1478032551768679,2.8203125
0.21063104879070982,0.04696527578849009,-0.03599651206608766,-0.004994083619278901,-0.011594187134272472,0.013011021221635083,0.006907891086261688,0.9079839008203076,-0.0032485525650046694,-1.3658827602838512,0.027289428795800357,0.36704074175886203,-0.02511186337067689,-0.13223364566036833,2.828125
0.016484488678770854,-0.03675886119612539,0.0015082220814091939,-0.005422067324143177,0.021512399587645368,-0.014613394039977311,0.005422170035660648,-1.6089790876783607,0.010587518975609453,1.2058578725903883,-0.05544521338592759,0.5039595874910723,0.03509359115369662,-0.07815431438480129,2.8359375
0.00905409804744263,-0.06697186404631252,0.0061682063757555325,-0.00895055567186423,0.03868425229294966,-0.02595836770798987,0.008281025577954286,-2.836932879177768,0.018297182298826212,2.1837370582540787,-0.09712601240600488,0.8318205902369328,0.06293787362414768,-0.12284445376297846,2.84375
0.16922566534837052,-0.04744610086459453,-0.018859966444119792,-0.01502968630798839,0.04055402627356013,-0.022054075191352936,0.014859424410155603,-2.8368810378068456,0.02005543941580609,1.677007530833084,-0.09955990494078622,1.3103539345895154,0.0601492034744943,-0.2532695764513367,2.8515625
0.18118357657975975,-0.03665399429035029,-0.02186104776717892,-0.014269263745992118,0.03520335891615206,-0.01821035325715362,0.01434720349431261,-2.4463975220263667,0.017708439620857604,1.335544556550149,-0.08645871782289533,1.2346637328824719,0.05113382042510308,-0.2469455118531706,2.859375
-0.10963161540698593,-0.043457223614318925,0.020125176436029416,0.00047737347021664244,0.014945783724653683,-0.014374858783074618,-0.0006855062830081559,-1.2468827407049028,0.006907084522514794,1.321168377531221,-0.04119746330328355,0.02443146005699307,0.029112990261145073,0.039290228901788994,2.8671875
-0.4226059328181841,-0.03245263077171216,0.06314309322330809,0.018715910196948342,-0.017656875707519813,-0.0032486236418132614,-0.018849694527415056,0.8128395594948359,-0.009591830470938862,0.7067619151026485,0.03370988567765156,-1.4964929511799288,-0.011961594325535608,0.3791790620582301,2.875
-0.48516861757476765,-0.009061132593761697,0.06922581348027279,0.02510098517823342,-0.03666048322969076,0.007066224364571864,-0.024774421216646584,2.113240153621315,-0.01852557655854295,-0.10874985846349987,0.07896230495458295,-2.0532013075954243,-0.04025671330584756,0.4838711666462882,2.8828125
-0.46859867764080854,-0.01425581925358107,0.0674885820669856,0.023529830278204367,-0.03221639052254242,0.004725383515774925,-0.023314002298981448,1.8108272591738859,-0.01642517385487008,0.07263052655677295,0.06842429747238989,-1.9174529015774076,-0.033728537073071906,0.4578207041365655,2.890625
-0.5072565080631908,-0.03406975013789292,0.07529946531358717,0.02303889955324941,-0.023762754575039017,-0.001980699529701013,-0.023263691600815477,1.1769279384461349,-0.012829267705219114,0.6877305399511099,0.04741775212617984,-1.85260008416662,-0.018733061935080224,0.4629771739102737,2.8984375
-0.22017078808237875,-0.0014299109986541938,0.030761374297715346,0.011860036693900495,-0.019027053057460885,0.004095529940669169,-0.011219429403884547,1.0784639332602566,-0.009056589457457236,-0.14003684962264779,0.03967311003016129,-0.9676643880978834,-0.021480417567022465,0.225270500876039,2.90625
0.5226659007188879,0.0833412647247442,-0.0844846158317752,-0.017040417399665334,-0.006981379537049502,0.01996966055960456,0.019898733570126316,0.8390794873450985,0.0006094575123215667,-2.2967093863343444,0.02020236251549857,1.3184182759590777,-0.028984181296400867,-0.38903745860488986,2.9140625
0.9253404569416103,0.11992350141711952,-0.14583908341738921,-0.03392598551391643,0.00505692381688211,0.025014918308640822,0.037776020325145154,0.3174544436428738,0.008334731607698756,-3.162216547297114,-0.0036834614074253294,2.66940892383305,-0.024219757751504773,-0.7382121016593528,2.921875
0.41748663764642374,0.0531466571305391,-0.06600337849566562,-0.015311765040188444,0.002008605952796786,0.010806592159225534,0.017452147060347138,0.11204659343983703,0.004067858704722561,-1.4011053974038632,-0.002938089589579304,1.211669354464897,-0.010759903512278521,-0.33344100100167773,2.9296875
-0.1764084514364752,-0.030995734585170215,0.028082983518683734,0.0056758368757111,0.002023861972773484,-0.008134084705127987,-0.0056569955766975835,-0.3829247733526037,0.0006953680391675215,0.8584600477970264,-0.01075537101635995,-0.4207076011193083,0.010755135422013779,0.129363710474297,2.9375
0.10382581323004315,-0.03417613648794903,-0.011196632301307423,-0.009783940068196903,0.0272901215598906,-0.015563956108006158,0.009884060201972163,-1.9476031080793634,0.0136955532067322,1.1933190586654212,-0.0683119263968767,0.8613718231503571,0.041230117809180705,-0.16333573708373775,2.9453125
0.6610808506681946,0.007770212010695152,-0.09506694839106708,-0.03427374992116772,0.04908049767728939,-0.01190833655637059,0.03556799734735779,-3.034582924907751,0.026701876378389805,0.2810486883345464,-0.11380980149871861,2.8346764363177797,0.05608221870375252,-0.6617317636977217,2.953125
0.37851259251393604,0.007489486631125948,-0.05504553609709999,-0.01913857958783604,0.02566304368475178,-0.005747001965646656,0.020275720571676887,-1.6033224938135906,0.014522382780044075,0.057284723995474005,-0.060759815789332886,1.58360704907034,0.028658042754399184,-0.37267938685250857,2.9609375
-0.4162771087477572,-0.021021927584087333,0.06084606266337868,0.01984693132526959,-0.023863773132927174,0.0009885743938688597,-0.019741656068436236,1.2598127662039,-0.012356186098062837,0.335934214405725,0.04884539651350002,-1.6045073316848788,-0.022186414288935082,0.3924203395003343,2.96875
-0.6103434755407489,-0.011282150798387614,0.08717170502456124,0.03153384418265038,-0.04579641099106088,0.008998833536897493,-0.03132134824885888,2.6592326448815427,-0.023359951179961886,-0.1399929252885745,0.09945472878637102,-2.5823437267499276,-0.050412545219992305,0.6082796709279789,2.9765625
-0.22122008324216041,0.01814494003217906,0.02860759116929397,0.01445373268090448,-0.030663422761516575,0.011598659913919078,-0.013404663956135477,1.9061812206699322,-0.014314925479434096,-0.7806900089772193,0.06788699248864087,-1.2061616685052858,-0.04017238821699591,0.2605749962367952,2.984375
-0.09675881730709929,0.001253815784090128,0.012999864132002992,0.005579553287908252,-0.010324719182867401,0.0023965399506672294,-0.004827021920815053,0.562253140599166,-0.0044268799713377965,-0.1277236775437151,0.020228634766469814,-0.4520373680719388,-0.011985757654562036,0.10366473775931011,2.9921875
-0.3281055258648261,-0.049369930123730116,0.05176090378890725,0.011439837063775316,0.00019943313244798555,-0.011790916739046241,-0.01189300869374357,-0.37940107273800605,-0.0009932236580345757,1.3346599280261928,-0.008318265532367261,-0.8748065798741053,0.013313748634798353,0.2528734620401289,3.0
-0.36024285453691884,-0.06832711796394443,0.05857275811718219,0.010708413376458599,0.008685816442454322,-0.018311724963399164,-0.01158448668014906,-1.0100753643138043,0.002654903795883869,1.9275972225466642,-0.02930923809785958,-0.7911909699482181,0.028128334556440246,0.2529772875284856,3.0078125
-0.13703537854925482,-0.0472672140359952,0.02449358117210962,0.0014502580094872466,0.014897016424428885,-0.015218541507672675,-0.001762992717940448,-1.2661043082637866,0.006729015925414939,1.423171655194179,-0.041419772775825016,-0.05166819675120668,0.030023804613049702,0.060893947412677195,3.015625
0.014582901732977676,-0.022435250083769235,7.790822115270813e-05,-0.00347735669852229,0.012916211652363037,-0.00909735731756305,0.0037699653800468812,-0.998829711568309,0.006697882381631866,0.7356671821665843,-0.034614522680869605,0.32510953618637395,0.021330989420420304,-0.051409468135277754,3.0234375
0.125845980294159,0.0031975216300752607,-0.01875721994612144,-0.00613092960464899,0.007108287239983805,-0.0017863419059450803,0.007036829272767046,-0.4932009955646839,0.004710247523064842,-0.010270451007451829,-0.019094514015901204,0.5133040217925625,0.007971728225478222,-0.1211854375819515,3.03125
0.34068520509786854,0.04061369053940983,-0.053655783891833536,-0.012811077467285506,0.0030041522209936352,0.007712094631503777,0.014649431870120353,-0.022803329675206412,0.004081451846834028,-1.0534737743670686,-0.006371940276620036,1.0205714306464855,-0.006366301586956068,-0.276671632468435,3.0390625
0.4418135518643525,0.061417614221534106,-0.07043969797174983,-0.0155362304520667,-0.0008139932369844676,0.0133970954564915,0.017883970999458,0.33300109143007856,0.002933367952320713,-1.6474676183230812,0.004187944355201374,1.2210123805832311,-0.01614239032263763,-0.34418401629691714,3.046875
0.255395315494123,0.040240759818801194,-0.04149711895385299,-0.008270648246408207,-0.003906181652235376,0.009458467371358975,0.01005690084473267,0.3983067207855328,0.0004749925060403012,-1.1098430295016788,0.009264126173047466,0.6459194589424228,-0.014389537175338994,-0.18964776034113767,3.0546875
0.0411346299866756,0.01282343639900957,-0.0078965453952707,-0.0003278467804591227,-0.0056408525477795336,0.0037648885476937676,0.0013983888662741399,0.34371032960359793,-0.0015283324775321747,-0.3931858972099732,0.010691139359244374,0.022057999799324064,-0.009456885255974191,-0.017542781802346842,3.0625
0.03359388837617309,0.022146798123266722,-0.007972801778198027,0.0012796064326968469,-0.011755980823043617,0.007490802742665266,-1.3297245432782938e-05,0.7723853407681518,-0.004330218790581968,-0.7044103275726145,0.025403390574634484,-0.12233683594374899,-0.019006857265325427,0.006183618731664358,3.0703125
0.05662571222146097,0.04031310801896127,-0.013423055219594918,0.002402705514656244,-0.020525495977640033,0.013895456672669422,-0.0007219501902700228,1.415325648915739,-0.008156400073538449,-1.276806366745333,0.04692599184438284,-0.23686730722724772,-0.033904108190202946,0.01393313038617578,3.078125
-0.08070930144758477,0.015691296770832242,0.008970421310430111,0.006595084788518702,-0.017482163273221198,0.0075375828362830065,-0.005509110502372536,1.0846198386068027,-0.007565867328726602,-0.584696302037182,0.03774725990684634,-0.5531458729672127,-0.024037428050150186,0.11209479298156522,3.0859375
-0.21302617623537215,-0.030030214651413974,0.03318624904372935,0.007773951310193391,-0.001600380588255037,-0.0069613349763212925,-0.007748957042721917,-0.15526163005399551,-0.0011521615394599484,0.7980594807559106,-0.002443858516522609,-0.5951959397515958,0.006249048449399624,0.16865464676702713,3.09375
-0.12148511944174135,-0.032866458149990355,0.020568635068029847,0.0024803426403462296,0.007704097990032793,-0.01005714535925309,-0.002482262053871209,-0.7410695356807966,0.00357003272704605,0.9641192607754471,-0.02376849835014781,-0.15465239241031686,0.017870110419396082,0.0699813221410018,3.1015625
0.08389635426275109,0.0022124773935269706,-0.012718348225824242,-0.004009530467128488,0.00418468401139645,-0.001225202823125528,0.004866094886754501,-0.31993696126431787,0.0031534003606809966,-0.012744558662380882,-0.012555910206930369,0.3389565999873065,0.004789406126107347,-0.0798327249479934,3.109375
