AF3,AF4,F3,F4,F7,F8,FC5,FC6,O1,O2,P7,P8,T7,T8,time
0.09538883565910303,0.05236996266393559,-0.020327727797999653,0.0018802269142078084,-0.024399990357160683,0.017643370782714943,6.788308207406147e-05,1.72358959965737,-0.009682466026533066,-1.6390867892251557,0.05684791257038281,-0.20860563151145076,-0.04155777720096805,-0.004716160072873027,0.0
-0.22154857351187882,-0.004405929147222125,0.03132066725969524,0.01154550110946225,-0.01740420595294522,0.0030111857665867346,-0.01098147440741876,0.9626448867194722,-0.008333549349051367,-0.04570546311195801,0.03575697239952923,-0.9385588918640698,-0.018849103774710153,0.22185332892763,0.0078125
-0.5050311516479068,-0.037116784123110806,0.07536652400283146,0.022537695413549677,-0.02178982395172079,-0.003196774999111336,-0.022815276883692958,1.038686656794597,-0.011929817976595763,0.7905610840563994,0.042657513587036594,-1.8070670444812538,-0.01562762233593103,0.45563560184744706,0.015625
-0.14477161446144868,-0.007990263174273916,0.020900134371237056,0.006971349856638806,-0.008886858094056281,-7.74276161188402e-05,-0.006425686191212277,0.41963123111397477,-0.004055051446684621,0.13562561023171502,0.016085813913037875,-0.5553429584218752,-0.007912677520880077,0.13675167856262094,0.0234375
0.44646269002988265,0.026029220902537557,-0.06686008038996062,-0.02037524389898822,0.02040572548661227,-0.0001904469652009668,0.021956952281857265,-1.1730535791240086,0.012534095069470222,-0.4913179102587517,-0.04714971245354886,1.6637041448873124,0.01776471274479061,-0.41023378042411823,0.03125
0.54570794866299,0.019482985229452618,-0.08014563674178686,-0.026564910653237656,0.03254362289412773,-0.004869007849534815,0.028043926499258996,-1.9537791041755495,0.018580313438703647,-0.19779591409694652,-0.07523813539596338,2.1827737290795755,0.033663817322869424,-0.5231680151512005,0.0390625
0.24094058496544973,-0.0021532619336898247,-0.0344307846813781,-0.013006547064614245,0.019861568880853293,-0.006368691431826062,0.013855564741251799,-1.3046649361589981,0.011123283880743488,0.25882738183019677,-0.04849167142936564,1.0880911102211002,0.024310743164864618,-0.24825248973271774,0.046875
0.030410332120021366,-0.00923521807500409,-0.003772673292153633,-0.002611895812782855,0.006469698653980964,-0.004422006911959424,0.0032068413304144417,-0.5271917828201339,0.003880142574360058,0.3189801108367903,-0.01881689028016171,0.23785698950936585,0.010422707254290476,-0.044866619998922413,0.0546875
-0.03734831618221305,-0.013058291649324491,0.006286124726154025,0.0005357680272294133,0.0030703978093529595,-0.004389823283088376,-5.1698469904136156e-05,-0.34204646696883906,0.0019587571063727624,0.3888823468594707,-0.011480189123496264,-0.017290279409255538,0.007416302798278531,0.017773224262879736,0.0625
-0.1344104923439562,-0.02387904304966158,0.0213077355278429,0.004339559983317547,0.0013458492253535569,-0.006358100422344329,-0.004144898641146821,-0.3000229568298697,0.0006280921555844761,0.6614564662528036,-0.008561467045267904,-0.3187821870925076,0.00814637467257213,0.09846475014173085,0.0703125
-0.17625223669372408,-0.02760263251349206,0.027661249123976432,0.0060962114816265345,4.359930613691987e-05,-0.0068351426803356955,-0.006013317904611778,-0.24183924924797032,-0.00019637734904701028,0.7473314850719175,-0.005935981630804807,-0.460009607128641,0.007560058440424779,0.1350682069240808,0.078125
-0.08175547321252796,-0.016982258540669298,0.01302338786952011,0.0023998364757991564,0.0016667174976663435,-0.004873714600890452,-0.002039911812719294,-0.2785071071473701,0.0010734838513145391,0.4779988461302228,-0.008625733342832613,-0.16753219549903586,0.006747024118465353,0.05677874766428701,0.0859375
0.024481761221416626,0.0007289643978053874,-0.004112164314441594,-0.0010010839763460629,0.00010049582204897976,-0.0004847863611244378,0.0018055595817009806,-0.07868040279956005,0.0009686099064821559,-0.0115693443249518,-0.0034469113905457173,0.09249668460264797,0.0003819927399590733,-0.02149418784913783,0.09375
0.08979744568329878,0.020085792310408513,-0.01566341014731307,-0.001993429905144568,-0.005841078930085153,0.005434261164392929,0.003257438482409243,0.39832510502498775,-0.0013421384547126105,-0.5877312618134656,0.011790988004464886,0.1515622263766282,-0.011525047927925147,-0.05507679092679958,0.1015625
0.14935895514450484,0.030682383997127867,-0.02536276105092384,-0.0038178478364605927,-0.007107819772406619,0.008152116952749115,0.005345061896980243,0.5378869263622288,-0.001573402902202666,-0.8840345384763317,0.015630519002356798,0.28956986575496046,-0.015698884902269547,-0.09775166617013288,0.109375
0.12404197341814646,0.0217871335715563,-0.0207137941984388,-0.0036143628134843067,-0.003988959989200748,0.005331776383291823,0.004933537466024903,0.29485536084032415,-0.000309869745069955,-0.6162141431727166,0.007749918693831779,0.2830304864373576,-0.00976713779257675,-0.08704541450578161,0.1171875
0.005608266159159151,0.01000477710647162,-0.0025372831117914914,0.0012144687472171209,-0.006941233478015558,0.003473811492278579,-0.00021888165546135463,0.4064695725012985,-0.0023178171969123022,-0.3309129830900218,0.013370830091935413,-0.1022864810662422,-0.010246314267129032,0.013980250920155436,0.125
-0.026273644238833996,0.018684262847754655,0.0009346798219341474,0.004050832459582511,-0.01471238180980772,0.007487607480445699,-0.002888493024438245,0.9329863351501994,-0.0060050900424166295,-0.6397899949335114,0.03178306661047812,-0.3469805959948565,-0.021590586862243112,0.06158403734969767,0.1328125
0.029956317430620348,0.029133149125869253,-0.00828171102284128,0.0023907476412936206,-0.016167193828116034,0.010214305062009986,-0.000967445711312615,1.0832779544041522,-0.006338106781052581,-0.9321406322112347,0.03602121762208647,-0.2216494506869528,-0.02594149159881027,0.021994829384593986,0.140625
-0.06346771906626959,0.006619133194480608,0.00762873430579944,0.0044953209733767695,-0.01070151375365062,0.0036934372744116934,-0.0035980525335951898,0.6166231811419015,-0.004403723029393763,-0.2732072629272206,0.021542035409786008,-0.36806509599514997,-0.013760747901290287,0.07881407600358156,0.1484375
-0.3131273246176258,-0.03737526575752518,0.04822380814841444,0.012197061093569309,-0.005628409097559307,-0.00754348735147448,-0.012382074729700826,0.04797328772163923,-0.003540006572948466,0.9554604656302053,0.006000842807231943,-0.9520233064806731,0.0034054783828375654,0.25852949917546164,0.15625
-0.46585296637200363,-0.06480287635669654,0.07311217185593925,0.016832111421033004,-0.00222108071461196,-0.014607101809949778,-0.01770127964207228,-0.32154844204530547,-0.002873442373213539,1.7225397838756165,-0.004227034761980798,-1.3026903076088698,0.014377069950667414,0.36747345828412187,0.1640625
-0.43673437194683634,-0.0649549931355713,0.0689958865952474,0.015240796465998642,0.00030278318512511613,-0.015306624919216024,-0.016104408515757486,-0.47701218206716745,-0.0015655370695447182,1.750920308158078,-0.009958559942365287,-1.1710149464044426,0.017378635601361533,0.3372708723603391,0.171875
-0.28229467722320584,-0.045434683466673585,0.04479965382825366,0.00948248346836507,0.0016970907095537472,-0.011289481738553108,-0.009835902677203552,-0.4477939877236243,-5.465566589323986e-05,1.2422178503103574,-0.01133603829405983,-0.7181188360953925,0.014055565731161897,0.21282240591948184,0.1796875
0.022931211426271664,-0.015633630193121525,-0.0019466801376000027,-0.0030337407917092316,0.009613072173779701,-0.006697054347046444,0.00349515566252981,-0.7570692266491243,0.005254926168158299,0.5222332778874561,-0.026540513603603655,0.2809477621866733,0.01575353377602463,-0.048262412594223605,0.1875
0.3726573566199228,0.0008312314995332625,-0.05338982775839607,-0.019676438277750414,0.029097701557548237,-0.008176660076734704,0.0206773986782647,-1.8525561055693567,0.016039966659107396,0.2730856407630559,-0.06917675679979023,1.6369301108201397,0.03441649718375241,-0.3781288186620548,0.1953125
0.5179085303657076,0.001538542671314236,-0.07402856193531251,-0.027394196007467154,0.04080535984424347,-0.011125814043359357,0.02847631833961105,-2.5649530797509943,0.022153206561741644,0.3685294919076564,-0.09563232054412159,2.273745654736039,0.047967229366115416,-0.5258724720009609,0.203125
0.5434422834205218,0.04088839587956123,-0.08236860435612492,-0.023674806150162493,0.019758881581010815,0.0033312406936067862,0.025610219996304112,-1.0462496355406108,0.012799633741663069,-0.8967695473188523,-0.04429160967273827,1.917837698532313,0.013207229710388634,-0.4839661313809705,0.2109375
0.7317450277038398,0.13822059583908872,-0.12067701001384769,-0.021166732329354208,-0.02186664671793756,0.0362987065579207,0.025303345443288366,2.072501669779028,-0.004919745262121696,-3.9198600660018323,0.059029985282881565,1.5919253711946044,-0.06050636031753642,-0.50825285832986,0.21875
0.8338972220238927,0.18880931338374873,-0.14117705787426704,-0.020080604402810256,-0.043147214669162146,0.05332855231948297,0.025374156866759787,3.672038702712605,-0.013946896460691348,-5.485796264913005,0.11191750161356669,1.4410787073584617,-0.09839417994198597,-0.5251487785393906,0.2265625
0.33476505992184097,0.09200595070994055,-0.05893694703062998,-0.005817644181797096,-0.027772160453189643,0.02744752390882341,0.008769285308168829,2.162761343671972,-0.009847995817980681,-2.734310547845083,0.06812510704386504,0.38027387222593234,-0.05561837398624093,-0.1813229659223118,0.234375
-0.5129129224134686,-0.07455663272440721,0.08095951946186714,0.018103478233742868,-0.0003848158486060969,-0.017311510021632795,-0.01919510835629306,-0.4915153643662016,-0.0023082643496473627,2.0058984947459164,-0.009317132995377904,-1.3947707670175808,0.01905836824048955,0.39868437054504924,0.2421875
-0.8937990327552904,-0.1463399685466834,0.14343494297544523,0.029238939389128995,0.010117416223872435,-0.03624440293310268,-0.032091591281858185,-1.5557221377302564,0.00026610373241082476,4.0344497606929455,-0.03973027892422685,-2.228603856057794,0.049702695384471335,0.6645887911283498,0.25
-0.6978822977210993,-0.10224306595835496,0.1104209250657255,0.024433698801418404,0.00048203573094034684,-0.02375371510621486,-0.02623627534802278,-0.7067324514001188,-0.0029688234978271183,2.755392490786988,-0.013813296224186743,-1.8852366933658256,0.02712581741176546,0.54035007200106,0.2578125
-0.575980467767808,-0.0621050930969567,0.08837749477821175,0.0231019243191381,-0.012996974812839098,-0.011145401473072357,-0.02396564870971074,0.3540334013084102,-0.008361095188103875,1.5465835928442861,0.020430783442981708,-1.823574662740216,0.001064003224428467,0.4851384203748676,0.265625
-0.6744913926661021,-0.0725740647278247,0.10359067378435033,0.02704247900253922,-0.015048938172331246,-0.012966876534204565,-0.028174652657556906,0.4177326981164209,-0.009848098226780731,1.8087924406171885,0.024097380697891753,-2.136122925703977,0.001341575789554005,0.5679161541910869,0.2734375
-0.4010951168423,-0.04906242395717087,0.06209204069945161,0.015404638173191905,-0.006077569055608728,-0.010064152336742654,-0.01588852904448218,0.006284618179452188,-0.004240003658501129,1.2659588811383442,0.0059306530085582515,-1.202540620719841,0.005868808316150524,0.328265502285637,0.28125
0.3226512634093427,0.03847009501147322,-0.0508164556710728,-0.012122037649000524,0.002757342386283057,0.00729212261714664,0.013896628861414592,-0.020265809106192977,0.0038696127529101194,-0.9979329904324349,-0.005998019773705989,0.9663333975331481,-0.006124762004220441,-0.2618669776368598,0.2890625
0.651957828388867,0.07336486439574542,-0.10161050962451226,-0.025286057722726536,0.009676044966510701,0.013319418824888211,0.02798033260031371,-0.23812206011348475,0.008866039777469817,-1.867893644224211,-0.01843798613459355,2.0117323776682374,-0.0069270467628638616,-0.5387292602092946,0.296875
0.1874891688720905,-0.011013446671428381,-0.025795110806931396,-0.011281213012025148,0.02061441842884852,-0.008564101237290666,0.011913479736953558,-1.402566556277784,0.011156284343073452,0.5040491516064772,-0.05101214587108334,0.9562345879509238,0.02745596872223404,-0.20875159431285745,0.3046875
-0.17890845411821915,-0.06817758451566606,0.032894807636872046,0.0009877398022798158,0.023713366062077204,-0.022255380025428224,-0.0017733843437697182,-1.928195012608207,0.010467287980021363,2.069497453472167,-0.06332779911249098,0.011543552556276607,0.04570258001489994,0.06763636497243725,0.3125
0.38471031910204406,0.049615622119848414,-0.060951617545650476,-0.014003040117562792,0.0013655262931187516,0.010171809976993481,0.016062459976098137,0.13035789042510185,0.0035887564594806417,-1.3110448969179513,-0.0018286669264969402,1.1080768870691082,-0.010588864535046072,-0.30610884577941744,0.3203125
1.160465404747464,0.20512584629665148,-0.18933173745118081,-0.03549940807787013,-0.02550088251428769,0.052295158182403594,0.04132232333936275,2.6873582046111917,-0.004121044066665615,-5.749067514749951,0.07341031491628662,2.696399589072681,-0.08182883078115537,-0.8317842487054207,0.328125
0.8636682393787485,0.1503702177442993,-0.14078173962825422,-0.026665729701400215,-0.018015645796616464,0.03799728330960049,0.03114371700148206,1.908318679074722,-0.0024319217776826315,-4.2063027197974545,0.05141183136607248,2.0323683985713177,-0.05907861024989458,-0.6223728781232865,0.3359375
-0.30378039308347643,-0.06226809931128011,0.049867939161879045,0.008452696346023924,0.009821000267055593,-0.017233910122147048,-0.00918327610410187,-1.0432076157797976,0.0034872361414324472,1.7746374855068212,-0.031284602667470525,-0.612783673310126,0.027875440206095715,0.20575360901324477,0.34375
-0.9138379076355505,-0.14771699855451279,0.14643498775479766,0.0301362210437181,0.009255051179725346,-0.036319831945164964,-0.03302884735242495,-1.5106518233376314,-0.00023891462364205568,4.063428279259669,-0.03789786777261834,-2.3012337949846278,0.049040027207131846,0.6828327820477235,0.3515625
-0.5015357933618984,-0.04995454009054349,0.07640518353987438,0.020676532851089717,-0.013922993896431502,-0.008179287117318136,-0.0212359296236292,0.48108335321678736,-0.008351353999094544,1.2122858859532377,0.02363361955226855,-1.637413997591766,-0.0031080591932285593,0.429555813943373,0.359375
-0.05863984186548244,0.011024606285807825,0.006426119166305294,0.004800567037917753,-0.012891359513480914,0.0052722344693809774,-0.003811134430861438,0.7761173989367411,-0.005364681936319094,-0.4148845028161043,0.026924539074912667,-0.399019498944278,-0.017471214733176494,0.08138671832279515,0.3671875
-0.19842330713845796,-0.041845864932006094,0.03251416440257018,0.005448637150422181,0.006578009987312937,-0.011779456169743732,-0.005680899039420825,-0.7249668434150884,0.002625312448908323,1.1943577259929727,-0.022056799021688306,-0.3888944398966586,0.018856165662397683,0.13324099189008023,0.375
-0.3076208221313354,-0.05436462283348146,0.0494623112618169,0.009687809352286459,0.00483697263994891,-0.014130491159407675,-0.010252115896232605,-0.6916582301442007,0.0012169689100879782,1.5130327909299082,-0.01925622106171182,-0.7243948654823444,0.01999721291556583,0.22352178716567223,0.3828125
0.042251399885268534,0.007846237326054663,-0.007480705020930948,-0.0010313010639219759,-0.002611159756493461,0.001834573022222372,0.001997769993678427,0.12893722469150357,-0.0001525748333609371,-0.2291185482995348,0.0033500959333207353,0.0865085933783598,-0.004617806203946836,-0.02738491181560421,0.390625
0.2497503014398508,0.00682616282551229,-0.03671885382535118,-0.012301774292099442,0.015306719167674841,-0.0031622304440739207,0.013364024473294019,-0.9738396295955047,0.009115443750151015,-0.024954204540282913,-0.037368584089048175,1.019818550707992,0.016689408352629352,-0.24190536486857647,0.3984375
-0.0805656691929608,-0.04351603347751126,0.016047222077569395,-0.0010886844637512324,0.01740190497272837,-0.015047122917742165,0.000896324913813629,-1.3975136093711173,0.008178752774188659,1.3471478019588945,-0.04676363408526229,0.15392056009421332,0.032012066317562676,0.00943505008180946,0.40625
-0.26843473847698585,0.021564217336811034,0.034857288537025286,0.017436125721991165,-0.03660355812564034,0.013937534717727426,-0.016325022204124125,2.289367176298631,-0.01726659225471747,-0.9299523663176757,0.08164186683385344,-1.4568000058016184,-0.04798473898248312,0.3147702399265686,0.4140625
0.23869823232623427,0.1670375759042859,-0.0543063918837206,0.009058447344693767,-0.0799768420084655,0.05818924820713436,-0.004550177406426773,5.797393216461528,-0.03395381002434046,-5.260921239451646,0.19336776022409385,-0.9410786329985545,-0.13603711640556163,0.04703543554762056,0.421875
0.7704081304661231,0.16564566714194107,-0.12940472378173135,-0.01968086297456797,-0.0348000112627039,0.0458894639847669,0.024431114253506615,3.0248010457224113,-0.010534762027408547,-4.781319863112863,0.0908599962791847,1.4362714266330632,-0.08267525359192077,-0.500310165383476,0.4296875
0.5090040040736257,-0.013114185940054,-0.07105581678540077,-0.02881947930162684,0.048673599823948144,-0.016487178845330977,0.029577010498146202,-3.1322573388880137,0.02565127648593346,0.8351854850899675,-0.11480870872500669,2.4087248335614726,0.0609229082306132,-0.5420205400810844,0.4375
-0.12441963520374538,-0.144226507132387,0.034268067123674105,-0.011796130686690658,0.07305005685389117,-0.052464292315370774,0.00940059851394492,-5.3935111948643435,0.03304632276942294,4.594541649692661,-0.18215983029476168,1.1609263883237353,0.12301697010918788,-0.1199252172264834,0.4453125
-0.23383461082419188,-0.10958624865527951,0.045633247536900894,-0.0014255324342426475,0.043525857336960835,-0.03684448141313996,-0.000277000897877613,-3.383799711226471,0.019100148833316306,3.3769658589587164,-0.11206380569205664,0.26202202313592765,0.07953760940789155,0.05215618189803122,0.453125
-0.001388538603290648,-0.039729143007476,0.004395252402467589,-0.004858177657130451,0.02178224054466739,-0.015356006787280442,0.004776729715979746,-1.6434504965531371,0.010612131593362864,1.288603144418808,-0.05633283776302945,0.4609452431978326,0.03617575160156468,-0.065216884807003,0.4609375
-0.25246211114722505,-0.05141550952655951,0.04131602922733883,0.0070989495181286175,0.007719005400518104,-0.014237654440019402,-0.007572963674537558,-0.851464872179282,0.0028334513585139137,1.4618730392164974,-0.025517893410150698,-0.5139585424682777,0.022630369628121965,0.17172995751139067,0.46875
-0.8536617482115797,-0.07859936787530093,0.12964408863217308,0.03585997630587853,-0.026434741662035553,-0.011275973379233117,-0.037232305214953534,1.0790739647495255,-0.016008827690336097,1.8549835496463036,0.04938183928761766,-2.8589016880256097,-0.010517918898518193,0.7408082894103715,0.4765625
-0.8862215049091756,-0.03309283817188535,0.12882444879281416,0.04352123931400946,-0.05595922262377138,0.006791504218136113,-0.04391619636794758,3.152959756729222,-0.029521594857449502,0.34583449776755776,0.12047140877147595,-3.546949492806942,-0.056764200084064693,0.8531291901628056,0.484375
-0.22373327430518822,0.04587832301974289,0.02564093324419757,0.018193789021551488,-0.04719975531786307,0.022216420996766656,-0.016531001700453508,3.0804851459743627,-0.021794344669776387,-1.6851022112993728,0.10788753442286336,-1.5483227691059245,-0.06662753981160877,0.31104330585576023,0.4921875
0.3682158836285684,0.08532528446769316,-0.06285583631757223,-0.008484165052834667,-0.021043048564422455,0.024144742296030655,0.011301603178278332,1.7113990690107312,-0.00661577007533814,-2.48727697633134,0.05225391082812251,0.6091471380050826,-0.046006890655304715,-0.22730722714846613,0.5
0.5953116014718501,0.0993778667086997,-0.09670310314879409,-0.018868030554213336,-0.01037135390882099,0.024486664298692055,0.02209735863652297,1.1409760653209995,-0.0005049439780481969,-2.7618923475454373,0.029382492438669902,1.4497989580609436,-0.03708417859088258,-0.4356827599382743,0.5078125
0.8139265289437737,0.12522573503966608,-0.1307576933497074,-0.02725787810131339,-0.0073583738072770495,0.02951341184743248,0.03115939798983699,1.1086788538778227,0.002098773306383489,-3.4271939511767866,0.024943804397816457,2.111603326638073,-0.04014911070981585,-0.6148111890266641,0.515625
0.9527793547221373,0.12074615740307754,-0.14987204821023511,-0.035285714311310425,0.006861619899023981,0.024727083946536815,0.03917348583129974,0.21242644387451742,0.009305594521547889,-3.166635824411515,-0.007707342161665202,2.7810103404265165,-0.022308559557487968,-0.7647556785722057,0.5234375
0.5510253289514391,0.03146132957278486,-0.08231562192638624,-0.025281814917588318,0.025931959827800062,-0.00043631422901595836,0.027038899360782326,-1.4790671568699996,0.015626012157080156,-0.5820040802643143,-0.059177192626274536,2.062853635092824,0.022876894378309386,-0.5077726691210572,0.53125
-0.1755297921930617,-0.08658223224720421,0.03464101578735957,-0.0015783311801829427,0.03484667194961575,-0.029369132248282897,0.00040060956067983515,-2.7182839275660426,0.01551690223366541,2.673859669270234,-0.09027401932534039,0.24656902045070667,0.0634817425349821,0.03212189792478637,0.5390625
-0.49853806088604596,-0.12335932190063548,0.08474445748690862,0.010986419445170578,0.029560266338600823,-0.03623346117328602,-0.013139565448964307,-2.610884614180546,0.011293987389876792,3.6080188968970286,-0.08167494206887778,-0.7479951027621218,0.06665894687158792,0.2993222980567388,0.546875
-0.36280108424204205,-0.07671649836027819,0.05994001946608378,0.009743546048373223,0.013403243545829736,-0.0214342746642613,-0.010822412736069199,-1.3476888890629466,0.0047699425937934034,2.1960701868533015,-0.04073763613910185,-0.7021915992385537,0.03576578509756233,0.24110268162061033,0.5546875
-0.31508719622909287,-0.04132392080822684,0.04895832418017088,0.011782527388771884,-0.0034739611068628513,-0.008984204884429983,-0.01206356005277664,-0.10637960612676438,-0.002582563950328346,1.0801858803777529,0.0007823573322546198,-0.9134114630180853,0.006906168529031435,0.2536825465966734,0.5625
-0.4102562469667422,-0.04552383265520686,0.0629559616230246,0.016361046293636643,-0.008940291343987562,-0.008490267755871358,-0.016771901104867315,0.20344648221036463,-0.005592402645694657,1.1410747368291596,0.012770197304083427,-1.2861032624182716,0.0015732708276433246,0.3439880059241985,0.5703125
-0.26369784729638224,-0.027971469704371105,0.040136758131467776,0.010766720012155576,-0.007038093902101144,-0.005062430736460424,-0.010720225961838137,0.18948583644181574,-0.0038944826964871448,0.6908134855936412,0.010063235249951332,-0.844505388720149,-0.000653248084963042,0.22408658363550626,0.578125
-0.00812355087782546,0.01751809434544428,-0.001481691889751369,0.002930030453187661,-0.012498242031840471,0.006622801450162256,-0.0017747335550545972,0.7903541347208649,-0.004900606712419912,-0.5838398345596311,0.0266370655478652,-0.25217050904389754,-0.018669891012421235,0.0408478245626755,0.5859375
-0.09359907771156907,0.017966250124145988,0.010531373222551396,0.007568673865332322,-0.01989647579759693,0.008702934951975631,-0.00645622874060617,1.2459590560423397,-0.008727664532922907,-0.6705276337221757,0.04345988901611491,-0.6369095608895601,-0.027477830927402202,0.12923773214196171,0.59375
-0.34095904043049585,-0.033572508617151615,0.05168032640527742,0.014167917784008876,-0.010184241330184644,-0.005464008467070385,-0.014299582231851255,0.34927578550618477,-0.0057532030627035794,0.8070772649235912,0.016697495667780764,-1.120333683587042,-0.0029222451162856404,0.2935660800906314,0.6015625
-0.2360996980386488,-0.0455675222750885,0.038280400787133115,0.006985771116403251,0.005633400122911743,-0.012371575137321462,-0.007316905309738362,-0.6893983168715573,0.001985352728995016,1.2853630747289424,-0.02027078185067781,-0.5118279617965018,0.018720200720860312,0.16534731814739206,0.609375
0.118835323933385,0.024227153426880838,-0.020275289592883168,-0.0030206694421343124,-0.005852254449328019,0.0063695709440349515,0.004388906176127381,0.42267980355365703,-0.0011765020240912338,-0.6994307019106369,0.012185292792688249,0.23114818003521745,-0.012565712798388785,-0.07760764694601803,0.6171875
0.32620073586449416,0.1059097182559789,-0.0593806524481153,-0.003564657991877157,-0.03666048775737241,0.032928534855400204,0.0068072580005415365,2.7874115550667606,-0.0139035000550132,-3.1943944242549978,0.08954420089527848,0.1770926695314597,-0.0695823362320495,-0.1487078783267567,0.625
0.49126565197749894,0.12755584254069424,-0.0853461959873331,-0.00962561901080658,-0.035647396338609964,0.03754126706369279,0.013416554064258731,2.8529247927205317,-0.012508821940895174,-3.7663433696010005,0.08925675572280019,0.6514909634631275,-0.073934715639072,-0.28029502344408735,0.6328125
0.7088540899170923,0.0860560387511206,-0.1111945836969844,-0.02669539604449728,0.0069427980021159325,0.016902931482022657,0.02969637306729493,0.0034229635285490064,0.00795430152500622,-2.234850835263251,-0.011085292090830475,2.1126383564311886,-0.013365495496308971,-0.5750486614520058,0.640625
0.5102065511203796,0.008501182445442622,-0.07379282918246953,-0.026081489470181216,0.03605020731220236,-0.008281186876895507,0.027303879292084266,-2.2330576496177836,0.01996268218269342,0.1325778872144847,-0.08420422130893596,2.156255248199858,0.040591077821884446,-0.5058230301064025,0.6484375
-0.1370520972123934,-0.061928380886488485,0.026261084616960893,-0.00044474935663732897,0.0235311810677942,-0.02081481375076132,-0.00018290163093745033,-1.8804762090348381,0.0106252591907784,1.9002430749465222,-0.0623335303918931,0.12305198250642341,0.04387781313409938,0.03543163599450227,0.65625
-0.3239001966274805,-0.06709985110895862,0.05331907115348093,0.008926481063872385,0.010980537575802012,-0.018645642649124477,-0.009756516433412358,-1.1425593996136334,0.003894062374577532,1.9158533297757625,-0.034373634992869606,-0.6450762407352533,0.030471247237174225,0.21803158611246254,0.6640625
0.20214509496831887,-0.014723354363392394,-0.02743056136954684,-0.01253716480101717,0.02401343596894294,-0.010307596460335805,0.013107388516892634,-1.6323584976660228,0.012772954937592193,0.6376936903513155,-0.05908018621228977,1.0652979370590803,0.032400351556779616,-0.2301910474500672,0.671875
0.28508338454450405,-0.0034172971251253998,-0.04053717257908082,-0.015537858249871276,0.02427776729869838,-0.00782429499011375,0.0163836142315265,-1.5823412582876408,0.013367950293500398,0.3364892159486654,-0.05862902753402988,1.2991278511574946,0.029822498525417324,-0.29564080234715145,0.6796875
-0.5820228607725487,-0.07084144381693892,0.09027167609578353,0.02228194579268627,-0.008345741265962372,-0.014339980988700811,-0.023347206362799994,0.01782859229746166,-0.006294094092427055,1.8261150019341308,0.009093124312328919,-1.7454300503227786,0.008740243991202998,0.47597729747333095,0.6875
-1.0898057311829128,-0.1069397157973723,0.16648312252166506,0.04488111805842967,-0.029447556958178366,-0.01687348344990872,-0.046979287924462355,1.0971546084175812,-0.018713566585895725,2.588739946369877,0.05357968323330151,-3.5693607409578547,-0.0068063134367616004,0.933762776932576,0.6953125
-0.307360253630223,-0.025257913190927853,0.045974744526541676,0.013463039210424481,-0.012279407979990647,-0.003059009891315082,-0.013376897210863041,0.5261849878175899,-0.006511122228157618,0.5658621838542189,0.02218900933619601,-1.0710620385778022,-0.007489200181036534,0.2735507340408893,0.703125
0.6876727093043041,0.08542909591112395,-0.10810143573005922,-0.02562443977632868,0.005547397494553496,0.01711562793018693,0.028618736479580235,0.08487809327118116,0.007203549384839351,-2.229844985059957,-0.008008707328121322,2.025574600171551,-0.014809594260044218,-0.5543633153289633,0.7109375
0.6667837211627788,0.09806063625220454,-0.10665605845601449,-0.02287759542127397,-0.00362672696510305,0.02239879141455636,0.026121668539628745,0.7200882952065536,0.0029466156879704446,-2.6599765607504855,0.013962837407732725,1.7827428508185728,-0.0288148190029779,-0.5112402274112544,0.71875
-0.0006133657344463907,0.025626163669573564,-0.0035361133992070147,0.0035625766912028524,-0.0166434289740931,0.009563407673689265,-0.0022403888440821447,1.0914055509894784,-0.006729232685914484,-0.8452443009919413,0.036801755183966854,-0.3154363914453389,-0.025623987481372748,0.04710415229328618,0.7265625
-0.49080310477515304,-0.041031360715915795,0.07380247461144394,0.02124501962713783,-0.01828727782279259,-0.004993688922011001,-0.021617130954413817,0.8008926330777523,-0.010263557558500948,0.9271350576586653,0.03437882979279047,-1.6964204794064497,-0.010534219344137912,0.43408087452194904,0.734375
-0.6995196052661918,-0.06255051392876561,0.10591105278995576,0.02967068298658753,-0.023030772755375604,-0.008582211820122487,-0.030608781354794855,0.9648060611196838,-0.013591904660572134,1.4597078961224812,0.043123096090852374,-2.3664520748350037,-0.010580888820702647,0.6108232457196582,0.7421875
-0.5544745053553269,-0.03764808456241397,0.08241319185373515,0.025117278902180323,-0.0255915592595709,-0.0023118949036105884,-0.02543631325468075,1.2675871413628765,-0.013920407331292926,0.7683065683670002,0.051208513575830464,-2.0195534954812437,-0.01993290440963915,0.5052538270484269,0.75
0.15833744642939868,0.025235123763249406,-0.025990691747056194,-0.005008256695432531,-0.0031535340949886827,0.0058795534844139795,0.006417214291469931,0.263918312760206,0.0002646980964397138,-0.6994266955931832,0.006167330852882438,0.3947383186353096,-0.00967664138602177,-0.11642708201917842,0.7578125
0.8932701113782402,0.07095566065834465,-0.13548939155676662,-0.038553056974428186,0.03122709736645074,0.007055852781946244,0.041326077375056856,-1.5710826296247462,0.01996485032916974,-1.5915997557212198,-0.06751085977079835,3.111722775571949,0.018972829777319733,-0.7903192890833669,0.765625
0.8243904240732339,0.045592781314498454,-0.12271296307607184,-0.038144840445217834,0.04040690290700538,-0.0010764513462053653,0.04033164707115614,-2.2814604394613527,0.02371533564506554,-0.8221198857584342,-0.09064706443939798,3.108264146643408,0.036221735092869634,-0.7634480697428389,0.7734375
0.20947609249128912,-0.007861709940182617,-0.029269567412797376,-0.012046178929135907,0.020585839905775755,-0.00785268937548191,0.012764217311592059,-1.382396055073291,0.011268560226236016,0.4198543475472984,-0.050669078559195314,1.016027609853292,0.026627017609570914,-0.22576312334056528,0.78125
-0.10535424248560543,-0.015614518825570514,0.016236869886976764,0.0038641863022973403,-0.0011052349396006623,-0.0038573800352343897,-0.0034697674002575367,-0.10078349145071408,-0.00031409546369631227,0.417553736996168,-0.002240405886462751,-0.28911685069997284,0.0031617677164474263,0.08333410638446039,0.7890625
-0.10426894149416231,-0.0006787500371242248,0.014291099763512505,0.0057396423595080055,-0.0098041944814359,0.0018104337473726962,-0.0050232704144388355,0.5188901212241682,-0.004234343491412703,-0.06882626452174967,0.018849838681947784,-0.46227333884994465,-0.010866557973364754,0.10788956359743376,0.796875
-0.21419854129381902,-0.01503300855803406,0.031552303354262685,0.009770909957464602,-0.010525025129665742,-0.0012137235899246958,-0.009430796354608662,0.47850219284632034,-0.005185277791712873,0.30701057419582795,0.01917052233014843,-0.7787380476451933,-0.008059631512221955,0.1956154963760531,0.8046875
-0.219696279775108,-0.0154140077823412,0.03238244994589419,0.010012913905531768,-0.010768713099717378,-0.0012244039158302448,-0.009687932420208063,0.4912978808113511,-0.005326944448324586,0.3132948442608203,0.019699404080853813,-0.7986977891017688,-0.008252711974857002,0.20072791402500872,0.8125
0.1449293664077162,0.04094117643150254,-0.025952133403888935,-0.002253404553741801,-0.013542339118201699,0.012187788045838532,0.003992234968617132,0.9921579233110797,-0.004504601234212089,-1.2258007297908453,0.03118207023139825,0.14708251525166505,-0.025889979216877242,-0.07517988301275429,0.8203125
0.2897901508404133,0.060771932562189324,-0.04884141238607607,-0.007454621704601423,-0.013126657874435935,0.016528354939365553,0.009705328468042807,1.0831069162698823,-0.0034926692226599754,-1.752227032022675,0.03205260901258848,0.5533612098198966,-0.03045309654724026,-0.1893596881290804,0.828125
-0.3195185625759472,-0.047444522622384876,0.05030917290273885,0.011230686017678636,-0.00021145362160236516,-0.011255117114206238,-0.011635939408835783,-0.34293140553216556,-0.0011291319318520471,1.2800602184289356,-0.007215132699946346,-0.8597565309079565,0.012344077387529982,0.24739213896751933,0.8359375
-0.99583593873062,-0.17271562399314366,0.16100758588041886,0.031297791324721956,0.017145819145773764,-0.04404432047232726,-0.034769537001400584,-2.1407545000764254,0.0028583666836172615,4.812022711833116,-0.05810426207115618,-2.3667640636121066,0.06469905488091825,0.7234363933205364,0.84375
-0.686687185677037,-0.13003539293062608,0.11216524817698977,0.020226312909140304,0.017786653223831307,-0.0345987175193188,-0.022621045600592256,-1.929120181471517,0.004906953964532566,3.670954017668602,-0.055600861233834106,-1.5037757059136507,0.054543447992286755,0.48074900317810587,0.8515625
0.4217072722629379,0.053416386450152085,-0.06664324411761618,-0.015505575695284723,0.002200217038434991,0.010824557278245302,0.01765205727701633,0.10216755099716614,0.0041783860954343185,-1.4068816108172808,-0.0033422277600609206,1.2271339557281788,-0.010599065871800702,-0.33718019663747384,0.859375
1.1044601265432734,0.16688159630907037,-0.17685017240142212,-0.03745304581688862,-0.007658810983958874,0.038966248506989175,0.042411382728024416,1.3717785113234149,0.003614018182402282,-4.5478288129801765,0.029463267985297834,2.9041029705077666,-0.051140672130851966,-0.8403932551964931,0.8671875
0.7368796071479533,0.11539911874028728,-0.11866070006809218,-0.024386862206824608,-0.007988696924520419,0.027457204965187484,0.02804547527739874,1.0894684386548268,0.0013742335224596874,-3.1672669411956416,0.025451647883187444,1.8870710192352769,-0.0383772025579326,-0.5530748001456575,0.875
-0.032712895372694166,0.016360135466955455,0.0021196332111014606,0.004098289507180158,-0.013863449690797176,0.00672893662474174,-0.0029811306408616526,0.8672104308237588,-0.005658009883551267,-0.5666149910157883,0.029628067767895356,-0.34747298129358545,-0.019984008372282636,0.06398234059454923,0.8828125
-0.32799318720967857,-0.013084797827257013,0.04742870891838282,0.016134277032166095,-0.02117104986730524,0.0020517756119927577,-0.01581235678068641,1.1414617548392034,-0.010639015175522527,0.15023303000879026,0.043478978311422334,-1.3073438161803268,-0.02104855811276447,0.3156787411904594,0.890625
-0.12393083688809288,0.0006668375621081259,0.01689306706037706,0.006956599176411279,-0.012252946293901626,0.002784314643509697,-0.00623504225173065,0.6765723062132597,-0.005452473915272188,-0.13228178967859738,0.024540961818499553,-0.5657296934666844,-0.014097277445183609,0.1304596078579131,0.8984375
0.03201978195776409,-0.006157869231837165,-0.0043523193273700385,-0.0023013773451298664,0.004787778130879766,-0.0032799508292120855,0.0029603166478757823,-0.40627381581910554,0.0031289671685954994,0.21908197215229652,-0.014709872150512978,0.20828412946258035,0.007649653989141639,-0.04119383812661985,0.90625
-0.10419941518958,-0.02917326505730864,0.01769952108597094,0.002035949364080667,0.0069896421850588345,-0.00905235951647351,-0.0019363182670828073,-0.6762501068954605,0.0033490053389394836,0.8598886849739306,-0.021831906217090982,-0.12166476106667129,0.016122155894048407,0.05851895502232835,0.9140625
-0.3450305524298393,-0.049805770413009876,0.05425665744840837,0.012299485755247568,-0.0009532227127851883,-0.011592725843275723,-0.012765990691659103,-0.31131704601006616,-0.0016079546398298234,1.3365827109975947,-0.0057436859030152035,-0.9448539744093541,0.012078136785633355,0.2696205844941066,0.921875
-0.49022666111758056,-0.07654046918013263,0.0779940963029915,0.016628448679976572,0.0026714292512521466,-0.01857182384589027,-0.017752913427493175,-0.689860201831694,-0.0008002315134630607,2.0898102477573146,-0.016422031351614245,-1.2705639390207972,0.023155050669134952,0.37211986246065043,0.9296875
-0.4286283517105511,-0.08722530474730569,0.07053876019289541,0.011926277230262551,0.014101138181131723,-0.0240024403305972,-0.013259501459307097,-1.4518296742202055,0.004708811540292719,2.4875152836296364,-0.043295833803436025,-0.8693507459958121,0.03927977314664079,0.2904235257944799,0.9375
-0.098242228032306,-0.03662759992698432,0.017702363250607558,0.000738765963734915,0.011862105898368483,-0.012006913401940014,-0.000811305673216745,-1.0177668752103173,0.005579258232139255,1.1050980674281892,-0.03354527012913884,-0.006242171873259286,0.023718217562804445,0.0394610330974187,0.9453125
0.32745198257919544,0.048634308402007546,-0.052766964679996566,-0.011061403320819625,-0.002846173478512275,0.011092523387001885,0.013058881263358626,0.38283626639483964,0.0013633866931867678,-1.3289182825993056,0.007643310483330961,0.8658032629240514,-0.015307957019345932,-0.248996174564922,0.953125
0.5145080677602588,0.08571395304366813,-0.08366711059568432,-0.016288218692297546,-0.009081140486804105,0.02108322247204261,0.019194579022286086,0.9821743243397495,-0.0003872049297422312,-2.383851074721971,0.025180320799521608,1.2532538636229,-0.03207643309576254,-0.3763365050595868,0.9609375
0.43335449802754356,0.06212595639445158,-0.0693254729000981,-0.014986040486138828,-0.001949908986649922,0.01386809504424344,0.017342707759038657,0.40728241156351525,0.002369698506194958,-1.6786929388786116,0.006844622847503446,1.1745253823764525,-0.0176816290160736,-0.33407256059373047,0.96875
0.34908424654969983,0.04070438243129405,-0.05482230350759602,-0.013248264465133061,0.0036467123648786124,0.007560746395452023,0.015088662503527358,-0.06129290832846334,0.0044186595032476425,-1.0489800181718134,-0.007802738835308096,1.0566892053605417,-0.0056567680694034755,-0.2850130905872357,0.9765625
0.29521801631169997,0.038335988269934534,-0.04693771929899775,-0.010674568115363102,0.0005487266942504654,0.007860921294317617,0.01242539055544446,0.11407819658890715,0.0027160366056060586,-1.0174145831635462,-0.0009948487276400558,0.8463156196347971,-0.00869317882162746,-0.23403299255562357,0.984375
0.09973819972851927,0.015466720381902175,-0.016556201175391777,-0.0031428100297478606,-0.0022949551836245878,0.0034751885906372094,0.004299517125224062,0.1539318115475742,0.00031855294997032733,-0.4316206210413252,0.0033338694913957654,0.25123002038910613,-0.006176855707114583,-0.0732380543947858,0.9921875
-0.12365602115406003,-0.021741200187954824,0.01952453927791009,0.004039405306880745,0.0009815482698215718,-0.005774908682950829,-0.0037913342803363253,-0.26475479247137496,0.0005229648211799902,0.6010210758175827,-0.00753370605779049,-0.2969857173329047,0.007186238623260371,0.09138515197250352,1.0
-0.14928455316524436,-0.027297413335988282,0.023844454836714865,0.0047028013612040905,0.002119794715520069,-0.007338256132366555,-0.004582220841513428,-0.3670516119163401,0.0008908958314075742,0.7626841302150276,-0.010628889408234648,-0.3445535652577692,0.009938856691239619,0.10802398109046703,1.0078125
-0.12138390650740327,-0.00927521218351301,0.017750457273688746,0.005537922855940773,-0.006165428283558233,-0.0010849973571501305,-0.0050211359463536295,0.2455804882123104,-0.0026874678393897125,0.19689671624930608,0.009819953547690902,-0.4354054035737748,-0.004407916864664183,0.11052730885514288,1.015625
-0.2185042797214361,-0.00974783408444506,0.031541999546303316,0.01068437140776137,-0.013994038454997268,0.0008946640545935233,-0.01023906145391087,0.7219333252347312,-0.0067732878351214575,0.13093169048267317,0.02753310418176761,-0.86073547642274,-0.013493606260688459,0.20919217259422962,1.0234375
-0.18681611907419018,-0.014830920044932694,0.027654051609671923,0.008323295300293769,-0.008363840460479709,-0.0017387291533433366,-0.007970606543401274,0.3477677414487355,-0.004053204852014789,0.3220124052496497,0.014304416430313294,-0.6596937666894327,-0.005581587074717244,0.1680280348908321,1.03125
0.0797662015939334,0.007221980411888609,-0.012710703819163345,-0.0031245257830714614,0.0008844360572230442,0.0007616074729853876,0.004103460413191026,-0.08873835260976853,0.001638155573192339,-0.17770501117889786,-0.004641454731250984,0.26024137557520666,-0.0003316291929462645,-0.06684934816739618,1.0390625
0.05339954273398985,0.01643790449059922,-0.010071918458335587,-0.0005066880304027124,-0.006740261135083658,0.004848616616428189,0.0016782661831260196,0.43172625507646517,-0.0019530645466784987,-0.4981804083897544,0.013471770962953112,0.03323442357565617,-0.01161773702247455,-0.023922028237832016,1.046875
-0.5317376132067045,-0.03935270406177402,0.07941430628333726,0.023678717759075554,-0.022693681789928845,-0.003467554105648137,-0.02402194035907239,1.080439540131669,-0.01248609508723207,0.8422676605793852,0.04449180230648191,-1.8983572289776909,-0.016113364179957308,0.4789329997560921,1.0546875
-0.9801609075910023,-0.11282019721900238,0.15165010915389965,0.03822404971633785,-0.016836607210655153,-0.02153576896166615,-0.04039843185511646,0.29098648590094844,-0.012396908558057971,2.869171790193418,0.024466831703482947,-3.012229691155494,0.00948849457564339,0.8112043748281631,1.0625
-0.6452671054560066,-0.10833487047827307,0.10370241160137558,0.020816981184267974,0.008453827606492173,-0.02722683187981225,-0.022723902552228604,-1.2300978907837985,0.0009254766954539785,2.995353515644876,-0.032427063273421,-1.5792009073031483,0.038018702064294606,0.47595458042092953,1.0703125
0.09085809498291529,-0.021661426720226033,-0.010841879541247672,-0.007469549938095359,0.018818236110093735,-0.01048338405736956,0.007825782424624712,-1.3555583716551882,0.009796533913995873,0.7719994859885915,-0.047938162598691686,0.6541949360401449,0.028076941310707395,-0.12814748383082494,1.078125
0.5912840620006837,0.05945645689932561,-0.09135763243064846,-0.023816335586654587,0.012804336105115574,0.009345862711269281,0.02619634107932787,-0.5114875413176236,0.009932180696543419,-1.4616375151067686,-0.026846690317634137,1.9077811168422432,0.0003310538790623266,-0.5005606341964254,1.0859375
0.8539653421221434,0.07822882344922588,-0.13078863965231483,-0.035488701190391665,0.0236780405715482,0.010675322887322964,0.038413283214224124,-1.0667736760309483,0.016335939342699134,-1.858056650350293,-0.04976145941222477,2.8502059863598808,0.008298103988770969,-0.7374423112285449,1.09375
0.945716336653623,0.061694802049334224,-0.1418163786722713,-0.04256893514356392,0.041068993274027084,0.0023511422521134084,0.045175542484256155,-2.228060463153601,0.02470794277317995,-1.2455680843901287,-0.09068668665286211,3.4550523601983367,0.032911848318688694,-0.8601572594994836,1.1015625
0.5944935551176335,0.06176348268885057,-0.0921120679523064,-0.023705081989539193,0.011706443226017927,0.010180058712162368,0.026121317920307002,-0.43078243524827897,0.009453219907392903,-1.537765305984899,-0.024119686909034106,1.8948388471208737,-0.0015807536423699928,-0.4999514050674763,1.109375
0.0042058020644041025,0.08985475245420327,-0.011899143084151789,0.011641046486195655,-0.05410097524087478,0.033974872016486385,-0.008924929167289666,3.7612662713490095,-0.0236141347637018,-2.9374638972170004,0.1276178975720417,-1.0612525962145394,-0.08598972970448465,0.15375954290379837,1.1171875
-0.07602680303902606,0.1053767266178456,-0.0023865144985808938,0.017969638158833644,-0.0699280689783145,0.041655543122565364,-0.014953303671467615,4.820960955793207,-0.031215450516362063,-3.5072858360236268,0.16491079320463245,-1.6026627407897691,-0.10852217999648128,0.2627835239802717,1.125
0.31022750125038556,0.056236526469703695,-0.05119368585766117,-0.00914489580629994,-0.008739540637935092,0.014338637568720058,0.011303871387588083,0.7879213055228123,-0.0013938850971988704,-1.5861464159167995,0.02169080641217273,0.6988657086819031,-0.024150870278759378,-0.21835166835163444,1.1328125
0.22166855255544987,-0.050351564261216855,-0.025925151833578294,-0.018216113136885273,0.04665610274784377,-0.02435351738350324,0.0180227751933485,-3.227995274433378,0.023109660060805216,1.8179136832283567,-0.11369012089515015,1.5779057556301601,0.06808583703154644,-0.31227095085337403,1.140625
-0.45429570605041064,-0.12848048151308047,0.0791016737861334,0.007950080834860183,0.03626270353140465,-0.039163099736661856,-0.010188433418583036,-3.0506810776617,0.014568891430901823,3.810904771313349,-0.09732958520389906,-0.4908171622367134,0.07582773403933825,0.24524359229373865,1.1484375
-0.689667978060971,-0.10811460559848797,0.10998680181802915,0.02323182970918821,0.0046192207984212304,-0.026169574394005947,-0.025154252611199572,-0.9944657163678471,-0.0010574234268024491,2.9523376294200507,-0.023722761461040024,-1.779011744634082,0.03347490275725606,0.5218232393820543,1.15625
-0.22591366399429264,-0.033092227134516386,0.035362725352761235,0.008058604227720607,-0.0008689247371231933,-0.007836001650045273,-0.008114576797541247,-0.21811349502050617,-0.0008941838862330962,0.8858297436165948,-0.004373049727143818,-0.6154637033243543,0.007886034169950292,0.17647480106457594,1.1640625
-0.07609287311715338,-0.003761989608341776,0.010644339309653694,0.0038218403443900134,-0.00563125903710476,1.1735272447043152e-05,-0.0031583367755086485,0.24521282320437635,-0.0021875828296486705,0.05454221787874086,0.009099764640272259,-0.30026204347395635,-0.005161073829155077,0.0736774598423065,1.171875
-0.6071536975441005,-0.04043217101922055,0.09021873813162874,0.02759195981282819,-0.02834113620379584,-0.002219455106787495,-0.027992915270333103,1.419541453422155,-0.015461155905393084,0.8173995394993916,0.05717744258325927,-2.220366329079953,-0.022439489891153255,0.5544360951912851,1.1796875
-0.9197870768125316,-0.07480282607048254,0.13860091699768673,0.039923183753538316,-0.034193983972723406,-0.008388388620323997,-0.041234913440531484,1.5763409031137,-0.01988644497095523,1.6809405069304701,0.06729671785301693,-3.1982380881283,-0.020564595312091025,0.8153814576835392,1.1875
-0.6016491731918971,-0.057411480646344,0.09148034043624445,0.02508456404395028,-0.017903646097365986,-0.008781105941256695,-0.025865290962403253,0.6818701947750828,-0.010724431603644155,1.3713568183049387,0.03200626160686419,-1.9932899546455494,-0.005920874392134561,0.5194773228119391,1.1953125
-0.25528815359274915,0.0004093304448971186,0.03551334813246071,0.013976029572967523,-0.023060820613832085,0.005603208758420752,-0.013330181539330856,1.3365455824541033,-0.011078161375760546,-0.2317657196290482,0.04901656871325793,-1.145444025505186,-0.026726282593618353,0.26460317096576935,1.203125
0.019985435871316116,0.06559558609654523,-0.011256242329047032,0.0076508778309335715,-0.03848342458453918,0.02435523650784248,-0.005445457076201783,2.6626265872812795,-0.01646991697462705,-2.131235957846644,0.08995390975752086,-0.7013830722215182,-0.06143563376331649,0.09540074904903699,1.2109375
0.7030273526194001,0.09274166062196468,-0.11117361589608896,-0.02550317057304589,0.0025206435219851573,0.019570133633711,0.028658888210628508,0.3131485589354026,0.0059258058237326335,-2.4565726609084995,-0.0004733499170759229,2.006718347571437,-0.02023892068273211,-0.5574970801222786,1.21875
1.348565219371944,0.04574668089972537,-0.19691469724605884,-0.06626711851985773,0.08406678355056789,-0.012650877280231116,0.06874185031251848,-4.9523427842394305,0.04640706633534015,-0.3957276043033542,-0.18959453993941594,5.43340866487691,0.08743663107442279,-1.3004533162612488,1.2265625
1.0725402354736588,-0.020165823371903816,-0.14996203288896945,-0.06000108241742072,0.09986578251060739,-0.0316722663956382,0.06089924941749278,-6.3062914182531,0.051968109754956776,1.5275413500561223,-0.23146555654182208,4.994993047438949,0.12279307500235252,-1.1318754097561285,1.234375
0.40522992962521615,0.016606419736977806,-0.05991320888199461,-0.019400780833775402,0.02252817958610004,-0.0028648469516388553,0.020741068957415707,-1.358317457818653,0.01326214143310376,-0.21844746225685427,-0.05280926243325371,1.5938549599321443,0.022653138830978917,-0.3843805354316297,1.2421875
0.51318003212395,0.15148096816465703,-0.09132639469248924,-0.007700730409182339,-0.04791823775182378,0.04618763374276868,0.012016303209392261,3.744549519359316,-0.017923605047779158,-4.529612217459704,0.11927613383980717,0.46308221941247096,-0.09444688110378029,-0.2612387868295964,1.25
0.9132930701244304,0.20050605273379668,-0.15381248695515976,-0.022817834824184507,-0.04342054933616331,0.05602379618621303,0.028411497082210864,3.7576498853661575,-0.013619522928796967,-5.8008764938542665,0.11360247465308276,1.6536524783765312,-0.10168715277337288,-0.5861592484614203,1.2578125
0.24980243892491755,0.0541839888129149,-0.04238447657482248,-0.0061550066656591304,-0.012592285513281004,0.014907186545303493,0.008247040980907724,1.0119538474787844,-0.0034813947401806655,-1.57010008451543,0.03023348296814691,0.4542163999999877,-0.028150023342568765,-0.15969038410852962,1.265625
-1.0951899706385142,-0.1405943043449244,0.17128301317231828,0.040809864479622815,-0.010077032251642729,-0.02959424794462387,-0.04363341239930406,-0.28622390869865705,-0.009998506347871798,3.682913323024925,0.006560326811823983,-3.1917380474227826,0.024535138456878908,0.8810420040156042,1.2734375
-1.5077345765425487,-0.18957472383482074,0.23551130713060583,0.05659999013769356,-0.01564299273319232,-0.039131756692169,-0.06070985286191838,-0.23344552499405366,-0.014855483888175551,4.941991386733955,0.014663145276260297,-4.4380474572572375,0.030505660738359138,1.2188436703416905,1.28125
-0.8464524882744671,-0.1176432983502537,0.13329222379325525,0.030409453307341454,-0.0028389860456280837,-0.026335246121320634,-0.032626363301225474,-0.5942200762206222,-0.005311176182409709,3.13599553177709,-0.007707124797388647,-2.360713823774347,0.027163443536534652,0.6658779259303563,1.2890625
-0.3956686044022459,-0.07055463792558547,0.06386290024186637,0.012314144557328217,0.007034411560921056,-0.018362495596904362,-0.013270923431834575,-0.9216237454509184,0.0017096355456706412,1.9697600998980809,-0.025742975672221002,-0.9218475744095933,0.0267381865452717,0.2856381646157161,1.296875
-0.4868831322988439,-0.06643325773668632,0.07629920642411268,0.01775637004006695,-0.003000359746582937,-0.014783881649193179,-0.018660476102347452,-0.2835780277917541,-0.00334061179692862,1.7622779866879907,-0.0026371345833022973,-1.376191119096184,0.013923541610464335,0.38620409678729123,1.3046875
-0.30224154419532867,-0.02485707031719597,0.04520187439231102,0.013232345980496609,-0.01207698088621766,-0.003026858350698908,-0.013141440243902541,0.5157034760508067,-0.006386039207984496,0.5574689130318857,0.021766073120482073,-1.0524302615693533,-0.007348568678879442,0.2688259349409726,1.3125
0.15267611247897653,0.032560612734196505,-0.02605702107457124,-0.0037595904532111268,-0.007937828540487087,0.008799952256852938,0.005318343918411844,0.5997264434758246,-0.0019268268854880657,-0.9443765731528558,0.017701616659254692,0.2822096042495796,-0.017172905977788953,-0.09795334824586746,1.3203125
-0.037958464373964544,0.008189840659409715,0.003834853375181753,0.003313747302613248,-0.009494108573547174,0.003740552283757996,-0.0023873828057508623,0.5522974832932027,-0.003715225920072,-0.3062837434862302,0.018997377063135843,-0.2733414516932216,-0.012789358598245992,0.05534127065801372,1.328125
-0.6617216029944091,-0.061047846247248905,0.10040137437904582,0.02783820414291969,-0.020764890685748126,-0.008843737105580233,-0.02872674302142678,0.8356026812807683,-0.012356435193711374,1.4423023323194557,0.03814466508928109,-2.2165952926419643,-0.008326217674929099,0.5747689591777632,1.3359375
-0.12824200178031797,-0.003647410230471637,0.01802912000307698,0.0066406509191420425,-0.010067919383169971,0.001225422241979852,-0.005998275710526826,0.5177315749964386,-0.00449319387997111,0.007379259458808306,0.019172246299459315,-0.5335772818551345,-0.010406044418600838,0.12746622780484673,1.34375
1.966051212626271,0.21360177182633827,-0.30437984720737404,-0.07765484428914064,0.03670796694423366,0.03768705762854969,0.08408770886268335,-1.069413443286861,0.028543671095927474,-5.365746989424584,-0.06680664648006054,6.171202896268462,-0.010974211295073701,-1.6425106620917744,1.3515625
3.3873793434281603,0.35184502403460227,-0.5220924251302478,-0.13606372446966727,0.07386877425815376,0.05893621082610861,0.14621583621674333,-2.5316212768658173,0.05341077891326267,-8.71365870444383,-0.13825584104580635,10.831450361912472,-0.0026792678304012347,-2.8595859582541996,1.359375
1.8472781385762984,0.18140635936880598,-0.2837273914454307,-0.07546452209734206,0.04575659070381377,0.02806043919053438,0.08111903443912995,-1.811660652972477,0.03195483967258219,-4.415374420838983,-0.09024483393955905,6.028462712879718,0.007821593807787113,-1.5764403369508322,1.3671875
-1.5481600484551536,-0.17015344774679192,0.2389037163141338,0.06129151332326493,-0.030468117035595255,-0.030809289012537572,-0.06500517907383298,0.7887162358622899,-0.02178153065209158,4.27445631884873,0.05007350976520807,-4.849762728428304,0.00812439924214596,1.2941879448490505,1.375
-3.2187948716039245,-0.3345760179593681,0.49502087417624685,0.12969211063121602,-0.07299972660056901,-0.0565279992345612,-0.13782134383858638,2.42554753746221,-0.050490327853790415,8.272218940889038,0.1312743452172521,-10.304200300940085,0.00020950004159215908,2.7212405091162815,1.3828125
-1.6777685570955247,-0.17447850408554755,0.2577485794935143,0.06769565723301378,-0.038711825649370105,-0.029615457877509722,-0.07155708876066359,1.266968019780442,-0.026240052912155913,4.31161343143919,0.06832308070867943,-5.373433004876894,-0.00041185412871665514,1.4191663084817219,1.390625
0.6579038870796026,0.05910992874143494,-0.10077198093302016,-0.02745080708239026,0.018578557425368767,0.007740245206311708,0.029849541863984648,-0.8671792616722316,0.012917638397652854,-1.3971336536099233,-0.03995469287707183,2.2081678739951043,0.007181937688259908,-0.5697173423663858,1.3984375
1.030017110900295,0.10423604776374171,-0.15881513416498705,-0.04158524661233582,0.02303591614121277,0.016719507494248144,0.04514616732755732,-0.8745615216053364,0.017049390579842536,-2.565338639443013,-0.04587456327830427,3.321683634979867,0.0008838371281073169,-0.8726496407566909,1.40625
-0.14367699248332966,0.011535296232337637,0.0184158469891607,0.00942895323386337,-0.020297539671526463,0.00736418957996317,-0.00848243534771073,1.2330456010163522,-0.009192310090761113,-0.5019294073115002,0.04378418972592159,-0.7827224376710188,-0.026307158772318574,0.16969122970791414,1.4140625
-0.7155530178996594,-0.032519674695784866,0.10463173163108308,0.034435085154829695,-0.04206384144339068,0.0032198502469443983,-0.034731617592126826,2.3061946520841143,-0.0222750591595608,0.4680801265298083,0.08903616452475346,-2.7959953663586044,-0.040602910498971065,0.6793303342133151,1.421875
-0.16068327152358755,-0.005919286088355017,0.022906549928032396,0.008090008039081444,-0.011432587605152969,0.001064601945563707,-0.007515873721050637,0.5877610882183073,-0.005291913635500866,0.0556990588607164,0.022054789436652573,-0.6501932142304316,-0.011437423611741552,0.15663268263246535,1.4296875
0.39360901676565524,-0.00028729538590068594,-0.05623365845166993,-0.02095018956571324,0.03150326062911156,-0.009065708613751245,0.021936467377382102,-2.0066765795637522,0.017244443508437075,0.32579894942691795,-0.07473584859072864,1.7433762743137007,0.037527288740938164,-0.4016609137865856,1.4375
0.4263250962825075,-0.02006617335065894,-0.058512479406222985,-0.02528002678449159,0.045889155267084474,-0.017325511977264448,0.025850930056659463,-3.0031729398091,0.023925776366152847,0.9961246499410378,-0.10915079944223538,2.124633388185273,0.05945954116417177,-0.4693877863824557,1.4453125
0.3907808618032036,-0.01008320419287334,-0.054684048217610984,-0.022082828349344722,0.03704421771987464,-0.012721255759393658,0.02284288990364836,-2.403247767854585,0.019731390560370245,0.6393077959484864,-0.08816616764900888,1.8476760199812488,0.04650854894605421,-0.4156602509948172,1.453125
0.3991684322597657,0.016836085585327728,-0.059088308680764166,-0.019040429529465882,0.021880364848550833,-0.002637498724876946,0.020384418938307794,-1.3171695727623098,0.012934042233301003,-0.23197811048588762,-0.051317091684785036,1.5637228786660131,0.02182593711932308,-0.3776447483372755,1.4609375
0.1451037786808854,0.017562552590362136,-0.023206003237189573,-0.005292944186944302,0.00024533656294946994,0.003261712985502098,0.006527837841031585,0.011017425448052216,0.0017221868268854368,-0.4614232604942115,-0.0022422181030230743,0.42717816355873794,-0.003732939683490227,-0.11598797755906265,1.46875
-0.23635863305839136,0.003859825857807957,0.03243248133913269,0.013422677854085196,-0.02351210335558014,0.006478065463272392,-0.012674966999497394,1.3843123954269272,-0.011172808110603312,-0.3249949377443298,0.050317886186045546,-1.1028524369397525,-0.028095024687353583,0.25123872889872956,1.4765625
-0.4198510867345629,-0.00039693192472943,0.05891706773597841,0.022721390744070424,-0.03630845630907699,0.008918480257669736,-0.022164908022830342,2.14239825838613,-0.017993945686687066,-0.3372211584316073,0.07893962047367721,-1.866623046710311,-0.04203698312208334,0.43185407307318363,1.484375
-0.5356467428496702,-0.00637599316535064,0.07602096531505212,0.028154513305429694,-0.04244291613033459,0.00921022023216512,-0.02779897685721569,2.4827477642976588,-0.021423001286077267,-0.23908453404755525,0.09231926918889977,-2.3090641995341477,-0.047739297944423005,0.5400465633391975,1.4921875
-0.625250663709751,-0.00374657696122606,0.08838122966268155,0.033301883340124815,-0.05146840926968125,0.01220632313774758,-0.03294154075614899,3.050563402155359,-0.02600781894320902,-0.39911259731855075,0.11302717771018961,-2.73807196792872,-0.059013379134301276,0.63640216523392,1.5
-0.1863052983486043,0.04939244253333624,0.01989029660859828,0.016625779745678346,-0.04615006227923477,0.022752744102210423,-0.01488169518899968,3.0373138834902385,-0.021109320694611897,-1.772486103009676,0.10586424339010204,-1.4238922861636354,-0.06632615506496317,0.27876699834400975,1.5078125
0.7895641328511188,0.12552875563047308,-0.12733427887284005,-0.025896405769357,-0.009579135411824919,0.03016840185457481,0.029805514398873103,1.2466358389356906,0.0009532421141699884,-3.456017459833952,0.029989590700641167,1.9992523197358674,-0.04283027749405081,-0.589227968547749,1.515625
1.2142481882976415,0.11284383364880977,-0.18591308470552942,-0.05034320561442934,0.03332691628411443,0.015913047182585235,0.05420400836901015,-1.4536238539393613,0.022739762874368963,-2.693708602326278,-0.06842919695180591,4.03590727408615,0.010772402907538248,-1.046401142380838,1.5234375
0.38821415114848973,-0.03273557208998435,-0.051586422857576725,-0.024869878172918098,0.050163642928931634,-0.021318281527870835,0.025147801852990974,-3.3392426602455862,0.025640440599792643,1.3790731355901322,-0.12001589822512884,2.1066932046188365,0.0677061365815034,-0.4522552187173798,1.53125
-0.7447926879594089,-0.19174217511580968,0.12777204363424427,0.015343222675918766,0.0492961899390402,-0.056860339222081946,-0.019102255438919396,-4.219956880737958,0.018800427934013604,5.637641203724333,-0.13270805495525687,-1.0250767062008506,0.10728050551465854,0.43323015177838703,1.5390625
-0.8844191421438451,-0.21087459543233822,0.14980164270290133,0.020359128705353252,0.04891366402169611,-0.061054457364868406,-0.02460630981775229,-4.3084085870270705,0.017830888926402007,6.146494688535619,-0.13359640482126484,-1.4167309843356601,0.11170432362504938,0.5432240105310585,1.546875
-0.16807891327811125,-0.08806029295431608,0.033731998821882866,-0.0021727008271266285,0.03633342185925833,-0.030078853917815316,0.0009621831715882248,-2.817049431973235,0.016227163211269442,2.726803036054227,-0.0937607029195983,0.29718201364916197,0.06558219589099278,0.02204272427602528,1.5546875
0.36973457826066264,0.047338763665476964,-0.058549924233211856,-0.013488877769011861,0.0014512474400385513,0.00963922294681926,0.015492588589447263,0.11218290584503585,0.0035428611841348814,-1.2485449053256004,-0.0022291115728599563,1.0687081630818491,-0.009911454786076388,-0.29452885029010084,1.5625
0.4201760790652754,0.10788113270440478,-0.07290294801175197,-0.00835390609486096,-0.029992041161393524,0.031601308387711205,0.011686753594773678,2.3911258901223684,-0.010360455065248252,-3.181589989204021,0.07461784797014977,0.5705724014936794,-0.06226345073636053,-0.24150282582889435,1.5703125
0.37266137170016,0.10761907893767439,-0.0661449177053126,-0.00584840322137025,-0.03379292660875206,0.03255377969695784,0.009137729006711642,2.622123162460113,-0.012343670765279946,-3.212758487085955,0.08322815547172704,0.3632761181524828,-0.06667017053856926,-0.19335847150959853,1.578125
0.251493687088386,0.07156513941870657,-0.044703104124740455,-0.004017412248574867,-0.022669508266215624,0.02149825279923829,0.006460363169780803,1.7303886864089577,-0.008012598207063761,-2.1369403913428906,0.05470653907499204,0.2555381028847581,-0.04442650354083143,-0.13151604899287403,1.5859375
-0.15182339837102238,0.010592512882202434,0.019651212186167943,0.009747401228455901,-0.020420146493530793,0.007186498314322438,-0.008821384428008578,1.2352342831270997,-0.009296748325931723,-0.4780746668152345,0.043969038320102155,-0.8079393901659536,-0.026215809229563937,0.1763501938507147,1.59375
-0.4565809740517604,-0.0175848915330106,0.06614994058018733,0.02247151823132629,-0.02925877820049367,0.0031862270611803635,-0.022298819097718064,1.6104425813987588,-0.01502497616535252,0.19256917328444265,0.06137245406198971,-1.8251148060396252,-0.029377207583440545,0.43982704767151865,1.6015625
-0.15839905716850566,0.03407154503989196,0.017778371598226306,0.01315670258733793,-0.034800634296250944,0.016273064839475455,-0.011709231230409478,2.2523688626734955,-0.015829763064589043,-1.2481152943439062,0.07868951180586232,-1.117737650546258,-0.04906429189373324,0.22355495043681395,1.609375
0.2687616660209253,0.07955439518257286,-0.04811650126593526,-0.003894816221882319,-0.02594274260658432,0.02416013964230806,0.006537557380239151,1.9773225957177172,-0.009397878896222062,-2.383172462276179,0.0628303511344213,0.23623956619019743,-0.050297398724631535,-0.13549144340946526,1.6171875
-0.08617635460535743,-0.0027925993023186447,0.011955672846507512,0.004480390414579592,-0.0070567941764483905,0.0006287969756066144,-0.00381334476492726,0.3385210324603792,-0.002891464229647053,0.01148090004277077,0.01245125252916247,-0.35656188890668883,-0.007124926120784422,0.08572173638636761,1.625
-0.9671994709771978,-0.15251480126042047,0.15455174645332376,0.032380791578592034,0.007616241223496181,-0.03695576196930568,-0.03540857491842,-1.4382817863254749,-0.0012820306901504615,4.17507707683423,-0.034620452928872704,-2.4811743616299107,0.048329107306029045,0.7293921779111103,1.6328125
-1.0787145101603548,-0.18524739682194696,0.17426579678775914,0.034131741311110096,0.01759603392806496,-0.04698441366351429,-0.03791667995763641,-2.2414820481288054,0.002589367342047224,5.153544524228278,-0.06027629263241017,-2.5856902929666807,0.06842095908705688,0.7869666280179985,1.640625
-0.027996506444826038,-0.06899676537513835,0.01166389813201271,-0.007219050000121727,0.036801583198242664,-0.02593374496275372,0.00649806885676174,-2.734471418980753,0.01724035096611161,2.2223160596722633,-0.09308160573945859,0.6918225047890827,0.06128693226868128,-0.08857120587708382,1.6484375
1.0225591010412558,0.0452327256396673,-0.15069934462601292,-0.048831103906206624,0.05717512627743545,-0.005629424544391335,0.051120560909381794,-3.310308021764369,0.032415840926039774,-0.6453336556931941,-0.12870007101288122,3.9927629645115896,0.05601661983200749,-0.9673697680089149,1.65625
1.060054357915981,0.06943958237666865,-0.15892092102949776,-0.04771247381011398,0.04603658282158839,0.002790607037991667,0.05053649789952063,-2.486172559802124,0.027599820244909423,-1.4062561100830995,-0.101206110484641,3.8702786981859485,0.03674809442412376,-0.9637630680974453,1.6640625
0.5042758509828722,0.06710137249174443,-0.07997502498607696,-0.018168751090487174,0.0010356517509978883,0.01421432418426414,0.020650939704934194,0.2538953506623229,0.0041225426282727766,-1.7854167641627787,0.000566938529184311,1.4305969505406206,-0.015468338702501052,-0.3981606144465282,1.671875
0.20623939045501502,0.08534576076190546,-0.03995018389448455,0.00020815110676232568,-0.03457370800806092,0.027760798968327012,0.0025183504081279545,2.5397370913657755,-0.013647973970364278,-2.6233165126453883,0.0829418837863553,-0.11031674030201793,-0.06191139431333246,-0.06122472450390508,1.6796875
0.13221105919893364,0.07353930197342504,-0.02804688196618454,0.0026583602438902515,-0.0337887972970211,0.024881935523378158,-0.00021882990037434447,2.422122109702587,-0.013715733448222413,-2.2973591327132983,0.08006180838967021,-0.2979929342194787,-0.05797079810888186,-0.005986023992388444,1.6875
-0.15635385809215366,0.005250719765811855,0.020950228028363348,0.009300628692432497,-0.01764007168810322,0.005227386303729264,-0.008484600651962932,1.0329958950895306,-0.008068787690873365,-0.3059087583057337,0.037158270737963656,-0.7641552602092626,-0.021574935022252804,0.17143792989423276,1.6953125
-0.4593229678131953,-0.05007170531771657,0.07042518795741821,0.018392679951522287,-0.010337415334733698,-0.009148098000672086,-0.018933059318954566,0.26141781704279743,-0.006495587189191474,1.2492700253506712,0.015507354909945406,-1.4491087940501493,0.0011283075857661058,0.38625882483129276,1.703125
-0.3098133766061946,-0.030706476530677318,0.04694357783077521,0.012871587328293204,-0.00927744482854782,-0.005062096460700526,-0.012919844403850857,0.3103089953084694,-0.00516534031840148,0.7387474374436043,0.014897214552060374,-1.0165281281194853,-0.0025762495957208902,0.2667020775065526,1.7109375
0.08947236701044974,0.022610856746408826,-0.015926169813057705,-0.001652619816085553,-0.007372093315709471,0.006423875788974872,0.002966008277708796,0.506808167105428,-0.0020334386247920955,-0.672755401251023,0.015496340131529254,0.11981839679607095,-0.013963372046678791,-0.05016349102348095,1.71875
0.18768941074682816,0.03171233039014056,-0.030898747008845793,-0.00573755390745,-0.004534731391629787,0.007704559216403832,0.007306737868297127,0.38669831414063244,-0.00019448297519368383,-0.8870157927405727,0.009894499626497582,0.44716334325318674,-0.012953639679047921,-0.13509944318436115,1.7265625
0.01391960799685482,-0.004728938089527221,-0.00195845884533457,-0.0011281423425034405,0.0024383899468054626,-0.002350527954955596,0.001824978317451536,-0.25397147642521983,0.0019648043073207844,0.1604186675552844,-0.009281203889372914,0.1105259638800574,0.004550636131867099,-0.020123438966811263,1.734375
-0.039810483185854714,-0.028465288626880327,0.00845835831816682,-0.001329058336078047,0.011939314175510215,-0.01020389371482453,0.0014794135886404863,-0.9748591422301977,0.005949097701912424,0.8893638420417898,-0.03299905157281069,0.15543699641630856,0.021765056253510787,-0.0061876177190901055,1.7421875
-0.0668034444746428,-0.032195762511652966,0.012717745200326532,-0.0003754845337616703,0.01188275996645765,-0.011017039683097779,0.0004174151304650038,-0.9933799846013769,0.005770344593682223,0.9869260444340148,-0.03319459319456859,0.08053139158289632,0.02262951049203988,0.014911278954027643,1.75
-0.3847062547987254,-0.05892706931020422,0.060919794371809124,0.013225152020210382,0.0011035011170512164,-0.014166286093751645,-0.013935119433697888,-0.49056083820977864,-0.00090593946144291,1.5978358740633776,-0.011210845593469862,-1.0115501039545183,0.016777036283735128,0.2943175260488756,1.7578125
-0.7207627441739096,-0.09425783125154327,0.11271500795128456,0.02669654293012137,-0.0061233017382741756,-0.02020039832825288,-0.028339866484263482,-0.2555236293508003,-0.006082590032451356,2.4760114926348016,0.0019082584647873767,-2.082063757731998,0.01731239428960783,0.5775606255769681,1.765625
-0.6006829235703154,-0.07693067988408264,0.09365375363909346,0.022506482063006737,-0.006312320886320126,-0.01626120125650045,-0.023699857175668703,-0.14219987189832073,-0.005485229140985206,2.0109268344539886,0.003913742801381324,-1.7561882564455928,0.012688881326700308,0.484623044335534,1.7734375
-0.2117193707159284,-0.017410872283452283,0.03150499874058275,0.00934328525417601,-0.008922776583164923,-0.002188098848022918,-0.009041358507014293,0.36673893476930525,-0.004448742931620504,0.38932421111723653,0.015301204556306824,-0.7398216164802629,-0.005548476567357526,0.18913584877179157,1.78125
0.03058284453881632,0.022260085624771563,-0.00751957059621073,0.0014696111913709135,-0.012075530815876005,0.007575009868210611,-0.00019098536113909304,0.7923425254756585,-0.004491156853069601,-0.7069598331427184,0.026111413671489586,-0.13724814731234267,-0.019379588277734557,0.009472544983193517,1.7890625
0.3305033233610282,0.055463617898163405,-0.05396217265796999,-0.010344897491234892,-0.0066062386890005055,0.013612643847081532,0.012485476068632461,0.6526966191141115,-0.00031486737696335607,-1.5472183568650135,0.01680328477151998,0.7983001365153193,-0.021461314691911697,-0.24041401935937914,1.796875
0.9566777583339771,0.12898858490989668,-0.15141699497678207,-0.03444361288091421,0.0023338603489575587,0.02780128424396329,0.038496917606876624,0.5376563464917288,0.007283518020047431,-3.4350129632045574,0.003338280283489485,2.700601668383779,-0.029755323514916176,-0.7546873624503705,1.8046875
1.3467267626016948,0.18023133026997729,-0.21275358001841813,-0.048735740448165005,0.004694211741532196,0.038700633314064356,0.054110578340548575,0.6942473429430088,0.010567843108653932,-4.786268347926561,0.0027026751954456803,3.8202188493218974,-0.040054998201955336,-1.065532117703484,1.8125
0.8622683339596803,0.11149775660730446,-0.13593693274351307,-0.03161968767579448,0.00475919523270584,0.02319746363634727,0.03526850655749926,0.28640330191649194,0.007840223923844033,-2.9382457881865878,-0.003809236208222352,2.489537587909791,-0.02240517721912016,-0.6881199438508898,1.8203125
-0.04098409590119596,-0.02449855544921471,0.008183715056300559,-0.0007494566222578247,0.009505232453841982,-0.00867432226807475,0.0009870953181790082,-0.8029982481032408,0.004843488683124032,0.759423193387637,-0.027118182811764344,0.10291109342478306,0.01789555505506773,0.0018089289993465337,1.828125
-0.45786809698869996,-0.09135048357791312,0.07516455359501058,0.01295771547682391,0.014103326518871783,-0.024930705747939524,-0.014393713448537942,-1.476926389651323,0.004547655455322329,2.597615072229904,-0.04369225370571122,-0.949547154521075,0.0403485383747627,0.3131110545396317,1.8359375
-0.38403447165558446,-0.07989975466724472,0.06332531785194553,0.010474608590191139,0.013515088430024367,-0.02218785377204587,-0.011629654378121985,-1.3731506540691103,0.004701166045220228,2.2834773455751947,-0.04128935622850501,-0.7584904679305089,0.036721670597805636,0.25736897527925495,1.84375
-0.41197099839065315,-0.07615937631752147,0.0668399031691691,0.012471134496668203,0.008971807138400283,-0.020141216471920298,-0.013551475477379395,-1.0727098368140375,0.0024885622813429686,2.139285745751343,-0.030652638118109886,-0.9277066171318927,0.03043565077938085,0.2926659183234086,1.8515625
-0.5056328999962454,-0.07038891806361616,0.07943240459337461,0.018259009811225035,-0.0022454673729257533,-0.015874925541454334,-0.019254345376075857,-0.35266917925181673,-0.0031088350375359534,1.8757795324502107,-0.004713494615686006,-1.4126489932028916,0.01580726407625654,0.3986666779496779,1.859375
-0.17808151314177673,0.006635517249272933,0.02387518132568651,0.010651587394847728,-0.020277505118984678,0.006237920068164417,-0.00981516269809531,1.2023810782734436,-0.009381619789850876,-0.368307485349044,0.04325550135462217,-0.877290910664658,-0.025018312416866657,0.19623177313271864,1.8671875
0.310412445217502,0.08981806589392828,-0.055223712880090106,-0.004808022565788499,-0.028506921901364012,0.027146527782085785,0.007684657685343839,2.1942673883473898,-0.01031320380587763,-2.682872440519116,0.06959561718941301,0.29921642914902324,-0.05592514575114235,-0.16040510550050785,1.875
0.07030288795247597,0.029509855325039955,-0.014052994938924321,0.0002612535284861697,-0.013020794377016039,0.009478125529217417,0.0011803514146945307,0.8931191621199781,-0.004690074119674307,-0.9132390564198898,0.028951459131367922,-0.04701878037267945,-0.02236656627684474,-0.018691769322533316,1.8828125
-0.9232801566622717,-0.15002177595621452,0.14802891018154352,0.03034531074897302,0.00981488443027223,-0.03697660062347185,-0.03329660006468608,-1.5579186053809502,-4.061270097730171e-05,4.129794074860386,-0.039368297894805844,-2.31592011534108,0.050270502720536056,0.6887041302977526,1.890625
-1.4282302767722213,-0.22588464868964286,0.2285767364849083,0.047632998218773,0.012365807440387249,-0.05473325600638081,-0.05247710347062343,-2.1597556968538556,-0.0017650471654945675,6.191915786587561,-0.05216800776719326,-3.6525646855275453,0.0726481369009123,1.0747117740584735,1.8984375
-0.5429572077007586,-0.0701035277095838,0.08466846938779148,0.020292492789405522,-0.005517558696687531,-0.014943554640932746,-0.02130360942212625,-0.1514091581049926,-0.004797478284274394,1.8352807704575833,0.00272230304137124,-1.581368841895045,0.01189913158962685,0.437133632809772,1.90625
0.9278036834644343,0.16745506502446006,-0.15189590493661786,-0.027892289595777223,-0.022721709681753008,0.04308126334274267,0.032777566231900056,2.2960656769687153,-0.004190258168292916,-4.710780895153,0.06364014264513258,2.113243923295109,-0.06895065173550301,-0.658644740886808,1.9140625
1.4426984033513424,0.2517415841055523,-0.2348557031461583,-0.044618751751473076,-0.029415089697344604,0.06383881207177422,0.05158570492915906,3.201071838658352,-0.0042811532724667395,-7.039777410752293,0.08660583604805532,3.39322829041654,-0.0983439346523062,-1.0401242137445625,1.921875
0.7436029483005165,0.14610560979064025,-0.12327906573070715,-0.020773017809223315,-0.02553377083057398,0.039045586906369896,0.02508954384873221,2.343719868771747,-0.006509423731944105,-4.166263600247672,0.06807087023973467,1.55013944114019,-0.06682599809435213,-0.5065218099770588,1.9296875
0.05469039020434671,0.010641610806438431,-0.009567475344123562,-0.001338629366875184,-0.0032189099375905294,0.0026293399331873547,0.0023736470808380207,0.18254297125539135,-0.0003573639087348715,-0.3103624087416051,0.004988739753060257,0.10836836015772473,-0.006040044150872882,-0.03526450825023571,1.9375
0.21982837695344956,-0.03028178228691945,-0.028044027059898422,-0.015510681886829907,0.03467543140998538,-0.016653145309960277,0.015754126213470908,-2.3771060634750953,0.017689474657917415,1.1607732237750255,-0.08468390430154107,1.330009792087461,0.0488964560556106,-0.2755674819114737,1.9453125
0.589840650523725,-0.011983464219070287,-0.08261256995473341,-0.033008148309077966,0.05476848446100936,-0.017869491163583516,0.03384052080102751,-3.4991466746528936,0.02886572235669658,0.8668785762544178,-0.12853650255257382,2.7542876542242465,0.0678086947486682,-0.623042017294372,1.953125
0.29695923828285337,-0.018230563070390268,-0.04042367322551601,-0.018091205798775156,0.033998856329145025,-0.01374917475245699,0.018630223570796172,-2.264309799389134,0.01782219914319953,0.8301353058870111,-0.08203028973848751,1.528409671192694,0.04501845267829095,-0.33351060527163506,1.9609375
-0.2914032983018204,-0.04922657522782805,0.04655654527480234,0.009483743254719597,0.0031613555932741913,-0.012531106759389567,-0.009926742303888455,-0.5590191072210144,0.0005530821176348329,1.3589897270518392,-0.014990585722322708,-0.7137505554511636,0.016730943996135998,0.2158356467405669,1.96875
-0.3986790772668745,-0.05925878855644602,0.06294349332683721,0.0139434638509544,0.00013008813627833176,-0.013992723977388008,-0.014657750708410047,-0.43279872227864297,-0.0014247302113284672,1.5990273537998934,-0.009052475005864348,-1.0700429061939518,0.01573828448132397,0.3082131903697792,1.9765625
-0.35699001317875234,-0.05654693207499498,0.05672069827948937,0.012061084610050623,0.0020201876444017482,-0.013898657840783672,-0.012686142385547201,-0.5329704575778417,-0.0003339204593285034,1.5461790904228243,-0.013107472442730524,-0.917221061528179,0.017284667690721636,0.27000400464489815,1.984375
-0.8615008511815357,-0.0725293012311354,0.13004218876374699,0.03708868047503127,-0.03066409188470347,-0.008822503221904672,-0.03831432466547045,1.3731918477596068,-0.01796035662854815,1.6551988209883404,0.059477281533761764,-2.966574601371216,-0.016974222849922983,0.7594137454723819,1.9921875
-1.248285776758338,-0.068103171259515,0.18426119741766675,0.05843295575526253,-0.06555116753373758,0.001444884364592773,-0.05976822235790799,3.5341675461385367,-0.03591021408032134,1.1929343841895022,0.13896207417169565,-4.736843427706634,-0.059056441109689224,1.1636418429046367,2.0
-0.3604625626151641,0.013319134784118433,0.048861525983384974,0.021302278647043787,-0.0394332357340547,0.012846078473430311,-0.02042815759639123,2.41405775520064,-0.0190652837659108,-0.7384033468559001,0.08730747857557135,-1.7668263676332563,-0.04922429745115669,0.3948480774028231,2.0078125
1.123275435754873,0.1114159694946551,-0.17288009520338243,-0.04566655046795859,0.026590869854154386,0.017396469005912678,0.049426628450038854,-1.0500995273475433,0.019184563266599574,-2.724639877894435,-0.053259904775050944,3.650025034485792,0.003198165677929753,-0.9559036641127109,2.015625
1.3307571097655286,0.10324330686581448,-0.20126677406461177,-0.057865455760820306,0.048718659175472204,0.009678422297155296,0.061563793931955574,-2.4519310926621407,0.030351487457192915,-2.2872652855541213,-0.10416824316627045,4.668707731650003,0.03126728740092836,-1.1827318900981174,2.0234375
0.1646172471269153,0.0014846828287210564,-0.024033194699173317,-0.008425960008472004,0.011352257898832426,-0.0033048687834302875,0.009328499923796123,-0.7627320099056701,0.006842653606094269,0.07909504112286811,-0.028885510404306872,0.7056178741471623,0.013412972270202713,-0.163856922330074,2.03125
-0.5927792099052004,-0.05255304194165724,0.08963767377623462,0.02524533958678128,-0.020018186743744608,-0.007138166083859531,-0.025903898971512584,0.8394292501500185,-0.011629204977234207,1.2225768699818806,0.03721707244464406,-2.0120764981493626,-0.009609611413057296,0.518736155856121,2.0390625
-0.2590232729549285,-0.015725428236180946,0.0379908873433779,0.012092152550264421,-0.013862346184310164,-0.00048426224402349396,-0.011789246569707399,0.6786916173834351,-0.006946806538227707,0.29386201247273275,0.026665982541601595,-0.9694937712213217,-0.011801851509478822,0.24040718764935834,2.046875
0.007246864262048737,0.007394613567210854,-0.0024720307542269943,0.00078383034196152,-0.0052622422900787166,0.0024393254379121215,0.00015045287671439125,0.28823100914845645,-0.001546923011429722,-0.24366690582457737,0.00931697107634811,-0.06305217461351359,-0.007615932348522245,0.007555323099463378,2.0546875
-0.3482579549098171,-0.028977264172778353,0.05218848173389468,0.015158830788599758,-0.013502213943958305,-0.0035530155352877387,-0.015193730429530506,0.5792380072138471,-0.007292402318791925,0.6513087896343103,0.024640904869305046,-1.2075316314831535,-0.00799298135814153,0.3089809635538619,2.0625
-0.4697729191091059,-0.043523316012024964,0.07113089275393977,0.019805196358593874,-0.015073470741187839,-0.006411901584057185,-0.0202090615972465,0.5901135338247431,-0.008695848430366599,1.0275863674366552,0.02685198137865103,-1.5737920751706214,-0.006112139228748794,0.408409896793989,2.0703125
-0.02076908651553023,-0.003098453313120065,0.002752498292638993,0.0009399742040576151,-0.0014160951765537755,-0.000951507640677368,-0.0002303968708368514,-0.00858439459837655,2.6569744420121367e-05,0.07803622409820105,-0.0003855543214172755,-0.06284844283335606,-0.00039455196673846037,0.0182497374444371,2.078125
0.2969743038346396,0.02472460444908235,-0.04555239577205443,-0.012519218471161527,0.008711759345656619,0.0026162276737771717,0.01399150769006227,-0.46535408718364757,0.006410315334091605,-0.5697828206442889,-0.020774265708883684,1.0160274271351393,0.0043882862928204,-0.25928742356074586,2.0859375
0.3632061047696883,0.029501141042845905,-0.05551459477474023,-0.01546455454813327,0.01142078123565161,0.0029808391551990098,0.01706489442879867,-0.6029830283076739,0.008010647928113124,-0.6732768217957417,-0.02645832965388326,1.2531288214765097,0.006333932422785306,-0.31887803070496756,2.09375
0.7357231683703012,0.07321420010424994,-0.11347387056152439,-0.0298014513757243,0.01674520576937664,0.011412378317697315,0.03253825583964461,-0.6716385259860966,0.012532353564368395,-1.7950757660420635,-0.03448108018350237,2.3849289066816564,0.001410437044576594,-0.6247496915272628,2.1015625
1.0908592054664659,0.11922384641504802,-0.16922474761062892,-0.042897360546821486,0.019272591669796682,0.02108815166213054,0.04682284443301009,-0.5559170724163869,0.01569329708592698,-3.0038773565482773,-0.03597344092161158,3.4121251127279737,-0.007360811011987473,-0.9088750117220411,2.109375
0.5213884486094652,0.04899612747902344,-0.08020694505278173,-0.0214162713882946,0.013131235923996133,0.006902275812220432,0.023535995247195532,-0.592869872477315,0.009680216830482358,-1.1777487378362388,-0.028551479858438165,1.7221470575485933,0.003381311863375824,-0.4470571471495529,2.1171875
-0.647787493461269,-0.11363262612858256,0.10471717763248636,0.020274426726723176,0.011381653353719245,-0.029229451117589053,-0.022283035855805607,-1.4412892213547643,0.002236947179695548,3.169833118899271,-0.03959221508504518,-1.5270077778398414,0.04285225865024116,0.469130273259673,2.125
-1.1138055208440947,-0.18647646370990756,0.17936874606125028,0.035841744339246535,0.015407367276766216,-0.04667603606553977,-0.03968008783828227,-2.1153678822513307,0.001402462492481502,5.1631006221771605,-0.05541924441289622,-2.7260379464852287,0.06615674220399523,0.8204189676106227,2.1328125
-0.6086440116477099,-0.08808081195419994,0.09610365051273574,0.021471193410803793,-0.0004086411869448865,-0.020324043882373997,-0.022925283778423018,-0.5691779738360421,-0.0028629855866002317,2.3660132122362283,-0.01047756413047504,-1.6577625715073252,0.022453351810255248,0.4733481541060953,2.140625
-0.11434192297213483,0.05071930025432328,0.009563220281279778,0.012935834656749025,-0.04092949500825249,0.021664323183838468,-0.01112531947490228,2.725951284161879,-0.01834439598800583,-1.7568564042119905,0.0941655827465269,-1.120408855079224,-0.06054369144105423,0.20741051737698982,2.1484375
-0.13772332583174537,0.08927806064737821,0.008274165899270656,0.019201733069731546,-0.06559000961953257,0.036875500936031536,-0.016558535954681868,4.461279715758314,-0.0296114425994678,-3.032661533472265,0.15359551410587713,-1.6847169831503062,-0.09931504763679677,0.29811877480331495,2.15625
-0.155046003885238,0.049747121464040145,0.015451088187430573,0.01500634037135416,-0.04374208789056463,0.022169812565624576,-0.013221402646891355,2.891647131263461,-0.019845059160362236,-1.7558840651500225,0.10041202131583479,-1.2895176678830595,-0.06356034658685465,0.2472310725474161,2.1640625
0.16620546832022576,0.022645791087831282,-0.026780804872630178,-0.005765597810239901,-0.0009725972678290403,0.004717216631108933,0.007127839558210422,0.1150299441141441,0.0012939823226729898,-0.6084999900103066,0.000977904527520856,0.4604889621494368,-0.006441298602511785,-0.12894611197098055,2.171875
0.33092020625987784,0.01198430475575425,-0.048825714045114516,-0.015998811818720347,0.019040206571888058,-0.0029843425646092947,0.017207370096656505,-1.1719256960641053,0.011265310731381597,-0.12739898702745495,-0.04534415978953772,1.3187733107404644,0.019750738315551776,-0.3160549369562802,2.1796875
-0.0595402745231484,-0.03068887248239854,0.0115250508813404,-0.0005660761222609473,0.011585638312305767,-0.010595892242918273,0.00064328672644167,-0.9659555205948657,0.005674999242474574,0.9433148197992626,-0.03237305916495005,0.09420924443974203,0.02188178860467729,0.010295103615277865,2.1875
-0.4743895284193142,-0.07842730875689305,0.075938624214726,0.015522283560581213,0.005093636035409998,-0.01961314853341708,-0.016690594982556428,-0.8491138982450287,0.0003838301742167359,2.161437279606409,-0.022073111521045567,-1.1776465734134833,0.02646030686081887,0.35270770756001824,2.1953125
-0.13354441979343615,-0.052461748678171986,0.024599104521071852,0.0005872465373706839,0.018251678680373175,-0.01727313809928132,-0.0010109013806460722,-1.5022126679499241,0.008267121869079741,1.595215703728914,-0.04951307214813166,0.02610433649609679,0.03529056921689939,0.04827741908009255,2.203125
0.685368844257244,0.024975605555626394,-0.10056041286581098,-0.03334784705157497,0.04097238984000749,-0.005886548530920114,0.03502531764481679,-2.4378259795423896,0.023184319337570838,-0.2603480072177901,-0.09385646167700795,2.737493056922355,0.04217820398317198,-0.6568607067470437,2.2109375
0.8355248103532993,0.033170423794283706,-0.12280505689826958,-0.040351251162899074,0.048665455724615884,-0.006078624068622765,0.042278583305801754,-2.859954584642391,0.027506747176685154,-0.4066002042338114,-0.1105150069370148,3.3058896850404063,0.0490889425959813,-0.7965182723784888,2.21875
0.05302246554453722,-0.040045131999256335,-0.00330605722463658,-0.007826056866313836,0.02649432018323128,-0.01665944187490354,0.007759250290171937,-1.9329475771341036,0.013042454613580334,1.3401677251265796,-0.06701549457459152,0.7056957230932692,0.04175319381684116,-0.12142468111516012,2.2265625
-0.4526167120153352,-0.039998843875372975,0.06827187462239259,0.019335273125307247,-0.01571599226834353,-0.005448821622535846,-0.019660869046431818,0.649727449496902,-0.008885845432441154,0.9259254544017255,0.028633883737443834,-1.5392633158660645,-0.007775510757593247,0.3967606189136958,2.234375
0.0851141542254464,0.09853451479343056,-0.02437864051173876,0.008428389960096885,-0.052440232143896426,0.035458466127447595,-0.005470809594207685,3.7097753598093552,-0.02239949748126484,-3.1513871226196275,0.12462158590514893,-0.8052804683949889,-0.08621909623040615,0.085600221056285,2.2421875
0.6092334242475774,0.1945583510261953,-0.11003606336845022,-0.00725962168286514,-0.06527205136246003,0.0604663311153381,0.012572181607427815,5.058910238778731,-0.025210700729381186,-5.854341500587223,0.16255648057848276,0.3750716423223374,-0.12578882527209218,-0.2851067530411844,2.25
-0.0036782228420658555,0.08476410599795842,-0.010157640539776108,0.011418093232573437,-0.0517473044697744,0.03217717463886382,-0.008799616005284037,3.5871937722601763,-0.022596737871996134,-2.774687192836873,0.121788328807166,-1.0358117050079612,-0.08189443821683734,0.15296115433538182,2.2578125
-0.9637598097665925,-0.1045642930095921,0.14837160929279244,0.0384183441388369,-0.020333606295700503,-0.018756948146188397,-0.040401688555741874,0.5535214399842776,-0.013879157304015122,2.6152753037136063,0.03314478801553723,-3.0380395022646023,0.003297885531201296,0.808909250248787,2.265625
-0.8658246872299995,-0.1472378813994681,0.1396052117076998,0.027617368494176214,0.012979635180164442,-0.037201270128147154,-0.03048095417139555,-1.7356111751272398,0.0017187376367017984,4.08686133988181,-0.04628044525941523,-2.0934797466730446,0.05327982503606584,0.6345149875657511,2.2734375
0.062097818050817405,-0.04963115603953623,-0.0034228419947395167,-0.009556397334890275,0.03290925956134671,-0.020528109695515988,0.00928744627108512,-2.3819634725258743,0.015994718721960052,1.6616159094797325,-0.08244345922303095,0.8608616409840659,0.05174581597993125,-0.14736911866216454,2.28125
0.6228737302086146,0.0182240686103489,-0.09091950915438968,-0.03086388406152168,0.0397235825868838,-0.007066331161815704,0.03236408494095226,-2.4003820643287166,0.02225861218083533,-0.09268410310057067,-0.09163746768157563,2.539975843896387,0.04242397715618196,-0.604397364924454,2.2890625
0.6333517530439909,0.013569375568539722,-0.091840346614122,-0.032025970722160194,0.04333713916498531,-0.0090725860508332,0.03343662164623906,-2.649046463346557,0.023949566963390533,0.06855923521880734,-0.10026700908350494,2.641963523806572,0.047858946243182356,-0.6231453429201297,2.296875
0.6378954914008151,0.021208376113028966,-0.09339118805893226,-0.03128619155284564,0.039221420929721154,-0.006262114737004382,0.0328574518317382,-2.3527969084049896,0.02212152515737197,-0.1770746578151799,-0.09023385758094028,2.5714964955713584,0.04107517941031652,-0.6146944919497409,2.3046875
0.4655117707382708,0.04044052409314766,-0.07129564871558956,-0.019544472479339155,0.013515596699957303,0.004890693798904888,0.021432010920277814,-0.6670390193979326,0.009538724728443165,-0.9468121416612294,-0.030191672277482078,1.5770743088652037,0.005991500699709424,-0.40486162247901314,2.3125
-0.33856333840474334,-0.009662904094096727,0.04850051218014958,0.01713883271095021,-0.024060600577823367,0.0035933298338396043,-0.016751959444499614,1.338358181298045,-0.012002108195527737,0.028995937013465017,0.0503490573863683,-1.394829043977681,-0.025308039684556277,0.33238202014005636,2.3203125
-1.2171022104491394,-0.10214325408979863,0.18391114139098444,0.05233558111498352,-0.042893550477407616,-0.012220466266184697,-0.05439488836865071,1.9479619137769024,-0.02550697485047305,2.3280135470491565,0.08448648076685404,-4.1918264098009415,-0.023782989797531223,1.072616457116679,2.328125
-1.1870971225077314,-0.11177344899943405,0.18082227516424262,0.04948390782157819,-0.034723391185432016,-0.016563635223418315,-0.05172972343231191,1.3914058804863412,-0.021648639687175324,2.66822445606457,0.06506751474444317,-3.943859312965209,-0.011734040392395543,1.0252079002826096,2.3359375
-0.38434367950199233,-0.016933681825614402,0.055863709260583004,0.01867115431625174,-0.023610596767494062,0.0018246963020644507,-0.01845458043938244,1.2681421886973314,-0.01206102614255512,0.23123640541731916,0.04863457445913699,-1.5117103402170646,-0.022924738145492653,0.36676500318073824,2.34375
0.20475888278899404,0.06689014963804853,-0.03754084901952186,-0.0021036894187935625,-0.023831063775657562,0.0207517246556968,0.0044286355288616665,1.7738683701495335,-0.008805271518598551,-2.0227087039274396,0.05688557045572477,0.10345936276259822,-0.04460233247258738,-0.09175718102365057,2.3515625
0.2849267662082048,0.07077939104277389,-0.04935471245808794,-0.0059098982454214,-0.019430934691195806,0.020466485386777467,0.008357445287357775,1.5276370897321518,-0.006362387787725233,-2.084844732118874,0.04728428070017925,0.4129507262640934,-0.04042667328601762,-0.16706871579739516,2.359375
0.3460360809007619,0.04630354962935053,-0.05507936234568668,-0.012362107868097934,8.563537436163757e-05,0.009776830178680529,0.014318835922897233,0.1897800887020728,0.0027942184445071787,-1.2351921776693195,0.0007878786323537712,0.9761598223970875,-0.011253428010006785,-0.27198097337699034,2.3671875
0.48098753997812127,0.03838393745704704,-0.07323382004049805,-0.020630385929979723,0.01601424560179337,0.0037578525984850166,0.02249330587203012,-0.8315370133729222,0.010751899696948685,-0.8645270277287592,-0.03605671020278999,1.6697263510082763,0.009472866882444595,-0.4240430535431987,2.375
0.3692350171567392,0.02567007580212411,-0.05589408378301633,-0.016278762186754888,0.014185889419743997,0.0013784574520083962,0.017807590324901486,-0.7945485512078206,0.00929082979095916,-0.5411294044685505,-0.033086033975419746,1.3255611837041954,0.010563719961947913,-0.33171534045335715,2.3828125
0.2756555025107698,0.013039849896815189,-0.04113163111606379,-0.01289771058880286,0.013818303799769649,-0.0013598227887127287,0.01409841440334421,-0.8462838818417091,0.008592324635479771,-0.2075319511108244,-0.03340240906700155,1.061078094842433,0.013340615922189807,-0.25777135778683663,2.390625
0.6835695552778059,0.03952834637233467,-0.1020244220524916,-0.03136972228842158,0.032241238936990435,-0.00028340094212898426,0.03335436966547221,-1.8178537313738223,0.019229094784313557,-0.7391741613304904,-0.07270025054005069,2.5556839263492077,0.028194628910424503,-0.6297751337930474,2.3984375
1.0483143629575833,0.069997727725228,-0.15729040908847047,-0.046997483944462654,0.04471972611184628,0.0032555299964438502,0.04983833655564869,-2.402246009309444,0.02693656593780056,-1.433733809745908,-0.09817864698056615,3.8108130888562153,0.035071378795489154,-0.9506095100205268,2.40625
0.4142241821568443,0.022307828751950375,-0.061850652680718016,-0.019120764557529053,0.019910937278450516,-0.0009021872129148014,0.020608184096241787,-1.1641631077237744,0.012128725038590827,-0.3948307017464997,-0.04637303367352407,1.5647542755163224,0.018145457071300906,-0.38345594351725515,2.4140625
-0.8373272971079091,-0.08215344607788985,0.1277691135288332,0.03454306638137378,-0.022972275749005663,-0.013028911990333202,-0.03596642235126346,0.8463127350669237,-0.014350960021369229,1.9894071261578679,0.04116730602337464,-2.744356208453111,-0.0055078465391729,0.7179567512378805,2.421875
-1.3879273385476452,-0.1336819740685423,0.21185778293176266,0.05742085216294003,-0.03856291416746197,-0.0204752440484251,-0.06025228355243305,1.4975694020114492,-0.024521579404906253,3.2181332687115356,0.07175447589802167,-4.573327704011525,-0.010655664096464602,1.1928617025553936,2.4296875
-0.956077100675612,-0.09832321999855098,0.14650556262336742,0.03880869935250157,-0.023372844749812504,-0.01653614570256488,-0.04065708410976652,0.7757896456948093,-0.015207763874199653,2.415557072282133,0.04060578885273833,-3.0783210000596206,-0.0018667440568096289,0.8117109294637415,2.4375
-0.3975406433032957,-0.04094077922546274,0.06057967321881206,0.01625556356359721,-0.010578609542115761,-0.007013772636704186,-0.016573813856392627,0.3300970808974843,-0.006254580903399494,0.9998653071533177,0.016910403129958694,-1.2839758901871132,-0.001507697681171431,0.33889738654611645,2.4453125
-0.14208172724220924,-0.005114583108595021,0.020129599557766557,0.007184907600442804,-0.010357950834438306,0.0009838132689794384,-0.00659310211627465,0.5269888045602742,-0.004699593559466745,0.04190899132382667,0.019707783799058933,-0.5772872199245953,-0.010389960938840865,0.13912573083770224,2.453125
0.07587207443719539,0.01893087971461255,-0.01358195696008123,-0.0014012759219412293,-0.006321691469306799,0.005313404086598187,0.002629822194422628,0.42086724230665945,-0.0016340851272858017,-0.5618751900129387,0.012767512790215721,0.10394372933139705,-0.011780838217274981,-0.04274192957886127,2.4609375
0.3062465507849851,0.03673261424165116,-0.048291840186273735,-0.011465776439275637,0.002416551679409451,0.006996019694970554,0.013199238127150431,-0.009594496598118597,0.003621917625233427,-0.9539798672226087,-0.005391265146446271,0.9143604279821432,-0.006072119122875514,-0.24805281689141262,2.46875
0.3590768137117435,0.042967338961471195,-0.05650750793611591,-0.013496950742640228,0.0031401191229554503,0.00821257750457263,0.015386605178284397,-0.0171601019834952,0.004245970490687886,-1.1161834134246877,-0.0064391760044216675,1.0739791446810831,-0.0068347233922370024,-0.2913192171278996,2.4765625
0.3017560327856602,0.04177400957727471,-0.04826739504113595,-0.010576424404572498,-0.000949539326829676,0.009036041494400626,0.01240352613018462,0.22630126552125499,0.0020716028143892375,-1.1255319229467469,0.002729331139662473,0.8334313573509039,-0.011344117705543375,-0.23458845779581394,2.484375
0.2700619719888851,0.037848323869086056,-0.043318843889055256,-0.009382311433780856,-0.0012756042899918889,0.00823495250278487,0.011110868442206169,0.22310737757075855,0.0017465185969278605,-1.0221699235865005,0.003094306638210025,0.7398708001949564,-0.010708952376322751,-0.2089408183160743,2.4921875
0.23771446051471096,0.035134410992998015,-0.03839839905665344,-0.007989014146156192,-0.0023623652641773375,0.007899354995816758,0.009654570690809727,0.2734463707635261,0.0010752501783800707,-0.9576106191009451,0.005285483888162444,0.6289202732250067,-0.01126065351827162,-0.18051025218898614,2.5
0.17548612151211065,0.029169584271117564,-0.028864412856483543,-0.005412213456364538,-0.00403921042678005,0.006994348749074325,0.006924656591260927,0.34117156230833934,-3.663281278799875e-05,-0.8128711425213812,0.008528489416095717,0.42355800609176286,-0.011697010585378496,-0.1270041136384648,2.5078125
-0.004308078721783149,-0.009526005547260694,0.0011955814961939273,-0.000774961456855494,0.0037406255834100473,-0.0037726206465393867,0.001352456385106638,-0.3616603490359589,0.0024478973372131017,0.3011673992773916,-0.012660913562327033,0.08676390758973802,0.007291948488727878,-0.00972464029504143,2.515625
-0.373587656205294,-0.07830155816844978,0.06166745675257497,0.010130891680631495,0.01343256139813378,-0.02181163720150525,-0.011241344242501972,-1.35834647060457,0.004718787651002843,2.2407552270175795,-0.04095630315800197,-0.7318067567785644,0.03620446925072882,0.24952886400154323,2.5234375
-0.519056659450439,-0.08654481043141851,0.08324774838469029,0.01687160118453027,0.0061551118856446535,-0.02173204006865738,-0.018236285491279085,-0.9615343408388771,0.0006066365478695561,2.3899972763967754,-0.025220557743731758,-1.2789628451990418,0.02976791639995989,0.3842645236481842,2.53125
0.05567590039463138,0.021310416442289568,-0.010981900428466774,-1.2574304551278394e-06,-0.009416366992650603,0.00666954085183399,0.0012750593137208603,0.624571402973333,-0.0031502331572624033,-0.6574654583648751,0.020012849981754996,-0.014681374500159383,-0.016032032375846265,-0.01783116579527259,2.5390625
0.8094493445563354,0.12658235647753924,-0.13026321504894953,-0.02682534706603028,-0.008534467240399149,0.03012558150509526,0.030773029460875984,1.1887873602926566,0.0015375813999630018,-3.4741984944572293,0.027717802175635322,2.0750711315092065,-0.04186508436531021,-0.607839196482435,2.546875
0.6729881395287589,0.08498995886644276,-0.10599047236107173,-0.024896169595862844,0.0045793425601520915,0.017288754372962303,0.02787085626045529,0.141874940483445,0.006680877992310211,-2.2293842472449295,-0.0058415597913800115,1.965772472922424,-0.015851743210475264,-0.54009266368499,2.5546875
-0.18131761355813203,-0.04207080360711559,0.03011816204308975,0.004493440318525216,0.008149679457798533,-0.012250407698174922,-0.004720748007868557,-0.8231048558223136,0.003432795157403915,1.2156926312296255,-0.025647090729040804,-0.30990857425048796,0.02077501269284971,0.11510550390632059,2.5625
-0.5541623113114407,-0.08885498186767364,0.08848766810327505,0.01844198829891964,0.004602193821873046,-0.021837683252486348,-0.01988525017973326,-0.8808128458870182,-0.0002883121519019057,2.436423370877555,-0.021912025178405382,-1.4064308869539626,0.028545330863871246,0.41605850467332756,2.5703125
-0.18695319595218884,-0.043303632988784,0.031059047811579907,0.004633322365098677,0.008401357326515915,-0.012596026910028514,-0.004900660726388125,-0.8455014371767011,0.003516132390111709,1.2513096830825683,-0.026321727413945447,-0.32017927469579965,0.021369918953549314,0.11877617918703086,2.578125
0.07589822780098555,-0.01401473792298786,-0.009650906101296642,-0.005672201554060416,0.013070227809516478,-0.007246602381987485,0.006186691298563356,-0.9590623536337135,0.007117853564606982,0.5118600034560609,-0.034219657467229284,0.4965908998952311,0.019383320507559455,-0.09968163408905656,2.5859375
-0.08522954945551514,-0.024261450180708567,0.014397424699841533,0.0016593128777533225,0.00566321444505376,-0.007591448477133238,-0.0014407138216423708,-0.5661693968545771,0.0028566888177520666,0.7151645377463923,-0.01839039568274561,-0.09654625412881515,0.013316158031938414,0.04769177701115053,2.59375
-0.21788972079208552,-0.017513911458060916,0.03238794832849319,0.009652806276471946,-0.009370228151741539,-0.0020833108022486483,-0.0093628758269597,0.3932516944004718,-0.004683822359464129,0.3862264993986022,0.016317592032065946,-0.7655625598784279,-0.0060622508849993905,0.19518276329829193,2.6015625
-0.19701369641504793,0.010076637570890173,0.026132401363077346,0.012098315739752875,-0.023876933170411927,0.007983705958652935,-0.011213564530869425,1.443045807727071,-0.011112948408061265,-0.49845232812885,0.05176309835462679,-1.0018487406667074,-0.030149023325681416,0.22151039678725182,2.609375
-0.2490006589320837,0.02405235864609883,0.031805244080836195,0.016700877473595083,-0.03645487266453843,0.014472823417094948,-0.015542547128901657,2.294805354738105,-0.01708681075506795,-0.9980852915895673,0.0815561459406441,-1.3997154773551792,-0.04847195530900686,0.2990946958358999,2.6171875
-0.26760227231773653,0.0257741698313832,0.03423236446811313,0.017933850106105903,-0.03902827420257804,0.01553609944386471,-0.016736388753299372,2.4623397501699467,-0.01835552401990697,-1.0680449002311911,0.08752384212201565,-1.5033353074888143,-0.05190933182317129,0.32125659345625485,2.625
-0.0749580936137817,0.02389122595514614,0.007204293343709849,0.007353374168570736,-0.021840303815611136,0.010538193500994709,-0.006087147171904124,1.399691572009151,-0.009502681541612028,-0.8462921117767159,0.04838782757815832,-0.6256881716777706,-0.03125236037005488,0.1205359325585803,2.6328125
0.12895492774281725,0.005583542087184832,-0.019466270587031303,-0.005974453046960009,0.00596762481623816,-0.0009628247392693266,0.0069479470978395545,-0.4091039215342455,0.004208698945165434,-0.08176271086177646,-0.016305584480025306,0.4984411936045162,0.006038047521364162,-0.12027947754509641,2.640625
0.16376474970131824,-0.01919997733264682,-0.02144787569293069,-0.011066164949086443,0.02346953910480506,-0.01117343440412744,0.011513994538701347,-1.6254933313778144,0.01230773628362597,0.7528345739114616,-0.05824092188026407,0.9489705458148094,0.032889805901051485,-0.19891151541640342,2.6484375
0.1418541893627129,-0.01918693170442109,-0.0183654127079664,-0.009888706744771705,0.02162199443774309,-0.010672329370809107,0.010324134935261282,-1.5124904237372063,0.011350776689810686,0.7326257496358827,-0.054059183316117254,0.8512712993616067,0.030722707691296723,-0.17630911578509817,2.65625
0.1582572770705948,0.002207199843809323,-0.02323976169057721,-0.007987774481594951,0.010383589500782235,-0.002881793774972967,0.008900534532067168,-0.6993070164740218,0.006372383410981121,0.04915407809449964,-0.02663331035710229,0.6684006437087148,0.012087301519082301,-0.15594210651754967,2.6640625
0.3077570595828392,0.01975818780935552,-0.04647975974666606,-0.013735422540739483,0.012529344579939141,0.00048443810300416505,0.015110539645375308,-0.7277214016021546,0.008193621264751353,-0.3988350251115765,-0.029885888038733828,1.122719173889641,0.010137057124842875,-0.27877757804573755,2.671875
0.7321416810687646,0.033045252435433325,-0.1081336151353797,-0.034808234937753285,0.040124390117190226,-0.003855576647131424,0.03668856267331435,-2.3385893968409803,0.023068260725235067,-0.48451472512619786,-0.09119571188184279,2.8486263650589123,0.039132932442854616,-0.690786628728856,2.6796875
1.0405365360748933,0.04199195554382335,-0.15287282216780942,-0.05022034294206394,0.06058417378661874,-0.007263347198529322,0.052446046486522575,-3.538214200595328,0.034059996701641275,-0.5257620421712689,-0.13672945401239386,4.111206992752261,0.06085442460575527,-0.9913767132941507,2.6875
0.4223639564955733,0.01952677719017261,-0.0627003956081095,-0.019940713552715025,0.02222460236821112,-0.002120095506547562,0.021353387391242706,-1.322624045342614,0.013222996398662291,-0.3009209211546855,-0.05185756166986208,1.6347740628740108,0.02156076285710484,-0.39671927067580537,2.6953125
-0.9085997361641505,-0.031962505108595794,0.1318580130550947,0.04486441533653689,-0.05850686691136565,0.007729879235876594,-0.04525544124541575,3.315573576277089,-0.030798503468565566,0.28913254520925924,0.12635957699227804,-3.659772778451617,-0.06004879980018179,0.878128186418298,2.703125
-1.4785091599807594,-0.052689343085755604,0.21502110234783073,0.07278997522056087,-0.09384096773560774,0.012435482583329266,-0.07392006659224626,5.3561975794962775,-0.04999253663362543,0.5007648222849223,0.20452166145904466,-5.9424483411375,-0.09622576475675806,1.4262082425922658,2.7109375
-0.6646590689179439,-0.0140378136742264,0.09520541299057299,0.03409522456891786,-0.04868448487958755,0.009132384863936843,-0.03396442016679505,2.819701350710791,-0.024974398160434112,-0.09171524229370494,0.10574309731547243,-2.790329455782995,-0.05309107367846525,0.6589777055483441,2.71875
0.26001384923550513,0.02222536439274468,-0.04002065206171078,-0.01086726330813975,0.007113101172447891,0.002480878622637544,0.012259939764763797,-0.38202033732846796,0.005476674976367991,-0.5180131822637907,-0.017363600261341986,0.8821385721456921,0.0031373217262677965,-0.22587711806107436,2.7265625
0.18588266098800968,-0.000824636013835325,-0.02677879700949671,-0.009878280478877816,0.014488860731101828,-0.00464980100173084,0.010730650233190888,-0.9686605320176461,0.008382706753411037,0.17044511053147046,-0.03619783854204588,0.8278989238570328,0.017667943146609865,-0.18972976249374396,2.734375
-0.21917791868774145,-0.040127305697985345,0.03524587222293586,0.0067828914720107925,0.003823998723631901,-0.010655113467921758,-0.006990554218076001,-0.5465828317758067,0.00126216796575193,1.1191615530541874,-0.015655045887949342,-0.501660840749991,0.015177883455639625,0.15743679587542614,2.7421875
-0.027685741969016946,-0.027901127321552265,0.006675649831322679,-0.0019088621822109205,0.012603448878071596,-0.010247215021134981,0.0020695909978043054,-1.012008975466529,0.006317156951054809,0.8789465648030365,-0.03443992240868142,0.20249961747496772,0.022376010992326476,-0.017617908336371075,2.75
0.3726557243580614,0.012036728610467864,-0.05475172109470206,-0.018225680545563193,0.022499303993493727,-0.0039059563912432283,0.019464615455209465,-1.3833094995366437,0.013065115502178365,-0.0929039686923052,-0.05319842204476008,1.5033441806267718,0.023820837433345034,-0.3587853627087022,2.7578125
0.3527352617326718,0.01296781071734562,-0.052027031612685494,-0.01703396497278601,0.020291420869815207,-0.0031106592669858904,0.018286794853648973,-1.2428039866177867,0.011953496402210929,-0.13918843020396585,-0.048107361588575294,1.4037468894933398,0.020993892416227188,-0.3367563027262497,2.765625
0.17743104530364584,-0.016006072894369824,-0.023756559866069706,-0.011379597562215252,0.022716305750518504,-0.010256577838260422,0.011911217235133083,-1.5610046716895294,0.012046216633875177,0.6599151781390095,-0.05625843565785459,0.9710252142466308,0.031208487130175107,-0.20721110702243778,2.7734375
0.08009062774909022,-0.01845758415064155,-0.009702870147368137,-0.006476958573696618,0.016031550767039413,-0.009022204568762635,0.0068950314082186,-1.1661233179561843,0.008474042041554605,0.6583630949529589,-0.04131913404227218,0.5681864487878552,0.023967439886700102,-0.11169265725187633,2.78125
-0.3027335555056867,0.0018943252860519587,0.0420544172312084,0.01671732895431241,-0.02788797821791968,0.007210227111915961,-0.016063846210569,1.6406904147350807,-0.013526372130710193,-0.31831209516549674,0.060093033180938914,-1.3738902962400965,-0.03276353559517012,0.31579472571570566,2.7890625
-0.774732120097738,0.0054460027249279164,0.10845597226746433,0.042531635113820264,-0.06935439143402863,0.019007012238003954,-0.042040446339797706,4.19867178053503,-0.03492847665783839,-0.819195232839902,0.15438171317656826,-3.5116487185710863,-0.08231456189547004,0.8056229284225511,2.796875
-0.4294042637306909,0.00968142051788344,0.05907233198366404,0.02454457944414511,-0.043040448461898154,0.012972846232830673,-0.02377145925034824,2.6134199796944797,-0.021087102380628945,-0.6740631332633976,0.0951252156615192,-2.0295122813350193,-0.05250772708196773,0.4591508796825206,2.8046875
0.6822606295346091,0.05113682960765096,-0.10324252961599799,-0.029780419266973984,0.02529395649668676,0.004162964952176482,0.03202907760499025,-1.3244332241829662,0.016083990732990883,-1.1163630883063358,-0.055910651388006605,2.4107679825026693,0.017096161828426586,-0.6082287018075256,2.8125
1.2565699175138276,0.08854331938575744,-0.18900491797648186,-0.05578352028407201,0.051188547071687934,0.005707438153430407,0.059128772990101955,-2.689351065585518,0.03104310939743608,-1.8670722608254862,-0.11112505681859036,4.51439368474476,0.037923711275657,-1.1320836932033198,2.8203125
0.6597762513280011,0.05217056539979733,-0.10018570962938927,-0.028459817874066172,0.02282118753761463,0.00505835722940913,0.03069788318841215,-1.1672679735498916,0.0148437186450172,-1.1703636161438666,-0.05018128089789322,2.299507586944337,0.01391152028839056,-0.5836104868353758,2.828125
-0.24533203071952572,-0.03598368575281701,0.03844894441662687,0.00871973028289979,-0.0007866410515972337,-0.008503373937764418,-0.008856245716019562,-0.2402529880794016,-0.000965289650333213,0.9637227480639409,-0.004824027988497121,-0.6667400368618933,0.008714833105275465,0.19128185068715312,2.8359375
-0.5707597369619537,-0.08652946085064153,0.09054414695224806,0.01965402655738685,0.0018224132236986806,-0.020569747542610463,-0.021039998028065277,-0.6964663345780373,-0.001642614756112291,2.3472288304256352,-0.01542069830460676,-1.5087252322040656,0.024693856954975436,0.43736145139479893,2.84375
-0.418558306399662,-0.06298705950859644,0.06620518571366163,0.014538952566289091,0.0006640499250612308,-0.01497456214848545,-0.01532786439556686,-0.48733842677787415,-0.0012999593577731068,1.7054452595250986,-0.01062796259623417,-1.114135549079448,0.01733622179971893,0.3221872566143822,2.8515625
-0.19528397533260375,-0.005783569515349416,0.02778807138700039,0.0099583979484318,-0.014383012188768706,0.0018836264397627282,-0.009400054102318032,0.7689953434286709,-0.006818925494063357,0.022434212148416375,0.028764925090728033,-0.8051708437355886,-0.014927113736812873,0.1923213082426885,2.859375
-0.009142344477310663,0.03459252566141649,-0.0033894907836214895,0.005186909991240091,-0.022632547117685545,0.013160960487965435,-0.0036724192442696654,1.510661456908778,-0.009480078641276757,-1.1433427332461261,0.051197675143690745,-0.4602397004574588,-0.03492742745012403,0.07140415281945969,2.8671875
0.07307199333511671,0.03601228755629839,-0.015221747216933368,0.0009567418140553022,-0.01662563973310954,0.011893024166828798,0.0006270332068665006,1.151549495486573,-0.006299731579007728,-1.1231891192524803,0.037707702467132044,-0.11239284883880339,-0.028245960110344536,-0.010281554655189101,2.875
-0.025422844045609252,0.0071225884252608,0.002160073206448227,0.002511448660722345,-0.007840969264621543,0.0030629442442422737,-0.001592768697514794,0.44457662120476465,-0.0028974683673510795,-0.2611490936886561,0.015115975040775623,-0.20551311548436152,-0.010554191884567072,0.04078944126171002,2.8828125
-0.15634596685524035,-0.02035071967370915,0.023990523795528317,0.00598672026969107,-0.002577523799292254,-0.0045206986084442655,-0.0057192405822396606,-0.03878732616599198,-0.0012706345397830094,0.5288304612835923,0.0006493747757513966,-0.45917563883564305,0.0026421187710761497,0.12736465130936794,2.890625
-0.15550033464105834,-0.027795524131787208,0.02478215047993806,0.004969670888963243,0.0018934774651740884,-0.007386518041396396,-0.004866143741941177,-0.35614845678904405,0.0007507428694031735,0.7727195433353985,-0.0101515681657504,-0.36623102417016873,0.009780285772623404,0.11342662673660855,2.8984375
-0.09259098423403857,-0.028818866958293488,0.015998540991476785,0.0014479592296289395,0.007749208885715942,-0.009166106207177626,-0.001345488077802446,-0.720507020299364,0.003754081475531239,0.8563446773255865,-0.023499290615474025,-0.0742880752600129,0.01690090521358013,0.04710046226123536,2.90625
-0.02914561479209829,-0.027549650490362378,0.006846125972304455,-0.0017954072076042274,0.012281780182353163,-0.01007539697653277,0.0019551573430095725,-0.990427692019764,0.006164230074374971,0.865254097487349,-0.03366174123871585,0.19214270209016818,0.021900155852622043,-0.015583120074983763,2.9140625
0.07952004554678901,-0.008993890112564571,-0.010757090157706437,-0.005213695502119932,0.010406964846771767,-0.0054063353933820005,0.005840119422464069,-0.7666820922108202,0.005937030076124938,0.34958113699878796,-0.027722488829188516,0.4526425950703788,0.014977953485038819,-0.0946272511596527,2.921875
0.10850161447070725,0.004020828548998102,-0.016389981537316908,-0.005072114538653712,0.005167258143370633,-0.0011031541030777424,0.006003760163561143,-0.3694001373968676,0.003734692104476254,-0.04835805498855405,-0.014651700623355541,0.42581072035811457,0.005510041505846158,-0.10179850041854155,2.9296875
-0.08458504180276365,-0.02579602115703239,0.01452315930563051,0.0014276405105505242,0.006636794773978603,-0.008209146412393332,-0.0012428625999782623,-0.6342243629026155,0.003297087602604133,0.7675444464604815,-0.02071512171207904,-0.0751818343131073,0.014835582448768042,0.044261735904697286,2.9375
-0.21786477238464547,-0.047647522573491786,0.03598214326442071,0.005738725261810842,0.008389624520419551,-0.013576465289577826,-0.0061048854634878115,-0.8699302628189769,0.003330172194179817,1.3690095551468033,-0.02668869388314752,-0.4056678841018473,0.022461923480078323,0.14290580193123137,2.9453125
0.08443423491207401,0.02702584210095443,-0.015760440857567625,-0.0008195750980100822,-0.010385215250014053,0.008226859918401705,0.0022187546477381082,0.7171214433756664,-0.0034219939100784817,-0.8220435641546252,0.022745448108178704,0.0451807608930127,-0.018634608816779422,-0.03745842341372736,2.953125
0.5727603260350891,0.14961242414336132,-0.09952814869376675,-0.011142652188716963,-0.04185389953949732,0.04416004214868072,0.01544813443160695,3.3624156710101043,-0.014845962292304614,-4.420657494836339,0.1053598731946299,0.7497894392339577,-0.08685620012530296,-0.3254535077534965,2.9609375
0.6666305390109977,0.16917309502634462,-0.1151262431303829,-0.013640047147511205,-0.04553415881353845,0.04952177824744487,0.018424007492544157,3.7023721792592212,-0.015973021421356898,-4.9796367082341675,0.11549746620514456,0.933029056322332,-0.09616252921876121,-0.38783638072299986,2.96875
0.3334023710123834,0.06148183500801027,-0.05508716939951705,-0.009711292908161072,-0.009894941578149791,0.015825009897072667,0.011997405218237778,0.8889846796267454,-0.001782557662283435,-1.7388801439682755,0.0247889576752203,0.7392440968944523,-0.026834203707439264,-0.233049799339774,2.9765625
-0.005162301910339603,-0.04546988278510931,0.005584314428705275,-0.005405712039538951,0.02485122851068652,-0.01745139904153133,0.005200649869514624,-1.8652307656171356,0.01197516504111793,1.4713046693696707,-0.06382441029340714,0.5128469781911958,0.04125450643121422,-0.07137442991060515,2.984375
-0.20188148397823677,-0.07757314866371698,0.03724195381154456,0.0009930951519080754,0.02733822223926216,-0.02532359976480978,-0.001999619412163405,-2.20551831964904,0.011977941214390442,2.3560339481191632,-0.07241399494197236,0.022382863650413767,0.052363105429830255,0.07478556853385361,2.9921875
-0.3498315906147525,-0.07440942910791865,0.05782004197332877,0.00935376628526372,0.01312454928793382,-0.020840113111788832,-0.01036963060305947,-1.3167176846223627,0.004717742910753942,2.1315842447511226,-0.039896384556148023,-0.6727012217268047,0.03485873102748448,0.2320392662359907,3.0
-0.3709750156478538,-0.06660118830315899,0.05990887047648195,0.011509058097822985,0.006760741379913132,-0.0174035478950396,-0.012362576591309273,-0.8814010669480619,0.0017225733474766558,1.8607355016871479,-0.024752656376896203,-0.8599102598453299,0.025387624539391522,0.2672023114566402,3.0078125
-0.28282963098689234,-0.057648138659073145,0.046373428590535754,0.007940779282612227,0.008844196068095748,-0.01595085943108338,-0.008550071702470734,-0.9565321539929673,0.0031649792243222336,1.6426422799855889,-0.028661812325651775,-0.5752015236166599,0.02555321379636362,0.19227028817027295,3.015625
-0.3941717846143045,-0.07715502646253775,0.06446013324791663,0.011390398816931602,0.011046927990753989,-0.0209281348445121,-0.012479274220808356,-1.2059531093901474,0.0035272590259794413,2.188664310198396,-0.03546112402955912,-0.8365569996551016,0.033128236763093094,0.2725642856673752,3.0234375
-0.6302473450183743,-0.10720075359630162,0.10146410684047624,0.020167319879184086,0.009047674423381256,-0.02715420808974881,-0.022033686616946338,-1.2600440478144268,0.001281515825382829,2.97414353766866,-0.03369138275170689,-1.5261519751852348,0.038449462558494185,0.4624841029166486,3.03125
-0.3627128173412779,-0.05044974457848857,0.0568142531685941,0.013152532304331707,-0.0020579780836447407,-0.011429018779055401,-0.013658806030571066,-0.24737497156132152,-0.0022090986078577755,1.3398277136511492,-0.0032725686216761706,-1.015688906443899,0.010915098706360413,0.28658376634148985,3.0390625
0.4777922572467423,0.09833304119124467,-0.07993923052770516,-0.012693764128111358,-0.019561467342916628,0.026697017380315755,0.015840486323772267,1.6971665159116494,-0.005324569998373241,-2.8253364423631138,0.05011963078697852,0.9404679129643588,-0.04761162345706677,-0.3171165148226222,3.046875
0.9855152435990296,0.18488091446730562,-0.16214978772337804,-0.02873132802954617,-0.02817165533472823,0.048449140542776596,0.03401975893769598,2.732261761742628,-0.0063189773826533655,-5.230589997027619,0.07760033662430356,2.1618118669884376,-0.07979356756020557,-0.6874949176255913,3.0546875
0.6136915670827673,0.11998066402929834,-0.10175892926764689,-0.017171877591055176,-0.020969997175128378,0.031926824002626475,0.020871348532456032,1.9105804370724093,-0.005185082880304768,-3.416660314830545,0.05527888489151609,1.2852864067405068,-0.054755972075379335,-0.4187709043192501,3.0625
-0.0035429643838309965,0.013621769874561188,-0.0016787881892727202,0.0021828076217653494,-0.009832948474633497,0.005043237613204372,-0.0011047781978291225,0.6045135712654387,-0.0036742406256998765,-0.454181349548537,0.02023229749016731,-0.1860673817439181,-0.014539906823096296,0.029579584243651442,3.0703125
-0.16473003859404808,-0.018003421615667967,0.02490758968377614,0.006728192900656789,-0.00466009960515566,-0.003432472731206059,-0.0064279044402073765,0.10219045096570564,-0.0022581449044458864,0.4428950737266595,0.005609438931501987,-0.5241292465422531,-0.00041863748191410457,0.13991562061118082,3.078125
-0.06289678434062959,-0.008698912418708371,0.00936591580367339,0.002457199751400024,-0.001639523669081173,-0.002132236856479057,-0.0019106226644929572,-0.027988743238084077,-0.00031320934675992357,0.2220891793393912,-0.00036864775665279955,-0.18257894559618282,0.0007426324805951534,0.051599975074013246,3.0859375
-0.09034295000056812,-0.020163393787829876,0.014611224635718857,0.002447783844859828,0.002828561502735834,-0.005901616448901601,-0.002158208627035623,-0.3686025779945638,0.0015489561729129565,0.575127276264253,-0.011564403193506727,-0.16749226604270787,0.008930231365718369,0.059901639992183016,3.09375
-0.1668054521819937,-0.035630728176899995,0.02729168623867038,0.004562013771653735,0.005558049742123433,-0.010117485951265241,-0.004632955445911446,-0.6262652921091069,0.0023439388947672805,1.0190116622244234,-0.01919449872408634,-0.3228568758147153,0.016097820418187678,0.11157305145035855,3.1015625
-0.18046589038287744,-0.03639061863594628,0.029340102315749544,0.00520649376290215,0.004865068337348095,-0.010113338771233302,-0.005294313567227303,-0.5881230111276322,0.0019503349383391566,1.033359548211112,-0.017691854931381673,-0.37484227849120777,0.015467971068337019,0.12427758068623798,3.109375
-0.196627000840179,-0.03554720129242209,0.0315386721854678,0.00617737624824401,0.003025430935970295,-0.009434550619509572,-0.006263822877821285,-0.47059804115488174,0.0010281134150962915,0.991783042173764,-0.013425384232590173,-0.45635942757222064,0.013071508759958023,0.14217960836611565,3.1171875
-0.057137454720322264,-0.01819994959107426,0.0097010786592062,0.0009208766512118008,0.004450203111501493,-0.005899563840187514,-0.0005735331143894799,-0.4561563546781012,0.0024687903749741158,0.5385394218228392,-0.015042780802645659,-0.043516523597404454,0.010311231460867805,0.02917843178302674,3.125
0.354800326243394,0.024409287937585077,-0.053729002113066714,-0.015680909964369317,0.013718581825554422,0.0012363316188765286,0.017160922978700095,-0.7732035841338487,0.008999761412251088,-0.5148926662869311,-0.03212512908292797,1.2768418164187416,0.0103267227975811,-0.3190767459960712,3.1328125
