AF3,AF4,F3,F4,F7,F8,FC5,FC6,O1,O2,P7,P8,T7,T8,time
3.427347895100105,1.1515194485198965,-0.6522484206353719,-3.9039122614605564,-0.11093188841150338,-0.013571934498951995,-0.10632497893102866,-0.011877265004256916,0.10524274921006711,-0.16684503696309838,0.25075677872166213,-0.0991064906226457,0.6143629343515981,-0.48557565216181187,0.0
4.93926317313253,0.6598951689720547,-1.4867905141871915,-3.221407402439226,-0.10700380803639822,-0.018249139697772216,-0.171810423907556,-1.6971007630637625,0.12951696226770612,-0.5530556098530516,0.08512437394357372,-0.06081918210553083,1.057861797725348,0.4416650947187132,0.0078125
3.4541327584775883,0.630463672419131,-1.016407281001624,-2.186946031635992,-0.09916767689780961,-0.04381707832413329,-0.17294889909825942,-0.08694637252697078,0.18915538497640505,-1.3810915813581532,0.013742327711880891,0.017989483869604406,-0.6037302546927256,1.2843643027379554,0.015625
1.9602081553511261,0.17109156749218235,0.1939540719569191,-2.031509963742163,-0.0898980365635969,-0.04832702313052273,-0.20551582831630444,0.6776709531134834,0.2773118884259018,-2.3549122529250783,0.06353581112088286,0.094801444425214,-1.0892982763121668,2.382713747241833,0.0234375
0.4625892106597025,-0.5636586505600997,0.526623924228314,-0.0937778487877036,-0.047276820507127365,-0.026803037965644993,-0.1948484136238356,-0.54204731511154,0.26853434056850406,-2.669896728089537,-0.06252035884586646,0.17029081009528707,-0.36525832874848224,3.1406437934480214,0.03125
-2.734668111322175,-0.24977235975362375,0.3583464823420243,2.7744876373069816,0.014130198169250322,0.017719371013887864,0.0002172265071766389,-0.7645348227219295,0.06480619939311343,-1.1144497907703752,-0.1713278790502074,0.14004204626002426,0.3689397496110396,1.2973051752541416,0.0390625
-5.864913535084597,0.6510345554417628,0.995260366020273,2.929233866998171,0.06215998279027981,0.07898753514558118,0.26778534767654255,0.29269472435180116,-0.2212921276457325,1.7816356447519235,0.05733052108297035,-0.03638423131314574,1.59178437802647,-2.5851972763075604,0.046875
-5.447225782854108,0.4007276040931622,1.7041205421798704,1.176110000508666,0.07251379084469242,0.10562210219524015,0.28871434694585907,-0.19566470672634484,-0.2785812852221729,2.641720907944461,0.2722397694973159,-0.12275037205462519,2.9144686955940977,-3.532095177306009,0.0546875
-1.8954422315647574,-0.6652410888515357,0.8241830906662476,1.2926002371050704,0.0210842867278975,0.046242907575594044,-0.010739292612243191,-2.026069218702339,0.03164389263699608,-0.5391702709222874,-0.011264555220171203,0.07737665770074151,2.038473406434571,0.8162077517507829,0.0625
1.1261383381875414,-0.8368843329718606,-1.0941384255883173,2.918262476704458,-0.04002509824776106,-0.051321931325060924,-0.2528396242379545,-1.9068804226966491,0.3147569334034008,-3.6712592294078283,-0.4784500283001434,0.29350230040317493,-1.1113113354247477,4.79025635320542,0.0703125
1.8116514885695765,-0.29999829524279553,-1.914467726756815,2.5508198137373506,0.015799895872947105,-0.07764102365641636,-0.06408024405283187,0.6183769675478781,0.03864124970369531,-0.9339762869992031,-0.4663174099637422,0.10514332795517484,-3.0904031170506285,1.7064767113833985,0.078125
1.2613403173166775,-0.42721116241198775,-1.0021542137238084,-0.11037855078234723,0.18014981400489935,-0.012572855654526262,0.3735912451098379,2.4476033539550848,-0.6187042094960078,5.8939627761734465,0.005838731970375748,-0.36764859208187006,-1.8437067147857176,-5.779710166263705,0.0859375
0.7621245343252776,-1.0192205604543931,0.36356941573998036,-2.2091095688427482,0.254215708247119,0.048700970371198714,0.5291663345400898,1.9700149916698266,-0.8711383007802851,8.682700675773553,0.36320722656980725,-0.5716701942754768,0.43013643055795564,-8.732606095142902,0.09375
0.7513134755006765,-0.9979189810779502,1.1227528609625652,-2.762801182456632,0.13689618913030144,0.03801987792185516,0.2490866548543701,0.7579522689578406,-0.4398388226286815,4.620781434396426,0.37247914269648685,-0.3306296401050574,1.0513380682941482,-4.570707559006632,0.1015625
1.2810011803360761,-0.2972237733180524,1.2472761867112738,-3.254034708719427,-0.03280299678590538,-0.004044925824334375,-0.09074884074319511,0.3815605539242315,0.10000729339296703,-0.44937151592674746,0.30366529672697873,-0.03808414092187357,0.47171063125228296,0.3788417724084043,0.109375
1.6268623694493636,0.6763151246193568,0.9467937536864788,-3.9215158088029334,-0.12833856730353238,-0.017882921268780126,-0.20210264532395267,0.567458368134686,0.3003108925776056,-2.146083228340536,0.3258408247689741,0.03827581464703565,0.323634167300153,1.6095137635280536,0.1171875
0.8197817121668215,1.547477574176012,0.30761894034745874,-2.806829224556583,-0.17818422199429854,-0.01607758061387624,-0.22023016937506992,0.409784700796209,0.38039627100454726,-2.9852071899591057,0.22622156524593962,0.10335794479790468,0.3408894947951591,2.072472276097665,0.125
-0.40938752402820044,1.3187187678605121,-0.5547088633664717,0.9395181838908606,-0.17966764992460352,-0.03529309319509338,-0.29057846665276044,-0.4915031005764086,0.5088613369880416,-4.916176227876344,-0.1800954459819705,0.3065193796163275,-0.5455841203897019,4.530608611073446,0.1328125
-0.2173183374945551,-0.24318128725921243,-1.441758759617528,4.580348289842324,-0.08240772242646827,-0.05775967868126709,-0.2943899700675085,-1.8448663974562058,0.44007833252426126,-5.100375589881288,-0.6250022870651439,0.4124554757167501,-1.5458697107030381,6.01834894010263,0.140625
1.1914298480028154,-1.0187762399424156,-2.0093546287047137,4.589300917802657,0.004671619776510488,-0.04586838540284059,-0.1805452252483666,-2.6381550525122015,0.1841188553430634,-2.701078571630867,-0.6594573206024914,0.2689278695402193,-1.0704570101415412,4.082757516674771,0.1484375
1.3351489017662015,0.6610696539420752,-1.8494672635113514,1.5370768223813989,-0.07105687096748425,-0.011802214792799361,-0.11134537870157639,-1.8858847155244023,0.13728165597066405,-1.4559216319224293,-0.2798420903709566,0.10567372393958166,0.3563966227950488,1.5337341345033306,0.15625
-0.6370703586803093,2.6423788763967857,-0.9466075485873079,-0.5998562686297758,-0.18152533291546183,0.010070153823653826,-0.094394725170226,-0.021862938862942247,0.2571268293491409,-1.9853743531558714,0.07450536839648007,0.07550341558474839,0.8681551760725894,0.5432735005292857,0.1640625
-2.1920917817603884,1.7158298767479752,0.14846430946425246,-0.2264055807303566,-0.07118004478078248,0.021133972983008228,0.06471621554409539,1.2153659501480998,0.03415931905313523,-0.04990604461358142,0.15153477262744985,-0.017069485113770783,0.3505888319807944,-1.1423451535650455,0.171875
-1.4887315935283172,-1.3231999608914227,1.0155382368772599,0.37839499443484303,0.18529745572636216,0.034038022490848634,0.3040884185902997,0.9888633715256963,-0.46940400419742523,4.297908443899317,0.12251817752037356,-0.23364352580647835,0.1335548256928731,-3.946398691893481,0.1796875
-0.9774818078652123,-2.7909784632958887,1.8298654658413804,0.05699917717089646,0.26393966565503973,0.035830767415706406,0.31331722007942087,0.5476418575073486,-0.5531024845208427,4.962748747234032,0.15037584565988532,-0.2620346529552717,0.2759306303846122,-3.855582092355933,0.1875
-3.439951243226458,-1.5111817297319767,2.668393246671047,0.43322445272808435,0.10980995740037446,0.023542876916941194,0.10059741893311484,1.1939690903728388,-0.09446152363490432,0.6055274307110967,0.17063294577000998,0.007976874667622322,-0.04987399653364017,-0.21889499990628608,0.1953125
-5.780948886624013,0.10186262838494946,2.892190702376294,1.0094948281506941,-0.01636081022026612,0.023010050809113912,0.000148204895044357,1.9619303125153287,0.19621013605411808,-2.1009116857079486,0.18795769315656657,0.17404846814110492,-0.2025233030019036,1.5550700473936667,0.203125
-2.1874795026216725,0.16351041362704635,1.8279448129346938,-1.5324779757817746,0.0009511542146251008,0.032918852399532815,0.06366327323067192,1.0610309075705806,-0.016812499076012236,0.45853674571030795,0.32811126080616276,-0.05185667495133402,0.8851216210238927,-1.031858196254465,0.2109375
5.909178216590674,-0.2905293225453721,-0.11315886812667936,-6.641948625458708,0.00942585475601104,0.017982621449181533,0.035684429520648125,-0.8546259082593638,-0.2475730937375475,3.5773446207254525,0.5139897324770046,-0.37551778694283994,2.154058518214547,-3.6939390117007393,0.21875
9.62000829822955,0.15719181004819874,-1.748364294683505,-7.941994301354112,-0.048028749136469186,-0.01953781734770873,-0.06823654693572721,-1.3556458491801646,-0.18572021170012323,3.2590707587301644,0.4283885819195845,-0.40427997156211765,1.5937996025239751,-3.287449340764194,0.2265625
4.96600501112474,0.6290523490837274,-2.397781369837594,-1.8946663283431247,-0.023871895363704928,-0.037180384736597565,0.0027284502773193375,-0.24856815765917634,-0.13588610559378217,1.7324950417099196,-0.060152896552677484,-0.17606134074056878,-0.6099779518214566,-1.7479758041232347,0.234375
-1.4178695888021882,-0.2429055746306751,-2.053202372565383,5.591529019944962,0.1021793508835961,-0.024854573382830324,0.16123880824758222,0.09870606677521095,-0.22440965995301032,1.1404950499374764,-0.5791792818354488,0.05001376619364357,-2.072224865991981,-0.5314472716064985,0.2421875
-2.581687416114599,-1.3716321549449446,-0.9914040074512853,6.472180769473595,0.13491085192295946,-0.008881981139979692,0.10499941393174785,-1.0458407558130018,-0.14924834367730577,0.13354271499849615,-0.6103584874730837,0.15176853388325467,-1.3053859727265038,1.0665414414549874,0.25
-0.3840872343006768,-0.7349836320380045,-0.16743664982569165,1.9908679182712672,0.009239254615465549,-0.0016225932624668417,-0.08294380437582752,-1.5911890739288355,0.10100549655505929,-1.389407750722566,-0.22250971885754692,0.13846943384177607,0.3016135586986483,2.034250758436882,0.2578125
0.04683392631253556,1.0997599564433773,-0.7740885543108156,0.3880663797226276,-0.099063946610701,-0.00834562471243751,-0.10723390668420961,-0.4899882058395768,0.19938949960748148,-1.827098986952516,-0.08119683418029774,0.1049677783393822,0.15470331026724232,1.3946428296531408,0.265625
-1.5043808077725869,1.9405270315085636,-2.1469828846825068,3.8287735897634265,-0.10700161981332096,-0.03979075587700488,-0.06307808436643711,0.617794869119648,0.2116736575631495,-2.484501685032372,-0.43702644226895676,0.20850026887676462,-1.9206415979642806,1.8959106625207391,0.2734375
-2.3280189511371843,1.591133226443524,-1.9444630548790622,5.490319355091278,-0.13927188835340074,-0.06980436299910028,-0.2105777114754518,0.5453254995416061,0.4548925167881234,-5.210585730019329,-0.640262035988922,0.4194796674931975,-3.001302688923211,5.042022583640286,0.28125
-1.821416429975914,1.3059710445877517,0.17340871158235152,1.5605172841152457,-0.210530128215831,-0.04919716542481743,-0.37360582469888987,0.13611176570933883,0.6872448369109773,-6.78805569002467,-0.20972153400642923,0.44131143642179216,-1.2534185403918285,6.401354491912023,0.2890625
-0.9574233936941274,0.7952433666639053,1.8989869254309428,-2.906227419932732,-0.15276532148906147,0.010506338207956909,-0.23134749823915232,0.08277128800934255,0.4241479553917415,-3.4756485552404324,0.3542053646319063,0.15055610097412142,1.2750565356415715,2.73328341924789,0.296875
-0.24661974760567995,-0.8420658068761896,2.517163579293979,-3.8852346716471113,0.03579639467972437,0.04754097089101073,0.044199313500292076,0.075583156057724,-0.08563640654773619,1.4317359066522575,0.5270740440101365,-0.15276707113550547,2.12355796763901,-1.5893683477563454,0.3046875
-0.028616024616810284,-2.4861507629055133,3.615494194017412,-4.260880190746607,0.1373686893107946,0.045319466796815054,0.08653696592342433,0.25544379666427386,-0.21259446608948085,2.480492922728008,0.5791179628421642,-0.20226920332170947,1.8376678953940528,-1.8474502552415475,0.3125
-0.3419262332226148,-2.406480336993882,4.513238646193524,-5.3959706433651,0.0930887612427945,0.03564782009334353,-0.003710249850577583,0.9075358219557658,-0.051417530333578945,1.1017190933509518,0.7033705721162615,-0.1390585599049079,1.6056811431385192,-0.6226125402913409,0.3203125
-0.31932173837177263,-0.8596038524740232,2.3594054918037006,-3.5949723705053103,0.06879141480182918,0.03140962597024619,0.11076850344805798,1.2340211927190796,-0.17925013809379406,2.2415545301911592,0.49296986977982094,-0.19675693395141933,0.9989292585808857,-2.3876170579821334,0.328125
0.5503362864813989,0.8379733212852482,-1.8528402846601912,0.5006632320471657,0.10829064670212389,0.030527011820314726,0.37530433163865207,0.7177961981559516,-0.5740964653976957,5.617371445219848,-0.0019440271165847558,-0.3535345845997341,0.22645604993967447,-6.18086906906483,0.3359375
1.561179325992573,1.8226339192640457,-3.4830432397565136,0.8656718303491662,0.09641324947329599,0.03683168465821867,0.46447467047303587,0.40129648479702684,-0.7155563995416563,7.084511072504869,-0.082439535534036,-0.4561963420759899,0.46580212555523587,-8.06072285627521,0.34375
2.014846991548659,1.3439435619164828,-1.7920016845321234,-1.7748916704806612,0.04696413907168732,0.027683147801809284,0.3037011127516259,0.7466644329567634,-0.48662393742539367,5.240270706281812,0.1742032299083724,-0.38917257379859954,0.6981775753529033,-6.154674023143077,0.3515625
1.764107253870998,-0.3520370262394732,-0.8555785281225244,-0.09105559992975533,0.05000762945674522,-0.01950338902712723,0.06387040054627277,0.20411375253382394,-0.16507401614336217,1.5530717918799706,-0.07945653588429985,-0.10074284445138851,-0.750576013918695,-1.2229510448296663,0.359375
0.6838074138697263,-0.9546054870099883,-2.091042735317604,5.157152832518254,0.024253094967940217,-0.05318138693719101,-0.13219590212157836,-1.905940928318085,0.13185826058632233,-2.309655198899268,-0.7001926009928533,0.25712419506350936,-1.7630778613807567,3.655066522368337,0.3671875
-0.7551599183306826,0.723363891012844,-2.444325089644578,5.443895536851167,-0.1065288734266893,-0.015270483198391614,-0.21780300245764792,-3.303479523122491,0.3541408326583998,-4.20610300598094,-0.6565733671871163,0.3623074149867184,0.22219942133506837,4.600709634202448,0.375
-1.1315203423613789,1.6791042844957782,-0.686799827155881,0.8638784381460336,-0.16069287790806805,0.027434428022260943,-0.1662270844332258,-2.063539107079676,0.3327906930388116,-3.0536533884737453,-0.06101180721154887,0.1872354034992928,1.9670537631069835,2.267930364729138,0.3828125
0.22825418926796945,-0.9606919793112098,0.6954948190734244,0.21863508200430165,-0.0013348366699561557,-0.031812056139166205,-0.13745394267940608,0.02228488358492168,0.17720998619007974,-1.9152129798622137,-0.0793489352543669,0.13642621856114684,-0.9239435255508405,2.5720993308754276,0.390625
1.9209217753362189,-4.310612254033955,0.5524651245506126,3.9758004955802644,0.13405065998847843,-0.1410490575665675,-0.3196806667852811,0.22765425826861777,0.29805534406821443,-4.325850136069048,-0.7053160090163346,0.40258006680742453,-5.2675617544316236,7.557103756987171,0.3984375
1.758146657064281,-3.3175472063257225,0.5546766008982179,3.5129514490445373,-0.001190957077377131,-0.143140824142415,-0.5187106420273937,-0.5805819030587559,0.642763333095726,-7.425813501816723,-0.6861482045543228,0.571994913919739,-4.566039360091813,10.19601875577187,0.40625
-0.9053288579680168,1.5527448739098477,1.289352580393545,-2.408582092478283,-0.21642158063169853,-0.012666160392949419,-0.30719102978242496,0.4928759646176033,0.570241070126848,-4.9012981182356965,0.2531402848468403,0.23750429088721153,0.4502645085843699,3.9031889942238944,0.4140625
-3.9500795960957182,4.902365492401494,1.3788293139613441,-5.808494324483333,-0.18853947608139207,0.11393625470565644,0.27830350037165597,3.0592276013214366,-0.11950995904280547,2.905260473762223,0.9863815580249119,-0.35089580621267735,3.630938918817313,-6.8381234289904995,0.421875
-4.152006388433546,3.6291612542674527,0.6075517480729509,-3.5934134883685807,0.025658669182962536,0.1292983418872253,0.624734805028665,3.5157667302051236,-0.699802499143631,7.9608569919076055,0.8183257868109794,-0.6011964973249139,2.9426947333042093,-11.206501587891658,0.4296875
-1.3403479243777643,-0.17460811800196632,0.41619293091259446,-0.3735781177492474,0.13773910304684422,0.054477740897736514,0.3477724743190888,0.849450009237533,-0.5049367861030428,4.964066860055059,0.21969058896549412,-0.30731188172806895,1.0355438169670828,-5.323099870266064,0.4375
0.8013650244885412,-2.718880982799541,1.117797852292288,1.0450702879508336,0.08267266256386091,-0.027404927010674145,-0.16044388457889436,-1.5086377521070886,0.12152353126058496,-1.7347297253373832,-0.1897367091912284,0.16501803257349365,-0.45965393319137604,3.4664172129013866,0.4453125
0.15060215168318153,-2.176915556505797,1.245962672591795,1.2748291568912007,0.01689174638260701,-0.04505649288566818,-0.2600572661463434,-0.9873173374716223,0.3209418438354725,-3.658957834943744,-0.22169131566525455,0.28392135265070495,-1.0942691840740384,5.152156965919945,0.453125
-0.6316318174155763,0.43871264652348424,0.032934221593699006,-0.3042209677671616,0.014924882407519123,0.015818544627006194,0.10558592686737987,0.5848696603088499,-0.1272386433627779,1.3544982246963677,0.09619277094548322,-0.09384220932449784,0.2749968370398669,-1.7592452812705757,0.4609375
0.9315139255158961,2.4373647250490857,-1.3190523188243106,-3.4209032959708887,0.0119906293789867,0.0836398293100556,0.4010376228836544,0.5389191823442806,-0.5703454679926864,6.548982543026887,0.4787271149108293,-0.5144841060986302,2.84539060606257,-8.450908614556479,0.46875
2.971360506152453,1.9637849834769021,-1.4371921626900048,-4.383941602321991,-0.0320929059763749,0.06789481663418506,0.22973302939028,-0.8096259714553762,-0.3899476379751101,4.923916862048114,0.45241982328881364,-0.4345810906713788,3.253401471037871,-6.375482823450358,0.4765625
3.2194846747152757,-0.285169001676861,-0.7486000208224884,-1.286848879475368,-0.062140841735988384,-0.023236876515589405,-0.19404064882292907,-1.7614086548311665,0.18257705038983296,-1.5492055924212609,-0.0575154258833548,0.06091513516239179,0.49577437888438464,2.007594166110787,0.484375
2.6046365227729527,-2.398753555878326,-0.5591979659891438,2.8060633196061056,-0.004175325330177755,-0.09626924170020362,-0.3862218032172801,-1.8707467064968863,0.4278208018420802,-5.010832883084948,-0.5880693669225591,0.3909290033523064,-2.506050950029212,7.189270887011181,0.4921875
2.185073005215097,-3.363638836834655,-0.7098834324139142,4.3395923447173885,0.11775404167792491,-0.0961313980037426,-0.2242642483305153,-1.44985157604853,0.1554830411533847,-2.789926639590379,-0.7122948055754759,0.29944861107760895,-3.2656801139286626,5.51345473207619,0.5
0.9762417972122412,-2.8580536063958846,0.05873646727057742,2.6609269126672004,0.16475875826292477,-0.04335357001018457,-0.002929643202089132,-0.608947375249942,-0.12958312564150448,0.36286903671277804,-0.3752059589123246,0.0680869965523318,-1.8532783150925334,1.57956609128842,0.5078125
-1.3705401425303716,-0.6446536933636201,1.446698743105999,-0.6764377874063476,0.05020473975096146,0.023245444451349385,0.06677534469614471,0.4101935385174621,-0.08055219423410373,0.819675195817441,0.18580190798531626,-0.04892365320157699,0.59920641597681,-0.7800604510078557,0.515625
-3.673573728854661,2.2516863340350217,1.516337497631509,-2.0817569051765408,-0.10867385181438037,0.06172797985088738,0.08267524628725045,1.4417485455820171,0.07257984806064047,0.003582517100152863,0.477622587946164,-0.05871160854087689,1.9239048138546777,-1.9084848210835967,0.5234375
-5.172700136959022,3.490730295818058,-0.14514771843902136,1.341785008716713,-0.1381454072723588,0.03119294699642195,0.12463720362044077,2.539854979276616,0.10009038721369258,-0.7394692352062858,0.11844083394489849,0.043715907151227654,-0.07440261226177868,-1.5211419374209596,0.53125
-5.066579311651173,2.2379406214181765,-1.5209588288738565,6.046359517604663,-0.06041974433776456,-0.043202740774036345,0.07754246755305033,2.921879046145614,0.12771383759766133,-2.0851983278545796,-0.5039444568949638,0.23865379125980557,-3.538860745689679,1.1676904740963672,0.5390625
-1.9634767153102126,0.41384446357131655,-1.3745948412813995,5.068151984503539,-0.02360792500562789,-0.07116725570205777,-0.07592652440002388,1.3745147231037702,0.20062976836593857,-2.8635161429591114,-0.5776339608139222,0.2809266502692979,-3.5876294409479,3.1991955015041027,0.546875
2.9745388237140187,-0.2572387682280333,-0.7764235902537255,-1.0940886369640426,-0.04629756098557359,-0.024609253766722322,-0.15384720365588392,-1.3459501478870872,0.13162490824797793,-1.0947653045044246,-0.0627293138725322,0.037197917187126985,0.1981983443403194,1.5158858905855872,0.5546875
5.530083800182511,-0.3999571093206099,-0.43639475703890396,-4.989893700376698,-0.04036327838720609,0.02134527965221704,-0.10939320397631393,-2.7685642200191323,-0.030473360415016606,1.216990831233712,0.3188504032439061,-0.19271379228049765,2.9000656551418844,-1.0178308162410472,0.5625
3.9261642703245796,-0.8576602063868937,0.48243353478431017,-4.30014750246495,-0.012575484273268208,0.02123458239051752,-0.0994984359480559,-2.1308156416835895,-0.007748180287673769,0.7874968194930171,0.322290289018731,-0.1387314484780486,2.4488349388336483,-0.4409624963776254,0.5703125
1.1045750408701984,-0.8671514026066227,1.7353032587378054,-3.298127397136052,-0.02212434596257575,0.022572516458087402,-0.12148576625238061,-1.107905886512346,0.12077536907018047,-0.6677307376632154,0.3414144118091146,-0.016152328782018843,1.9116323415040792,0.8632822328729803,0.578125
-0.28722187694724344,-0.14372199316001583,1.4419306011526005,-2.570427890232526,-0.008311359596420688,0.04828059735619695,0.01260237966565172,-0.7553484527708281,-0.020999582557029908,0.6953524233948688,0.3641379738425608,-0.0909080940698553,2.3409927680405866,-1.0276844255987603,0.5859375
-0.9224802969199605,-0.23780662772906838,-0.2656053592808152,0.9046254081373232,0.10686450844697867,0.04329398315374267,0.2471554312210036,-0.3254965065266646,-0.3732972662909027,3.4754003631570494,0.022695695063066828,-0.19030992680308245,1.0383769235581846,-3.524071954983983,0.59375
-1.7012172135885264,-1.6712415569196188,-0.5335707435548734,4.397086784839292,0.21331618948814723,-0.0074052074356621735,0.2730008318552709,0.633721017767668,-0.43278577482827213,3.165060020887651,-0.3786137671637737,-0.0772580275955025,-1.7903293426286544,-2.0899776485037065,0.6015625
-2.1337698383854806,-2.1437789260598064,1.3940840065311702,2.587808315666188,0.14608419166585135,-0.030814189047486854,0.05906744290335371,1.3931927629196157,-0.08991014606539637,0.04743399137278878,-0.19766146386640104,0.08910241489573176,-2.266778413671676,1.145668633655628,0.609375
-2.178633442905091,-0.10428000665938254,2.3493032076442435,-1.7026553026675844,-0.029591276336187865,0.007838564197823005,-0.05412533429163693,1.4609459702875849,0.16272425944227942,-1.3247365574486922,0.3074577296514908,0.05930029373223358,0.08581498443296152,0.9606535313097769,0.6171875
-1.7543605867978818,2.175550904845316,0.3424762335240639,-1.8515828313581586,-0.09695879542777,0.03703644489743613,0.07965143166609184,1.25769905034051,0.013836125080811388,0.5088895412681843,0.33362390809556997,-0.092732935949752,1.1687232707582602,-2.1208304469735038,0.625
0.3993472946257844,2.0381167259453896,-1.9938780903341131,0.22539250664898933,-0.03360354840521899,-0.0031242719378121475,0.16885719363437998,1.3178888525750942,-0.19809228109440724,2.1523661320578746,-0.036927690877828157,-0.16080786620567755,-0.6483609804422784,-3.2252447503041903,0.6328125
3.6843636848555747,0.7490475237429267,-1.5889908707401263,-1.8697876764420278,-0.03804781898462324,-0.06258297177188242,-0.023782068971581874,1.6157691225021877,-0.032908946545707744,0.680735278061122,-0.02810343403445117,-0.10647637025597222,-2.1286114323883405,-0.8484865783549653,0.640625
4.234480394090742,0.9264040663990918,0.38124877402905993,-5.718660899282907,-0.17184047451241685,-0.06422170717069524,-0.2921768987642682,1.534641143374514,0.382051515959557,-2.6421531665970455,0.3491516438610758,0.01836032820604579,-1.0538024883214325,2.118236677765241,0.6484375
0.5805473221651609,1.7682575796756934,0.7380887886174017,-3.3155898218090774,-0.2316137351350618,-0.020077852494175742,-0.31825860951974455,0.36394219445658377,0.5492277480251164,-4.504620198725456,0.2759957554195412,0.18539807668582498,0.47592436676372163,3.453145533801179,0.65625
-2.7497878408020533,0.8267138040361448,-1.0257435302026898,4.607728020726156,-0.09027081891876013,0.0015418733940875213,-0.1426954449912106,-1.8175627456215424,0.31430064972781885,-3.6874764499316344,-0.4332773619330567,0.32053338414889593,0.22272796357755825,3.6514557255628746,0.6640625
-1.598605143086103,-1.2608905129324643,-2.7449961290860645,9.00506589075018,0.08375530561842277,-0.012855223575868558,-0.03297825424707007,-3.862703173727078,0.013074017877299076,-1.7999470698004818,-0.9836807700427125,0.316406006803288,-0.5807241316403609,3.4561800413100783,0.671875
1.6332867540852147,-2.0680496236406185,-2.7514224894099977,6.246028919804358,0.11953617919837033,-0.01567606975736039,-0.0353868781427864,-4.438748775200938,-0.11107983951304316,-0.21069551927243266,-0.8153666407221216,0.16070685733665774,0.014289220596622514,2.2708855049969308,0.6796875
2.29267291085094,-1.8176771452434601,-1.1513593733606462,1.709860051929385,0.11064053764076222,0.010835246947922178,0.025544382522669738,-3.1594822570189947,-0.20226759626033688,1.496312881426101,-0.28330448237163425,-0.042040270408198036,1.142441855931261,-0.13273248393495943,0.6875
0.005579696706299175,-2.2556076907290765,1.1171936228527324,0.04773381123345568,0.17713574932214474,0.033169709514590404,0.16593574870741581,-0.9255603869918874,-0.3462360428623131,3.075213860405737,0.07175744691381186,-0.15694934182700498,1.0348819022750062,-2.0459416582932946,0.6953125
-2.600836932457678,-2.650295537022287,2.842776057346556,0.1520607439510551,0.2142582691983496,0.034985158883340355,0.21614853774506532,0.8872539854347461,-0.3427668133243257,2.914016121689908,0.2012812311480947,-0.1279302751318527,0.23258193831088364,-1.976072022055525,0.703125
-3.7935678219173616,-1.0691202904760424,2.8364840691796185,-0.28716059854633524,0.1071843805575643,0.03338224540293256,0.16160798213458086,1.8667558320071442,-0.15801709438178432,1.4032999076204025,0.28797305712106425,-0.060835300754410654,0.089517781070765,-1.4173523517607007,0.7109375
-2.8039137155262317,1.7400541750918428,1.233917611990438,-1.875625459974364,-0.053326488018967784,0.027952337855774872,0.13071369429047466,2.6736570759765317,-0.03590972769768762,0.8890083939776986,0.39210269461532754,-0.1058622159403401,0.20297212313631022,-2.4117984715719456,0.71875
0.09330959732989472,3.305874160128562,-0.03320922961043025,-4.586736313989443,-0.15956254430891215,0.005355660689929267,0.07123359854973065,3.2734681381191013,0.030698720821679806,0.9207260631992797,0.5239542683943355,-0.19729674267815112,-0.011994233732095535,-3.2317802118691326,0.7265625
2.257578773147606,2.9962684527065657,0.4500353608213317,-6.949190448964152,-0.22826955663826487,-0.015939231560398823,-0.12970449025602807,2.7005207812257614,0.26809483928226024,-1.0135067564949054,0.6444817400098675,-0.12910581943059202,0.2247696572180089,-1.0752211615295635,0.734375
1.530457262060993,1.8936810530257822,1.3206756468601164,-5.879911744894144,-0.22657927789542648,-0.019877885060337365,-0.2709397518450926,1.5288198728504998,0.4635369373580562,-3.235036336022705,0.537084681702904,0.04942071816411759,0.4475421181155061,1.8596298059587557,0.7421875
0.1805751548805523,0.6503181285139734,0.40610680633613666,-1.3526702243552753,-0.07219395780880235,-0.036268986110083834,-0.097055674437887,1.735917337239022,0.1859069954230716,-1.5392129390293832,0.09647643748540687,0.058221841943792575,-1.3599350068415264,1.1425582075717333,0.75
1.5106152128030337,-0.510110904950516,-1.5996857210770987,1.7728678295243074,0.12169675374177309,-0.06927043993238673,0.17665713892960194,2.557038059936333,-0.32047246323149264,2.610916554975985,-0.31102699486751084,-0.12613110600514507,-3.795498464357139,-2.01751259731606,0.7578125
3.927270513028199,-1.19437975792577,-2.1271515119817517,0.7387946994681392,0.14789429902134094,-0.04956865280835055,0.16508822178977905,0.4107510102710299,-0.4172950961268757,3.70806205092646,-0.2870296007777,-0.21512260881424608,-2.153916647847135,-2.6520137624839464,0.765625
3.2900157204115703,-1.4174262861684743,-0.9044386900470579,-0.45086136164046675,0.04936518824650268,0.045123197615138715,-0.03987464291950459,-4.678330138408042,-0.1278642246174275,1.282152819601968,-0.06178773925654587,-0.08173601440452175,3.378131142257018,-0.2807043418209996,0.7734375
-0.4591736048914293,-1.4728440178652151,0.02433812051027885,2.1517015933412895,0.014546071461316737,0.1083731659964862,-0.10877799118838277,-7.310832245549618,0.06611595310070337,-0.9541664683854523,-0.1357851152829502,0.1261349439722763,6.036741075740627,1.9137148815843377,0.78125
-3.654727809862235,-1.143479872124191,0.11892951189711884,5.56939601495821,0.02236262319381439,0.05658037754562485,-0.09345106691674644,-4.457773243859169,0.17298093545426993,-2.6643229855919595,-0.42674372567284247,0.309080469789015,2.6006675524537237,3.5880804840547706,0.7890625
-4.128989481827766,-0.2881395991920719,0.5716386037842277,4.962760152099371,-0.05082329000981975,-0.032300172569281554,-0.20012723726628726,-0.11554359164396133,0.4248322785108866,-5.058839424789261,-0.43778678486218553,0.43491302227653733,-1.6403278642107773,5.556372111213942,0.796875
-2.423312047451244,0.4991334023172516,0.8633164240050538,1.6673429130829138,-0.12527486370983598,-0.051137302039125636,-0.2678016975092739,1.1785586530938186,0.5214712213453677,-5.345900348139931,-0.1699572697919721,0.3682310762165493,-1.971930552095003,5.257808428546153,0.8046875
0.1634955866854032,0.8873336680645648,-0.6908696744420919,0.3983858406319907,-0.07295065285365174,-0.02928964243497399,-0.08144127011364682,0.5981267808075857,0.15821884112028095,-1.504542343433854,-0.10117165203769289,0.08763672900505844,-1.0056789265683717,1.194959196569037,0.8125
1.941773582818903,1.23794178366035,-2.8651213056270812,1.362979730609031,0.01501020693342803,-0.04017294872285959,0.1527018166743141,1.2406366016542874,-0.24836358255426558,2.2980414298673235,-0.2763353419856358,-0.14221618673286152,-2.0623600478486,-2.614246108185945,0.8203125
1.434731173937176,1.296372003531764,-2.5477895911094546,1.245176559648995,0.027449418393648516,-0.054028714063044395,0.18577748970297342,2.558398214244971,-0.271288952238945,2.5010598206609593,-0.24521590037425803,-0.15594453676632863,-3.051471111556179,-2.9256967358373345,0.828125
-0.501419909436227,0.28862334152671437,-0.09524916921088432,-0.07750713096367072,0.059758844427031554,-0.014856064573565515,0.17719155500186842,2.3665663482107226,-0.2332822099669012,2.248225743632936,0.04819908974119737,-0.1433851838299954,-1.5691717454037988,-2.5563798714641517,0.8359375
-1.2018786538892905,-1.2169503390191505,1.0666379608407954,-0.2267254072491227,0.17950122100269233,0.0364115231970803,0.3084156341625844,1.0784712234440408,-0.48066823163219596,4.5275405367901564,0.18129204532986443,-0.26270835495697575,0.29114418117363183,-4.281412013814876,0.84375
0.1609111462862609,-1.7398468611588804,0.6947317390209428,-0.652013899079144,0.22966762485852488,0.04113254525673841,0.3657764728183266,0.5322804534034065,-0.6341672617148801,6.037143830150629,0.1822602017246564,-0.36310846828788784,0.6201108831206634,-5.474236927351401,0.8515625
1.5146758020456332,-1.3046805069888916,2.0757610103814814,-4.690863139111937,0.09690550745063836,0.03058293405634647,0.12635913309719152,0.7342620667012985,-0.27740269635476267,3.338732753935427,0.5368161250020366,-0.28808898282366163,1.3225196698774966,-3.2140654641191815,0.859375
1.0150568091650454,-1.010588240439878,4.981740941973842,-9.153754896306172,-0.07587552804176659,0.04609463792353775,-0.20352519282012507,0.3991717164429613,0.2685707290135327,-1.1120005232787706,1.0424065533264322,-0.10255060124491824,3.2498851343205777,0.6571964694067458,0.8671875
-0.6938185182266258,-0.5502393663410718,4.6435199001653364,-6.819524542241675,-0.13082549002063637,0.051072461719924356,-0.29119286962609825,-0.590815832318896,0.4623271457509937,-3.3083016682502038,0.8387911759436408,0.0809806111165722,3.5219828462069307,2.7871871414798086,0.875
-1.6336862826162595,0.8720915325270079,0.007020443569539148,1.2147873785306424,-0.11243881452775863,0.012855342000249672,-0.15857524977602433,-1.3195625214502467,0.3149405574865404,-3.092811516627799,-0.08272237922580432,0.21064083997705624,1.0481716886362618,2.7193842239054504,0.8828125
-0.6405993830576544,1.8345990647926775,-3.502429064295804,5.599644276701306,-0.10751940688440101,-0.030114597151061306,-0.09176824243788757,-1.6107008237905835,0.20496604229211665,-2.6775832530266594,-0.6824421227795636,0.25367924569793615,-1.018677376597672,2.469392632785988,0.890625
1.606931892054513,0.6800638165061006,-2.6632591107102495,3.270879290031804,-0.0969469554244784,-0.05069703722465608,-0.2065959763718489,-1.8186792648012142,0.2792107965960634,-3.1640373549897505,-0.5479213309209153,0.24478243648747053,-1.105799280606019,3.5738418181486504,0.8984375
3.0149927631083737,-0.5357005467684365,-1.2743805926986598,0.9017937065462259,-0.07676913977038116,-0.07202520459474043,-0.30303742972506964,-1.3063425504628936,0.3542457390157535,-3.6827782842005634,-0.3645408252610605,0.24151885806563872,-1.5324476096437996,4.636666567260555,0.90625
1.9479830816525632,1.3094567977121063,-2.3176967990499597,1.422866889440301,-0.11570542243938998,-0.07803098450714,-0.1724934454680583,0.6834048005865749,0.2604504433164789,-2.655028220942181,-0.3725785767026677,0.16542341610073083,-2.620956119320907,2.5413355688606933,0.9140625
-0.753968141538053,4.194922204750916,-2.5642591196849347,0.26172665808577084,-0.17882790611902283,-0.019011779494724147,0.08192579719656734,2.57814026926171,0.0574224762253673,-0.06848239897939974,-0.03144160661528505,-0.049021768917793376,-1.3515779815653524,-2.1600831640522613,0.921875
-2.227595158024893,2.9523211870601,0.17371565505194578,-2.4512370607472462,-0.09788270085826335,0.06118270594978976,0.19261260371858638,1.6856475202989565,-0.11890776529414704,2.021255846493337,0.4615371257714185,-0.20801431717601485,1.8027451904139553,-4.24713419703736,0.9296875
-0.9031639291580706,-2.077092036802136,1.9288724489142193,-0.6926980302829743,0.14314038777723015,0.058355221512693164,0.12881747154064946,-1.4021397237725424,-0.2574635394429447,2.4034381750879965,0.2189559842447092,-0.12852995368220427,2.2309927561197225,-1.6489057913689846,0.9375
1.0466202142710272,-4.602521384111012,0.1934720903249401,4.084135508333039,0.29319297927777094,-0.008482890481323762,0.09459422360482864,-2.749504095523604,-0.3649105044339134,2.223569366681513,-0.4832735740602453,0.006246146665494976,-0.4441713522212598,0.7112931562782325,0.9453125
-0.01584519674006224,-2.0294851903122817,-0.8681111416494183,3.8684163499563105,0.19037619767825031,-0.014140357749437595,0.16833150309851283,-0.6542867988435207,-0.3430280172671069,2.3619814029551196,-0.4202061925447109,-0.03996944086278681,-1.2805066585267761,-0.9274706087274435,0.953125
-3.87941757969173,0.8167481816044665,1.3515739140981355,-0.0965279601584535,0.04131431187598311,0.04966871699406155,0.2429060873549615,1.9716358183337812,-0.21933122044809938,2.248148925602149,0.282219270535368,-0.13687195116312934,0.6036902599980588,-3.280033572508109,0.9609375
-5.533458381988728,-0.10430068634683148,2.369673132633717,1.0201224245255271,0.0966785596792684,0.05296006987144609,0.2600240531373092,2.205802684660614,-0.22592825223389215,1.9776525417675337,0.24628616996213099,-0.07709109867168124,0.28975888683101153,-2.578685293679847,0.96875
-1.8179336554707919,-2.245497131418583,-0.5450523829348899,5.628133367808542,0.2281816950511618,-0.034045545551894034,0.213698393677985,0.788620982895506,-0.35564663658549367,2.0922372762888424,-0.5466814323103194,0.022869284195855294,-2.909784700514805,-0.5166892831537401,0.9765625
3.400757439082729,-2.036871531594833,-2.3297417150769686,3.3313225296916382,0.1597877176383498,-0.07623808339012517,0.05532031097520124,-0.34599589687429594,-0.2660253606780574,1.66164446305053,-0.600735104658223,-0.02173445893458631,-3.123134912712091,0.19331153783345828,0.984375
4.599685563502495,-0.6362426309041445,0.6255098334110587,-5.319515542148865,-0.04576606360146505,-0.00792803177493149,-0.15936306423504323,-0.9792710236339781,0.08569754231648036,0.04205112774149047,0.37052161168543485,-0.11897306465853875,1.3507173746253773,0.1923100187503512,0.9921875
2.6951347339446685,-0.3360464354289284,3.3513781840725687,-8.723197928714752,-0.13021727360555513,0.050904502928790334,-0.2590020930665775,-1.4227083450872744,0.3099039897172406,-1.4389002564829836,0.8984863651414988,-0.09082455893198953,4.195693435463506,0.8983736489989872,1.0
2.330387653038018,0.10576801892475697,1.0835356823412308,-4.181556401582002,-0.12923694799082852,0.00049464842326034,-0.2663683841770507,-1.2077553183146312,0.3445445794716968,-2.551520750323012,0.3325363009787539,0.06373710671162411,1.7019548955142032,2.3744791368937093,1.0078125
3.4844700577171634,2.3788077233015055,-2.354176103731518,-1.1117795919978848,-0.2623231935451434,-0.07370578072215739,-0.3738171935366384,-0.38544481709438577,0.559571404191161,-4.918105766069398,-0.18902325948641943,0.23343617726591295,-1.2053385904282197,4.220969064761369,1.015625
2.4417338392890655,4.336348834398946,-1.5895657282148667,-3.5935700472652345,-0.43195852756956593,-0.05285077455022283,-0.5032094839193996,0.05008424254341895,0.8679647396031663,-7.183282758775323,0.13497232678961532,0.30054916199430565,0.10514332905647426,5.121560746477237,1.0234375
-0.860146626896892,3.0748846639472287,1.4563100553755812,-4.849090143269519,-0.32579832835146877,0.0247593310010005,-0.3417954042038302,0.016231882849216703,0.6731669750674297,-5.203898204668701,0.5530894388332599,0.18539532382888202,2.483742116918016,3.11441953375574,1.03125
-3.308917264954875,0.0845525579973684,1.923815201215809,-0.49868476121708055,0.021430748116556975,0.04876900985144629,0.10572508272179663,0.7301669460039706,-0.05579854475391809,0.6591686139251267,0.28403409117507084,-0.037877634166875264,1.2619145861460417,-1.2205320041334626,1.0390625
-4.4564216590371535,-0.7259248828553122,-0.03858128945031197,4.734389003915212,0.2358063229122936,0.021410276850862216,0.46499878334175543,2.390498230830558,-0.6045230604907372,4.877443536000285,-0.23239749755168868,-0.17904225227602333,-1.813264318380122,-4.677784027749025,1.046875
-5.382289333050343,1.0213058548215208,-1.0416942792064197,5.330763064228399,0.1669007171301884,0.025843416529230764,0.5155196887031107,3.1349526112923454,-0.5910112022326836,4.881906259763585,-0.25896751385408795,-0.18903636019489112,-1.9846401563616636,-5.631001635687115,1.0546875
-4.380114199690549,1.8291267913514828,-0.5359527794377901,2.3815425192856043,0.0466659098848573,0.06272665527059243,0.36706826635917456,1.3887543264599411,-0.3733172963111012,3.484386060734207,0.04009800407472342,-0.17688920533431166,0.7218435260161158,-4.8548669505283595,1.0625
-0.09346447709089045,-0.30593868648795064,-0.6467380171313116,0.951806753423057,0.07983654007602312,0.04822394063787107,0.17259006673062424,-1.679108479726996,-0.2958813390633274,2.7475225759195,-0.030940615014657093,-0.1466414251641093,1.825239784685677,-2.6254023805248483,1.0703125
3.9906645171421387,-3.340209681416114,-1.8929705195126327,3.4062976951002324,0.20136786347538468,-0.03778757294220033,0.010149579096624594,-3.210011388963382,-0.28312691944871,1.7263632163833245,-0.6002263540385397,-0.00760285333045201,-0.8253541305561934,0.8608828059483274,1.078125
4.035792983301995,-4.507432722364341,-2.4071107628565516,6.48265151525519,0.25777190924560567,-0.1117887468338765,-0.06274862252970893,-2.082734430367114,-0.20198108011762778,0.13952234072129027,-1.033222084112507,0.16891806611254012,-4.2292902368555945,3.5478523793260113,1.0859375
1.7090553950177418,-3.601301034108571,-1.0031387919148518,5.366446458222398,0.19654551142137763,-0.10533882815467323,-0.07617137323772644,-0.22339929273036865,-0.06137739328980023,-0.9427236846642247,-0.7913870867573505,0.21064147963037771,-4.46404405794333,3.7835849419894108,1.09375
0.645315648355607,-1.971836671746476,1.0124300441599032,0.3885280018105687,0.06501576766319986,-0.04135388772756455,-0.11090725636230046,0.13429671119593178,0.08915361396708572,-1.2495115467192401,-0.11571673466447643,0.11147055967858732,-1.4361149977898944,2.480256764690838,1.1015625
0.6054655657474408,-0.21802960281222106,1.8627997901723627,-3.7865928797357524,-0.059951795240905686,0.02396579881696398,-0.12477137991694394,-0.4943128190859507,0.17003539979229204,-0.9752974461842969,0.4188437490968212,-0.014038067046723916,1.8676702642444059,0.7275048140303877,1.109375
-0.3489153473806772,1.6509384348094427,1.7756128699776175,-5.349729010368589,-0.14048607579467373,0.06351241340730197,-0.05036808092542711,-0.05463332698991691,0.1503696477674124,-0.21920310162332957,0.6820036194642368,-0.11537159529600158,3.322393083610714,-1.3636371699833256,1.1171875
-1.3204043718317149,2.8185622019759884,1.8313861823115227,-5.952946119893562,-0.18692892740889455,0.06454024789078663,-0.008433725462460075,1.3755153777391307,0.16643789637033604,-0.13873570602019025,0.7987120659152518,-0.14540630020934175,2.946514346027064,-2.2482527113949486,1.125
-0.4578318881378115,2.311504079706847,1.548489946530874,-5.193843949911713,-0.1949253931091404,0.022259202895738475,-0.1214475401079887,1.5445567504396507,0.30154700573867216,-1.6945427277494785,0.614089509559877,-0.030070050419754395,1.4911923692888813,-0.14129440283805228,1.1328125
1.2217434027984835,1.0021675399436814,0.021956225145374722,-1.9341185947088608,-0.15107706589170117,-0.02389053252271414,-0.2360227197366424,-0.1617191139051717,0.36807888253098725,-3.0918928607679534,0.0986974143792997,0.1335171198770851,0.12562653126541212,2.6268603801320913,1.140625
1.4569225704050808,0.944549576255802,-1.5311384923920077,0.5613262225329231,-0.10575599090291163,-0.015400671799802177,-0.1529676357680335,-1.5051757206389924,0.21377255184124846,-1.9975646711761315,-0.18378804489018857,0.11510983213640374,0.3543350016646164,1.8463234949213683,1.1484375
0.4805684079519478,1.9913899237211308,-1.359009085761681,-0.796060219090739,-0.09890327086935788,0.03139835717611334,0.031898583991329756,-0.8638565934308867,-0.005085632242358144,0.5358393333277203,0.08810930759883114,-0.08033280565965076,1.696375533141999,-1.6514512209670764,1.15625
0.17956197609169658,1.6047640403241186,-0.31053023500278404,-2.2005250414399535,-0.055078835465079884,0.03301117592096264,0.10394151535727428,0.4795933377733264,-0.10893067762086063,1.6975845731218384,0.2843891132622456,-0.1735337260787412,1.337932877252915,-2.872163452130716,1.1640625
0.4241285110710879,-0.583754992339429,-0.1719101863987013,0.5022150366353498,0.0613530169054727,-0.021880560078906774,0.06119624372861319,0.7849862517816887,-0.1228407222216633,0.9859615823095661,-0.08364911455852207,-0.04463091651530935,-1.1938253973522879,-0.5991671069011556,1.171875
-0.7657721129532864,-1.5028440065681208,-0.36181257678451356,3.6350981519022345,0.11534486330644204,-0.04198624861147422,0.04394531933207936,0.49914462428184636,-0.0960705767170405,0.03218423732527477,-0.40614782321365056,0.09556949168195206,-2.3756531868919226,1.1267381330826016,1.1796875
-3.2473575163392274,-0.11388403003059548,0.4517803743195536,2.77404888507014,0.05050387725025474,0.0064758632262035334,0.10068820100665078,0.8734263575921066,-0.05856208237774086,0.049127139573798544,-0.1407850116208038,0.06785708952266654,-0.7683815020230708,-0.04482074328526503,1.1875
-3.900663480033609,0.27964342832527544,1.287563379075358,1.0906922693937056,0.04349914767874541,0.032401944528565325,0.16299601475441136,1.4840657269284039,-0.11598848329993067,0.9644171781842399,0.11971124913555907,-0.025368850409949625,0.08259528023418096,-1.502747277442584,1.1953125
-1.319462250151913,-1.7739362367357396,0.5951994914253663,2.3708965152001036,0.1576027428195746,-0.017862209328202382,0.13781785128964436,1.0074356622988596,-0.22965611024202473,1.518520861893065,-0.19052450477228594,-0.015402978982326364,-1.7235571397638343,-0.5146838084245198,1.203125
1.233907175439536,-2.7924388466668137,-0.6606512591426499,3.705467869508718,0.17770376002772675,-0.0628975016675518,0.016367250349329857,-0.24450961961091278,-0.16356895282467604,0.49291249867197934,-0.525728029191533,0.07869409129992042,-2.836768850360165,1.5808789580786684,1.2109375
0.46976868560927026,-1.1771218626816542,-0.6431766228612323,2.5576804104949353,0.05566216557089241,-0.03648895800673061,-0.05170305446105449,-0.6028453149639637,0.01867271610324528,-0.8105722131477147,-0.35422956877194217,0.1164296421227023,-1.394950841937306,1.850258610259236,1.21875
-1.4156869570657933,-0.6231494190976192,0.15942087547410447,1.985039307877898,0.060084860317795044,0.0008831305325029098,0.05793868614674118,0.0045316357616763565,-0.07187058022684291,0.26021837365796047,-0.14658354802688492,0.038568518510934235,-0.43795824576138964,0.12668525282493334,1.2265625
0.02916654277760368,-2.440776178759788,-0.09947886480136009,2.822166556996853,0.20708966858183822,-0.007992017903404253,0.16977823736295156,-0.47060888282885566,-0.3580315847892097,2.6331346341573667,-0.29037332683388634,-0.07171038013422247,-1.0034816813788323,-1.119090447733054,1.234375
4.023320672678204,-1.9080300464790345,-1.611845366740928,0.8088219987230588,0.11686573872790633,-0.012847332480058966,0.019315566236786555,-2.6778033429159973,-0.24283344093744763,2.007524415179765,-0.28473490528841233,-0.09789468349533652,0.3675284494288845,-0.5073092509232477,1.2421875
5.180002321451395,2.9142697446081374,-2.6137464788296185,-4.2120678306055925,-0.2745254416197751,0.029525653824814015,-0.26481419446949567,-3.887637114233935,0.32530583648967865,-1.8525538879679064,0.1986722426093129,-0.03370496969355823,3.9845252160860074,0.5056160771850212,1.25
1.779543027841334,6.386302389541783,-1.6365321447573555,-6.604138240319557,-0.4896636801661841,0.06069889828938949,-0.30374229340255865,-1.5490239826732142,0.6305191106059994,-3.929044231272376,0.6399283399925904,0.01135358211460522,4.860249048539283,0.1418000045277219,1.2578125
-1.5052913039181508,4.2518697376449,0.8656220913080326,-5.252126591314457,-0.28492436351625294,0.025848685352508175,-0.09174162623914278,2.650666026904059,0.3622517958150329,-2.0162934621405686,0.6645494764484372,-0.03521603541592392,1.3161878668187423,-0.9512146199534488,1.265625
-0.637012553479298,0.12508048557463922,2.967361481793713,-5.03070863718175,-0.018942465491524337,-0.02683044516976986,0.007216472381170668,4.487296405178898,0.058364426390775326,0.2051106332058265,0.5989206450516779,-0.11205577834008047,-1.6635881298798345,-0.956731446280681,1.2734375
2.2438055350310653,-1.40923993691094,2.9875460718719813,-6.173168715439425,0.013003931903819186,-0.02373080083087066,-0.10454342737960982,2.0199397790506226,0.07389947365178476,0.1030166154609798,0.58821183742955,-0.11826231761557969,-0.3500264007678914,0.15365748021941356,1.28125
2.3968243916609215,-1.2666280696803176,1.1204630066505155,-3.0977419102509565,-0.008587255617542438,0.028919105509786554,-0.14136357834052932,-2.576667000993084,0.08654211779941043,-0.3799517438692398,0.2602171514254,-0.029637104622930992,2.659431522717529,0.9489195643515916,1.2890625
-1.2202526550115735,-1.7713970691304393,-0.5479635105870881,4.373760858354676,0.10194703369115332,0.0632092220292321,0.02531035697134176,-4.925534495058212,-0.11228970178019936,0.24327841784226864,-0.37549915059732986,0.10344549757403054,3.014899984081251,1.0249306849799509,1.296875
-5.380429951849473,-2.2570331285381746,-0.14608576523674463,8.804662884812553,0.21272942936583275,0.03350180641522908,0.1930608659400864,-2.12693185649055,-0.24499595568724825,0.5799840158612499,-0.6856509908970747,0.19568094376062817,-0.16711439679390427,0.9880754258405837,1.3046875
-6.751463928847843,-1.6069241191594348,1.615137070012922,6.462936294928683,0.19519267346009894,-0.035409609125858985,0.22377756360514586,3.738341164532683,-0.17321749023583752,0.18343643087458897,-0.4061944911995392,0.1698053628968035,-4.262009003710988,0.6489737172582184,1.3125
-4.77714014627353,-0.5499572514044898,1.8819018700484986,2.541895918197318,0.12666124018933533,-0.07714288388417562,0.1970583498483112,6.6697352961555305,-0.1245394070098818,0.44829474647650713,-0.09456531755974242,0.05106577805857928,-5.891441191579146,-0.40060893374606443,1.3203125
-1.006863841195055,0.16358571962750568,-0.6739584224919781,2.1450368246172267,0.073858560693722,-0.06415198795463295,0.1539751942393523,3.6663045238452585,-0.17483173892916273,1.2022138977662502,-0.23525899321252716,-0.03035708368402813,-4.06008156904881,-1.1620409444491895,1.328125
2.613893723824958,0.6661773840452666,-3.5913408680335928,3.0391476258022365,0.005071069362278774,-0.037298996605230686,0.04186060075561051,-1.169755264552675,-0.1374703367275917,0.9073929111863159,-0.5171560480086602,-0.017036899825432255,-1.2229263931975987,-0.5839628883406601,1.3359375
4.241475101614935,1.075276718012693,-3.665370382560016,1.0732519294376666,-0.07565014749479046,-0.028743435272400437,-0.08639604456928696,-2.401277655721324,0.01887927329146348,-0.1630236766907459,-0.3835751527775933,-0.002575451318403096,0.12559604099224705,0.27105681103370893,1.34375
2.7924199068690583,1.5941253388671421,-1.2081443517624135,-2.6751535134263333,-0.13219514479678915,-0.007299538422578487,-0.10876512809350178,-0.5198615677886577,0.13665067458657393,-0.6057621187766187,0.13932023225046322,-0.051017032473782226,0.8304966669777621,-0.18464423075095932,1.3515625
0.015231238870100557,2.1189013948537037,0.807308810125201,-4.427567390731603,-0.15577658626123156,0.04564275013619423,-0.04820360690100433,0.1818107603807882,0.15209935719258347,-0.3518965141214079,0.5358282944394763,-0.09730452008814808,2.5267463570320987,-1.3030792150710608,1.359375
-0.003167665775193631,1.1970150597776534,0.9960677236480978,-3.7893437192486217,-0.10510937892864862,0.07521257196905051,-0.031113330822836422,-1.647444499541875,0.07779069120501272,0.1940594540655908,0.4993714139862348,-0.10478982269573706,3.974130661661342,-1.332464727534082,1.3671875
3.705316215241011,-1.7625292221619264,0.4174319633630055,-2.90659676570999,0.044451147109872004,0.03900758959345147,-0.07684246181432565,-3.6287123602099842,-0.08171313585602244,1.1829474303638299,0.19717253321009012,-0.12121726005720633,3.2390467540402725,-0.24676268579587546,1.375
6.221090926601933,-3.859890764265528,-0.06261340711772798,-1.870792225820571,0.1604101187104694,-0.016493251931924757,-0.10345704921439422,-3.6898754199878394,-0.18899877603718263,1.6954837620885674,-0.08588006934582072,-0.1126462803209175,1.141871364547584,0.7715962840263951,1.3828125
3.2837270551287476,-2.258999545797821,-0.5047303276980468,0.4245016398511246,0.09278704466044127,-0.03138220628190015,-0.08520329236097718,-1.9195959193887182,-0.0607276435766238,0.21866931074281715,-0.23440775448407924,0.013820096797276592,-0.3543735393987656,1.4141344813796812,1.390625
-2.1838977088454805,0.9911402798721558,-0.45476933552275856,2.429765171999953,-0.06673034417864052,-0.013558789275540578,-0.05553903997584843,0.4232578002523757,0.18835445582378646,-2.128138584417467,-0.2061547460434533,0.17535407874626743,-0.8473990463161275,1.7477165395074323,1.3984375
-4.7816045428419836,2.201638720447001,0.7540116374266658,1.3823444089212578,-0.12596407588835565,0.007744277384838795,-0.018343776627244898,2.117943968451523,0.2669389704038993,-2.557750676006517,0.06041345739948521,0.17468284121561803,-0.5926774311694369,1.1130831085957862,1.40625
-4.296123062356611,1.7810478820071831,2.241243555446558,-1.7881574365304993,-0.1001241478981131,0.02881861548769957,0.02891255715252984,2.7949310071915496,0.17315984783992597,-1.152131290662073,0.43917060984897943,0.028436196072696842,0.3007483369325735,-0.47595946148785506,1.4140625
-3.4112204853270813,1.8577137679512183,2.09847001585507,-2.7673956943302556,-0.09698057408227553,0.03360648118707758,0.05350883888305561,2.732562504413259,0.10996715606345629,-0.3510920139233102,0.5181829427588138,-0.04574113561946424,0.6387097363395436,-1.3676592052504903,1.421875
-2.112704499137296,1.473860440723293,0.1435496446213209,0.16533588579309919,-0.05871428107966829,-0.0009764482502142288,0.04956617565300974,1.8729435966107875,0.05227898451842231,-0.36780737715483147,0.08086844969519306,0.013577795781055686,-0.6967101919857913,-0.6154472244702813,1.4296875
0.04846090192030115,-0.6952011515822004,-1.3458964728802305,3.4473570769303286,0.08355481662881817,-0.04063562399091139,0.06646167146725,0.33360707957271685,-0.1307111255166817,0.5253156145115703,-0.42616657044940537,0.04583106434034503,-2.1810797918762987,0.26630158498542394,1.4375
0.705437341443407,-2.4947172858275697,-0.4156258445239323,2.9649912969018155,0.19425377346059589,-0.027759229315425064,0.11867930724244326,-0.40321785870744636,-0.2994469047026038,2.015332625118796,-0.3664648810475844,-0.03267364204473181,-1.6223404753041961,-0.33874081124318156,1.4453125
-1.0497919817890047,-2.024678327764764,1.881996152267704,-0.34491663307111176,0.16054689509570955,0.015744837953418783,0.15370502045643689,0.7656985622296435,-0.27083979579365036,2.3904626327374814,0.15020210558692954,-0.12105772887076992,-0.09036699934009336,-1.616110077271885,1.453125
-1.7437140014285852,-1.2520735684538011,2.5331105642459537,-1.7072514704504305,0.10556986861433619,0.015245869809999313,0.13159852530055025,1.9662644252964672,-0.17646109331462034,1.7939271094615024,0.3337816870082214,-0.11951517728518472,-0.2324810908063737,-1.646444472528734,1.4609375
0.7902418641417277,-1.7447873545272081,0.22941262762932205,0.902662213042633,0.11826755473388395,-0.0322183788636321,0.044584797047013285,0.4940344389539432,-0.14981904990384773,1.0074117559168039,-0.15115501806318637,-0.02256063315165214,-1.5693351594249838,0.08185304997483535,1.46875
3.663078160979384,-1.3425716335864102,-3.028843507486034,3.90811762839827,0.05273483549928862,-0.05864790332416191,-0.11451711768957347,-2.7959509498397743,-0.007031858084972229,-0.7788506588364167,-0.6994927420982299,0.12993578176489576,-1.3975194742530541,2.465678993099186,1.4765625
4.084418931276998,1.274758271229154,-4.399491219906157,3.1122135640349833,-0.16009718583946275,-0.04009640894459855,-0.2882734981557095,-4.310725702375275,0.3286829329536642,-3.456355158932509,-0.6605562809282642,0.24036495187738166,0.43290258423542666,3.8406340954437117,1.484375
3.209124329945948,3.3920702309681707,-3.2954781796810124,-0.7387015139074942,-0.30536103702865586,-0.015452601797389722,-0.3256469475672759,-2.7092302956863263,0.5045322287391398,-4.19693108379668,-0.16667856509449563,0.18252214634126182,1.5475418139079056,2.9201208990186216,1.4921875
2.4440798517089926,2.772988031987606,-1.3379968888104494,-3.415546288446715,-0.21687559115759622,-0.0020894160070341504,-0.15557864642874428,-0.2700070688147596,0.26471791706234293,-1.5448914159911642,0.23078200275751648,-0.02317816628035251,1.2101211451525902,0.04641353579905253,1.5
0.7840487101375171,1.066047632451395,0.003151035815784531,-2.7009309019066845,-0.03406884443003255,0.02103548139047363,0.08426174743899006,0.7066199384275258,-0.11173449910214726,1.7194474126162094,0.3036546645859449,-0.17958648080252565,0.9354324376464901,-2.5971692552533163,1.5078125
-2.164057748711746,0.30575047009617046,0.676950457767694,-0.10337137023389488,0.059722564275730826,0.051734333534673584,0.21849631342289202,0.5058385144151585,-0.2638437320806756,2.650185274872487,0.20052992745477677,-0.1617927885205344,1.2477099636480165,-3.225546328983902,1.515625
-4.248140128380243,-0.06511956656276355,1.3490043594255852,1.4988235990164653,0.08202890708156402,0.05881068005658385,0.22321259397009438,0.5752270727543816,-0.22137981424866918,1.9033481180837173,0.12559935020294352,-0.06903688875266664,1.0967540814748855,-2.310503791573589,1.5234375
-3.4221555162457244,-0.9006900999962281,2.42437585883989,-0.14044176186532653,0.0928607724423843,0.03916439813744705,0.14821641458435283,1.1999198989843947,-0.14868913018633034,1.3353546880815153,0.25414689359322623,-0.05770106325115449,0.5494567949519192,-1.3739098623866628,1.53125
-0.2852276576385078,-1.4515737172216643,3.5801011608568416,-4.90226798081386,0.05890530166415079,0.022422894996452364,0.02144230280956933,1.6019335597036308,-0.05407320083475594,1.1562237838544487,0.6269053426035955,-0.14680612065637003,0.8724687563940294,-1.0990318182873664,1.5390625
2.29450077035275,-1.0776220448804255,3.8350253746155243,-8.613514073441305,-0.00968206018081491,0.017632419357439613,-0.07608328457892943,1.5888565436090534,0.03716038623369675,0.9787226754189394,0.9116302310845329,-0.2262338803417952,1.5934160925624825,-1.2512804787662095,1.546875
1.495764823689945,-0.5126780724404804,2.404840983791841,-5.652927222119823,-0.011239541111508268,0.0017927910054520472,-0.04158409173498951,1.5990039682329258,0.022829638622568205,0.6658776065311363,0.5899303439438319,-0.1527571241775532,0.5347714727091792,-0.9417844823437619,1.5546875
-2.184816664283179,-0.6116352201989831,-0.16279961570471888,3.7103577936248997,0.06844924538070601,-0.032574644274547176,0.050651129692176486,1.121127852667787,-0.027760609679892766,-0.5230326221028723,-0.34282834592521055,0.12466220782196273,-2.26721645234416,1.0770584195165425,1.5625
-4.279224446537562,-1.0885226946583197,-2.1502499130341564,10.936932735050574,0.10096089004484012,-0.055575468448301496,0.0016707711395577264,-0.8516436627248448,0.07189425302532175,-2.7983000274806615,-1.112698364893521,0.4258118651878068,-3.5501171053385123,4.347573515813862,1.5703125
-1.5739087955929383,-0.9636156383146959,-2.5238126329560875,8.777575747788015,0.014609491402815209,-0.04426731639247639,-0.17578029402861103,-3.2160221026631586,0.2538984049901237,-4.091123160874429,-1.0126552726279594,0.44973980137704334,-1.5804463141647411,5.685400763798826,1.578125
2.8040431114455537,0.11411488373713516,-2.0787594151922586,1.3406734327143082,-0.08547493183810825,-0.021296410677869037,-0.2217655269229944,-3.167166677803574,0.23715663557672853,-2.441520349593436,-0.35141443200685085,0.16463995785175178,0.7035504973260972,3.003989583822857,1.5859375
3.44325864701732,1.2622838468136743,-2.117137769635192,-1.4073977824807955,-0.07572101675146978,-0.022641722122789153,-0.03485383236015125,-0.41216648413991297,-0.010309082913587217,0.5368187391647764,-0.04044678457384635,-0.09475223531631127,-0.06593587810841736,-0.9610001401065725,1.59375
0.6415694544093354,1.46747847027038,-2.540579659719874,2.010730173619843,0.0022297875632549357,-0.04261259903546362,0.1479287910678908,1.8432752976962214,-0.18908601768482755,1.6205477817858605,-0.29325814728699895,-0.08511488861042553,-2.4799662578022645,-2.10499077126261,1.6015625
-0.8110803146479918,0.999903133307719,-2.1535626519449287,3.6698864396514885,0.018710396326012763,-0.04124299990630498,0.1208710531860734,1.505830793034807,-0.12295537666192119,0.6257746785492934,-0.41570511205466243,0.022816260095804453,-2.62571418535495,-0.7960325552594981,1.609375
0.27203808711545163,0.7421916929883919,-0.6603730532659553,-0.02946931733159703,-0.03314739666912807,-0.004180593662020379,0.011672797657425427,0.20031486633201404,-0.0006657587860237528,0.11665768941805445,-0.01700895659203388,-0.01993817202775683,-0.10336546831486328,-0.4758446944014195,1.6171875
0.8155877459208457,0.6354944843055261,0.9262314107858876,-3.8549305893264387,-0.04744837051196293,0.03879368643106916,0.01780607168616208,-0.10856480886765317,-0.02888785051200064,1.0909246260914842,0.44635896045678863,-0.15723627098222623,2.091992801284316,-1.8651872201031214,1.625
0.2603166440002366,0.1609456186071501,1.9462843257421591,-4.803942427292818,-0.011748775021449616,0.05789949758972198,0.06518654171446217,0.09552889040576097,-0.09947871645835203,1.8821844361559965,0.6144148289678694,-0.21587832303248383,2.6877261108479837,-2.6379294725056655,1.6328125
1.05986154399629,-0.3892639030600923,2.59567500264815,-6.063728829256074,-0.014976447933070486,0.05451591760496918,-0.004233012096431812,-0.16508930413802758,-0.03454718745708915,1.396324289287184,0.7128246595577115,-0.2061813939713738,2.961370182825733,-1.9024007927518969,1.640625
2.5450266268640607,-0.5107848480906931,2.5380380619279292,-7.218002360595746,-0.04419090436441159,0.0414735632464618,-0.09151975493478755,-0.5015560921700803,0.05119142071811095,0.7487036081418671,0.7496497713801804,-0.19358875500357473,3.004394696591712,-1.119813361201188,1.6484375
1.4185612646469925,-0.40594052698226374,1.0754679317777909,-3.3024589124965447,-0.002332485123352977,0.02085825193208053,-0.01877330778570579,-0.3852015288575415,-0.028212786136033265,0.8278274127439683,0.3380103234113782,-0.11726189679108864,1.4774666041438962,-0.8979515661322077,1.65625
-1.6081667331891343,-0.36844686424789674,-0.5461113371323247,3.167746326561024,0.0658914043601805,-0.0034500018065093375,0.09184448234733286,-0.02144487297274611,-0.11145924292701155,0.4753354938356042,-0.27617564742266415,0.04592399824671285,-0.8066747960124004,-0.10282559090393043,1.6640625
-2.6698314953064677,-0.5357344785181514,0.1681020444205126,3.5771330849874743,0.04323720037321246,-0.015115467612090918,0.011529945277461387,0.37753525774226365,0.045378710523733726,-1.1622930312219129,-0.2942656595026291,0.16283885242134827,-1.3278514304665925,1.6215546781120362,1.671875
-1.786223772441389,-1.255386125440779,2.4887700530424297,-0.5988253562588904,0.0037519117890233026,-0.009980622802378337,-0.13589358647683386,0.6518853886323814,0.23295845362388,-2.357375736320105,0.13862733036869274,0.16070805982641106,-0.36355704537648464,2.8311681830427218,1.6796875
-2.115786400961437,-1.9219603984189586,2.287158525221587,0.8281239574832258,0.07361682138705374,-0.011964056078770604,-0.06303853827512658,0.5833880340216554,0.10333888551862046,-1.45011805099256,0.003140873501369065,0.14391182961949675,-0.8289148332541009,2.3681350361981104,1.6875
-3.166900583896246,-0.6949759916809913,-1.4999552898713446,7.324830217506412,0.11987425969954178,-0.03523589893527096,0.13402357181126892,0.48065529898592285,-0.14148557398064573,-0.05409117647796302,-0.7065375059889258,0.17291812401076626,-2.893905743905756,0.9591926611312915,1.6953125
-2.0815335824477827,2.2537735055906922,-4.272213090775531,7.656815189430927,-0.030207625340579063,-0.04448471064001843,0.12594222522934248,0.5472961943393253,-0.06234616086052068,-0.45580960772926804,-0.8335230902186811,0.15646804540018816,-2.98120183364479,0.020078829542781097,1.703125
0.01975625871993878,3.4328511614212243,-2.758359753784751,1.0150176832472633,-0.19185017857585757,-0.0027222883006956617,-0.044874611864988374,-0.1977228358843944,0.18235475081106353,-1.434845967394695,-0.15761923216107018,0.05887388505910458,0.23949971079364965,-0.15919347455450897,1.7109375
0.48075654639440485,1.0456084084475536,-0.2787816079777955,-1.4420068478838448,-0.09509546985173953,0.04570301133407063,-0.06319340186096187,-2.075764641686657,0.10210977449006906,-0.48622201902073925,0.16914479946459718,-0.015693914786733595,2.7946603118122098,-0.17845988273411909,1.71875
1.1561421412413937,-1.5063301588619304,-0.8171299879004266,1.9055700398869038,0.1010163694563385,0.01810930789881287,0.0467270123378021,-2.6797088179044324,-0.1866791099387059,1.34776601809346,-0.2427331015320003,-0.028537380667035518,1.1419063922276433,-0.25542848910860544,1.7265625
4.41771294462127,-0.7101194031144005,-2.3109728842930557,0.5144201395334476,0.05513527038517628,-0.06683858418948799,-0.006939393184706402,-0.10330812457338034,-0.15001399440260163,1.2212278789603994,-0.33331154722146955,-0.07450802287061878,-2.183047744527291,-0.27317515591657954,1.734375
6.817513898133868,1.5213052087918526,-0.8978562575373062,-7.250000030517113,-0.15623756585280688,-0.09160462259151936,-0.19097545911931146,2.9176811543759613,0.17753203551999222,-0.36160432257562924,0.38803979381836395,-0.17401122825605636,-2.2655948346200967,-0.4388478398869397,1.7421875
4.516490055774653,1.1698714434029325,2.0666220065998804,-10.160999134399571,-0.1719759710975955,-0.017840476717492837,-0.2009108262370221,2.2591490613453034,0.24892199249355215,-0.520079381097897,0.9118309578591859,-0.20673298294977854,0.8694131222552363,-0.764221911266736,1.75
0.5327546114591959,-1.7383425889747166,2.656245455105549,-3.74965499049689,0.05889902472467359,0.04948017018895212,-0.014309972934009634,-1.1869194093907285,-0.059232972684879884,1.0572581309233786,0.4723599749177711,-0.11687726444336571,2.6611995515428464,-0.6200272515148509,1.7578125
-0.9450043611086246,-3.8100013777645434,1.0266854186606158,3.5050340424767934,0.25129558894059073,0.03126468155467537,0.12380683210246264,-2.7302418428161155,-0.32316066952521916,2.063468914151587,-0.2827705355649644,0.0017787215495747278,0.955206646124959,0.1335658297434882,1.765625
-1.8390472109160791,-3.138525297412429,0.16063978514852964,5.525486868774518,0.2424721214401294,-0.012028655861050334,0.1493815902928572,-0.8509955052036262,-0.29875847153565477,1.4837330812324885,-0.5167446284813074,0.07178504075680389,-1.531181360798211,0.5518164220935677,1.7734375
-4.52894221995878,-0.7073138964132129,0.4287288070082156,4.956422314493682,0.11673114900158854,-0.003672961382630601,0.16682353417564752,1.3565121434912286,-0.14166543725996097,0.3609301892267546,-0.32712277079769847,0.1061005855719773,-1.8439510033701838,0.059829691853164814,1.78125
-5.651826045641653,1.6814857775891483,0.2578859438300897,3.401928954003071,-0.028950017787392056,0.0313532718836542,0.1472546658037968,1.5280863801929083,0.00715719529933106,-0.4362201664482932,-0.08053452653912248,0.09462286460407782,-0.253894282248782,-0.6954505225540577,1.7890625
-2.842059414008305,2.9999936736160384,0.12664710801900836,-1.069680523815724,-0.16437591967296528,0.04527816723450041,0.021004053278838683,0.8415606874285405,0.16320972790276805,-0.9378614465300551,0.28653572026715485,0.005391272646070122,1.6060059858913027,-1.0781729103940543,1.796875
-0.5148087060717521,3.1967628030720863,1.375824618236405,-6.171253050884488,-0.24198356848147007,0.05349467608099886,-0.10031986030712828,0.9151226390435928,0.2958028517239221,-1.293492718331095,0.7562669189948327,-0.0870204423635653,2.9810416664365333,-1.1641390644665546,1.8046875
-2.013003384992737,2.656728667474417,2.5219175920891597,-6.040647539357181,-0.21221858638926402,0.06830225408621526,-0.08391065639034444,1.0994114851890366,0.2986887634772492,-1.4213282708761932,0.8354655744564784,-0.06212181485754239,3.275990674058766,-0.9236835600414738,1.8125
-3.2405959810993994,1.4413129107573714,1.1314101311683393,-0.5020861062562274,-0.08959194226581262,0.04979893104645021,0.0064090042347586616,0.1679630281847989,0.13846574670306044,-1.0100831276806987,0.25415105484264316,0.04566007963153027,1.7819515575654803,-0.17597737266499117,1.8203125
-0.3668335501301385,-0.4516944657828476,-1.4740693606482687,3.8155135818477675,0.05134084936627215,-0.010056373042509694,0.032353348153242964,-1.2961694724572463,-0.0714473404078073,-0.012231806826035712,-0.4286762848029127,0.0848961723292799,-0.5539575893027093,0.6790817103667538,1.828125
3.5359527279765404,-2.113417070058445,-1.8381578030533778,2.4691910860602455,0.11911796618979444,-0.052544605601132846,-0.03332991722271154,-1.7718096649166124,-0.1454123706466142,0.6852340099834429,-0.49867402668818384,0.022270414407824093,-1.5245681464985825,1.144767078996878,1.8359375
4.9659685149497355,-2.3866125345020293,-0.33830775035938326,-1.4635683173325356,0.08178372123725612,-0.055556176296785845,-0.12827121072429135,-1.1194959051057876,-0.03832924463753039,0.28103390583346777,-0.12368752465053402,-0.03302858627395847,-1.0411731107694437,1.4000677898820981,1.84375
5.525604411213241,-1.6630013485704245,-0.7774989991601379,-1.9810548083258408,0.028511907834045776,-0.07314589151282998,-0.1731878012323474,-0.5281487423278404,0.04543032713077836,-0.3636874955195485,-0.12009142321540602,-0.016359472273977226,-1.6123083670861857,1.710462178919315,1.8515625
6.373128264588483,-1.3367289291039794,-3.5516083236434093,2.0498704226968774,0.05986376644305958,-0.12128456108948082,-0.12079711587615644,-0.49990587458663327,-0.05634840335722255,-0.0757180098140336,-0.6730135174363062,0.03736707563109966,-3.9497933555813267,1.8640363406668836,1.859375
4.77012951771762,-1.425245698590199,-4.40556391040686,5.447278235537891,0.11684966528278583,-0.1276997110578565,-0.022352834779191304,-0.3311291667237292,-0.16761422240736223,0.3811516441638377,-0.9815786279838783,0.08475229047308565,-5.002475921112373,1.6605094178473065,1.8671875
0.24181529868549168,-0.770830367364813,-1.6017513430422383,3.975288459690964,0.07995788955562178,-0.053771090127608265,0.03671221439210376,0.32537785618645754,-0.09264340707219594,0.04349415245278905,-0.5138138421160138,0.08653391286353235,-2.662185360678215,0.904454722400005,1.875
-3.220546522957102,0.5150150766468572,1.2455271203163907,0.2838329971577544,-0.0034509690588318525,0.03578463847654081,0.08553892745436428,0.8064420631386596,-0.012100746056530406,0.15280715044120458,0.16913516362514708,0.0025672947448328026,0.7400071228785621,-0.7990426887928291,1.8828125
-4.0501435860639186,1.1687389597344635,1.6679510759882967,-0.9490522728696481,-0.010132757569673261,0.08046581650639384,0.18641014911626164,0.7013863381554244,-0.12348595028447852,1.581501141808999,0.40662112799590705,-0.11664728080382554,2.36426207783852,-2.9061563182049004,1.890625
-4.974397716871258,1.1654953627136522,1.770449585432077,-0.3281077934422934,0.012143052569364972,0.09825217949107275,0.24597745791723982,0.5212745521125526,-0.19202430068651322,2.15183384649545,0.4053068388109348,-0.13568068220067284,2.8045131996957338,-3.545082952076199,1.8984375
-6.21795645217594,1.5033352126976756,2.7469668271299317,-0.8968629685613809,-0.05285224339113207,0.10493745234172995,0.14429040563641218,0.6237693159543032,0.01863384939111738,0.2572110637846111,0.5197846305895057,-0.028889291941766385,3.2452744138212717,-1.9682797653356112,1.90625
-4.433266865708357,1.8029452734100584,2.3698464596813733,-1.9783783168024396,-0.132088723074592,0.07203442574482305,-0.022374309318026808,0.5170070405955515,0.23716285945711393,-1.6478294115820766,0.49872412105615055,0.055807639205149015,2.6965961738937203,-0.03587778097772941,1.9140625
0.03595286111280272,0.8451888670511832,0.6421994374062399,-2.197684227075006,-0.092799782606306,0.015938456520213192,-0.08845136548422289,-0.1506250564568063,0.16734741413696488,-1.089964325230587,0.2501788699035048,0.011507569123921238,1.2278843773761199,0.42441384270123206,1.921875
2.2311668244898293,-0.7030933644856473,1.0840205093723705,-3.608339182424991,-0.014295707088007363,0.008187957237800325,-0.09030629040442359,-0.7023782262277848,0.047822170049914355,0.10253382483850008,0.31316270444921,-0.07738218005445485,1.3282978577603095,0.0818378877851611,1.9296875
0.4923167197458014,-0.9461199385062299,3.611815933925698,-6.194290142710448,-0.038657195004992144,0.045905175615818375,-0.13083246428820006,-0.343763003151682,0.16211255407033703,-0.5716759527758556,0.7320728864788657,-0.07585195419718438,2.895638172890494,0.3623396057386715,1.9375
-1.1650355900380702,0.008731166607084735,3.2949408036022323,-4.7617910395534535,-0.08751088133333612,0.03618888578584703,-0.14196365298890526,0.49778580691302476,0.26817469836233615,-1.7456208030461244,0.6268878551180289,0.018638143314238482,2.0794839174867596,1.071091892637266,1.9453125
0.30244152748414643,0.24057886419227087,-1.184386209263418,1.9962611670952197,-0.012757738500510627,-0.04785260053669069,-0.040955374847576304,0.7107428762746386,0.0672757110782594,-1.0177708106400338,-0.30047742981653713,0.09799195383926759,-2.0585476550213944,1.246133923354868,1.953125
3.1894975053840096,-0.5831453546109822,-4.8067122665271595,6.693060700201173,0.10822460922980404,-0.11705916906944593,0.06146849706162751,0.24143369795084194,-0.21843213841575437,0.7730706063738078,-1.0332270139582793,0.07974675395056842,-5.160896718529437,0.7718132122084066,1.9609375
4.542416248876083,-0.7463258331229825,-4.242426270625538,4.202815328456525,0.10051361555041367,-0.10694051482778855,0.04510743512593044,0.10571633344995525,-0.23789609048690671,1.390057943093825,-0.7997299467010309,-0.011519531607506508,-4.3062337469773695,0.06490334051430104,1.96875
3.5746035467286594,0.2986109137878343,-2.071532279536696,-0.28370019444805106,-0.006582102168537373,-0.05659475986894784,-0.014866777693177768,0.5032945505137532,-0.07085214152660765,0.7372928332314684,-0.19831405736756033,-0.07131763553779488,-1.8441548345872534,-0.4950714575945045,1.9765625
1.3991703343797826,0.9637128615839222,-1.2428695221204842,-0.33912611034685225,-0.05180908157776009,-0.02312464826776015,-0.016553344820143933,0.40816754808415867,0.019249683875706105,-0.006254480814896355,-0.06003047873252784,-0.02658013202785993,-0.6703620954777189,-0.35464298677899553,1.984375
-0.15532135615240997,0.2438777201445028,-1.3331143791130546,2.5557178157519607,-0.005052254142761506,-0.01607707497799961,-0.009791429489475017,-0.621923894059471,0.0192543651781516,-0.5917223504567842,-0.30959982131097497,0.08464324068868943,-0.6578609560769907,0.7948170198721214,1.9921875
0.0833810985854498,-0.9549289570838568,-1.41776265552521,4.148409187668728,0.048456186517182434,-0.02336811307923928,-0.04794122959597983,-1.8017220716136029,0.01951612380575386,-1.0240205141092165,-0.5111009428611356,0.1597461816278286,-0.778458311445232,2.0995811167944476,2.0
1.228358888338556,-1.6180509908428846,-1.5799612549806055,3.9659600724297603,0.08401026331388907,-0.024535145866509955,-0.047489824847800205,-2.497955424866204,-0.04431337031833104,-0.4492601278001079,-0.5414812695553533,0.12527000272563765,-0.5616357751909699,1.963329026343194,2.0078125
1.274207536461878,-1.7344307659228106,-1.0732534090191819,2.5630631959884447,0.12282660768047227,0.00890792237463367,0.06043507037264997,-2.6150277484827584,-0.21917299650644329,1.5064226175802815,-0.3298362659319063,-0.022489762488953687,0.6614636331093346,-0.2016119424683962,2.015625
-0.449201132534829,-1.3160934769140218,1.0725178458154736,-0.7860221456698545,0.12362986277077248,0.0697662909130051,0.18047803945432603,-1.67432385271764,-0.3298155626166611,3.247641326981096,0.21989718867042543,-0.19592627785633074,2.7274139333687355,-2.8916494219476325,2.0234375
-2.9587187036889655,-0.19321770784539055,3.666730315515451,-4.451660625437102,0.04173119113765637,0.1023732604840068,0.18051486605894543,0.5724126006863787,-0.1915456098792218,2.6750858759630947,0.7941484844727569,-0.23902739178036908,3.6507512804707347,-3.652773190914684,2.03125
-4.944571109999743,1.1608259617194931,4.5604093217103445,-5.088335538099397,-0.07490366625770091,0.07747222702375199,0.06831290033620825,2.8359238517961596,0.11272573181134485,-0.04707276976852879,0.9143172507178551,-0.09401682931436563,2.339033515377058,-1.821280418402819,2.0390625
-5.227630285748154,2.0667532328325886,3.7224388263663095,-3.6922120693989813,-0.16012721116663037,0.036135920080301615,-0.05621784843960096,3.5159544127145783,0.3532422493724764,-2.539305263910817,0.6987057355317271,0.07650137200082945,0.737715742616714,0.47020127445622983,2.046875
-3.3577383736435595,2.3005574159571025,2.8648133252787167,-4.203251846192748,-0.20397183930230536,0.020471646929053053,-0.14269519396710895,2.774691539883901,0.43446021007891655,-3.1909780248860504,0.6360149483049464,0.09537648867107412,0.7747860814740598,1.2011002139173974,2.0546875
-0.8579301823743479,1.5435793776552045,2.5971912707130596,-5.501701626750485,-0.1818224411186894,0.012545996634235983,-0.18468471929742378,1.8302934506257855,0.39158076153135957,-2.637263754840711,0.6573078755263884,0.03544695034987385,1.135051833307758,1.1628245578540437,2.0625
0.0432673554849102,-0.1003581333650688,1.5165945716094673,-2.33163460702698,-0.058390247319277715,-0.018565362466197628,-0.13837813296737794,1.0555043909994866,0.22513623396043891,-1.8255538046765212,0.2338059836402912,0.06824019950533627,-0.3564084228725461,1.6866572991545894,2.0703125
-0.2916790447768973,-0.7786791478176397,-1.6269039146505695,4.747909070491317,0.07383572989596023,-0.056196351042297234,0.014813276585490222,0.1971385115960658,-0.04432618176520407,-0.5623686946504874,-0.5839987558881444,0.14198456587590966,-2.807063580137339,1.5736910402122664,2.078125
0.8216733464975304,0.8527361551104972,-5.362376128566485,8.153927518083965,0.0623238139372212,-0.06342414699165537,0.15034929048025475,-0.7396140327297156,-0.2491976566168682,1.0872962311894232,-1.0366094630188487,0.0785742650435837,-3.3190024769310296,-0.43844866775097857,2.0859375
4.15013587416982,2.1784277566059456,-6.33400680331519,4.356194282023924,-0.03415337002624862,-0.04131206348326578,0.11460132835395972,-1.8625948431217447,-0.256079826241248,2.067675492819312,-0.7518715474683048,-0.09162466943695438,-1.2665937063385777,-2.22925556509892,2.09375
6.897004382484994,-0.12281361081457132,-3.5292762327713496,-0.9798647853092761,0.0010569451702779132,-0.021982761139506493,-0.037988134555734326,-3.1666016958651158,-0.18305243301566407,2.012826582884253,-0.24929032341869667,-0.17240826923155975,0.8632916823678941,-1.310231093659216,2.1015625
6.299549406409931,-3.8615596363121503,-0.15209375680537093,-1.7707660597630073,0.1635982802719029,-0.021758301044376382,-0.0996475871936105,-3.51216603446235,-0.19568554327526502,1.7344766742633317,-0.10561577718250642,-0.1134247544220451,0.8789770722813975,0.7566207576009674,2.109375
2.975366544819098,-4.028556695259638,0.5705892832687705,0.766434147760812,0.21360268939874613,-0.028703878742756487,-0.013779528292896732,-1.8510177480577241,-0.22276411782752537,1.4722028113201673,-0.23021961761475526,-0.029964604637407778,-0.6250025343797521,1.031181071284009,2.1171875
-0.4177906021494409,-0.8960964844871611,-0.3087025606245475,2.148657301421716,0.08651669090265372,-0.022922776593981446,0.07088024770664664,0.47969681341780834,-0.12747100473201442,0.7018943717039672,-0.2320923742100343,0.013969261264899765,-1.458059208511414,-0.03966624124718518,2.125
-2.373225115999366,0.943086773152381,0.026813087668055867,1.3306984057521598,-0.02371611168542591,0.0035968462272066653,0.06098756867227233,1.158573629323644,0.016950147954575105,-0.28477322784143605,-0.03248645961997824,0.04049702817287223,-0.54827299040895,-0.31885782568099136,2.1328125
-3.1820929855788154,0.47851829120361994,1.467585673712578,0.06889005212959773,-0.029943085885815738,0.034988114047335275,0.018669033015882578,0.4429528495680142,0.08778582459191829,-0.7746441861426594,0.18103014612320964,0.056285693834696726,0.9857763096956796,0.16549096708543803,2.140625
-3.3824786506140976,0.41831610841310185,2.060367956237636,-0.7269006404951415,-0.04110942913413539,0.04158280694629065,-0.004428864164700268,0.5073280462188547,0.12963989639292156,-1.0466923858972657,0.28697664028411835,0.05914058746668907,1.3433452625414546,0.35575129128979727,2.1484375
-2.9334063942691926,0.8947485774796208,1.7725521865837515,-1.1320225853961476,-0.07021967195701592,0.018303363317556463,-0.02526756394824983,1.515401116934804,0.17402582801464883,-1.3821122918054112,0.2836771806490079,0.062877127236773,0.3462549063970027,0.4739152431067241,2.15625
-1.7514677287325124,-0.08163320819390672,1.711289198748085,-1.0120109130150376,-0.015266415181030389,-0.004829288352962411,-0.030882999272111904,1.5984683267171087,0.11432723332524122,-0.986716606713902,0.1974564033248801,0.04985086364722047,-0.5298706459259154,0.7390661298449361,2.1640625
-0.22166082493479503,-1.3132769265337374,1.3217255264491503,-0.5500615421325269,0.0644555087823823,-0.00807427253617626,-0.0028372926706907615,0.4994228375258296,-0.02833372763270925,0.16505162296633366,0.07981562948875529,-0.0009960222311866506,-0.42851007874809455,0.4226318141760114,2.171875
0.6888969371647369,0.12206080959049935,-0.11717705782446695,-0.7582474690325963,-0.00849060352090828,-0.0006626153683509396,0.0013819321597295883,-0.030169615193668082,-0.018810745635779582,0.3417707646082591,0.05480343824655923,-0.0410541834782236,0.19476403273409612,-0.427558397930832,2.1796875
-0.07502336839918583,3.2017566549295164,-0.938672689512319,-2.1610688763125037,-0.20019974792915643,0.015961097380066888,-0.05539314080472675,0.5817852919292769,0.20451708730477955,-1.1317544657666048,0.23707093492595643,-0.019308119072946668,1.1094908177878382,-0.7669906023325007,2.1875
-1.9639860533107114,3.9696962332471086,0.3014301902787282,-3.333283286623622,-0.2674534258397401,0.04145583928455454,-0.09226310328697132,1.0683006345561825,0.35129923237793237,-2.2345440938181755,0.4784412072651265,0.02277860514922357,2.0622075293661446,-0.4026252667693744,2.1953125
-2.339709309084264,1.5076091990652962,1.473160079009,-2.1180519827637596,-0.11494657892355789,0.03955339892093394,-0.040361112942865915,0.6520676720122963,0.192911596876532,-1.2638179723039709,0.3817679149687632,0.02439463315000455,1.6347381456127943,-0.029088239801035514,2.203125
0.16849921529553333,-1.1270405727059818,-0.025345841304013465,1.2040589845495475,0.08223498282473066,-0.00859569788984094,0.04542505468736909,-0.3016914377752973,-0.11915926836585354,0.7867509352090446,-0.1394164844566217,-0.00912866071778479,-0.49750056941004883,-0.05996822443738923,2.2109375
2.8206342204379995,-1.6602136870650854,-2.4371473742564,3.3931773298573584,0.15386198154138436,-0.040947156512175294,0.10649844633450506,-1.2811172871628453,-0.3249191491072029,2.326570705643836,-0.541986880131397,-0.06485985256999272,-1.668520189890261,-0.7818927593173844,2.21875
2.468872036210151,-1.2924294520398507,-2.1477721292347547,2.4382658106019917,0.14729155524637166,-0.010128288401444214,0.16130331392779274,-1.5615372484785666,-0.38963693700285845,3.207581898240341,-0.3784812123232772,-0.14235635337981473,-0.4321884821081472,-2.0684055140322197,2.2265625
0.7004893076833683,-1.952275617087949,0.2801025414201494,0.5074753488848323,0.1726555435877775,0.015724838270465984,0.1773816060080792,-0.6321738823806946,-0.3729567940481531,3.2806252694765816,-0.03292185540912723,-0.16797594820471798,0.29062411998025844,-2.2660692400317632,2.234375
0.9876506387396217,-2.7967244270190843,1.1320775268846541,0.23442045445543752,0.1695874805825214,-0.02450420772242419,0.047058168379638894,0.18249511426311163,-0.197302256778364,1.446887344107098,-0.06615720902851685,-0.04851071462607572,-1.1763458218039253,0.10822416373360898,2.2421875
2.560128991206677,-1.5924585116204117,-0.36833395792590423,0.6482694576787894,0.017401367381981468,-0.057930807492401204,-0.19643053934229707,-0.9782017940139783,0.16757863427075853,-1.9839356096277612,-0.27309600756559144,0.14832224498342816,-1.4125243930231106,3.3187962024333255,2.25
2.2641665383197433,0.9661390872594459,-1.4786252535929707,-0.0017846738940794945,-0.17473746317593883,-0.01889152690646008,-0.31630262225043176,-2.7298289716500594,0.4360325538687873,-4.023106200321592,-0.18791493278733376,0.2259810480027241,1.0595174521484827,3.9790521490548802,2.2578125
0.4014270506477431,1.6014516933858287,-0.839352556801441,-0.4956123025102422,-0.15452123688472633,0.012230055940078569,-0.16216026776390904,-1.537992157605828,0.2830775129961171,-2.36699402365156,0.010475382454414128,0.11209879755831069,1.518371105024839,1.620165813850805,2.265625
-0.592229918712781,-0.1705594225793316,0.03968339479306803,0.6878230832024133,0.060643978828685406,-0.03387211701499676,0.10723403535577607,2.326145666496402,-0.13595441138751926,1.0934784132424307,-0.06194882541615761,-0.04924596947731913,-2.2518729619021896,-1.017310718934074,2.2734375
-0.9776735929559828,-0.9312820234299468,0.010173792370744447,2.042162021885468,0.1564793520900002,-0.06956928566206438,0.21552053269942062,4.214052436078627,-0.3044918476240641,2.2998030051760856,-0.21018693288418594,-0.08461622746989862,-4.6191058119110995,-1.7425716838466436,2.28125
-2.0396923201782537,0.7441481758575031,-0.2693084359986919,1.755752869760606,0.008077177170826665,-0.016558357931230762,0.0978733941920094,1.9253345342042383,-0.051716942703315325,0.24064965390912665,-0.10955875196205336,0.017739499646807443,-1.6455046186345907,-0.6595415946485598,2.2890625
-2.344183508443307,1.826733435616488,-0.05155227098784211,0.48625657245204684,-0.1352146780617652,0.04521372547245686,-0.07033991216565387,-1.2141621776746414,0.23114380450066974,-1.9916117820545287,0.07379053931255126,0.11683935155267408,2.1467185860766693,0.8804796100352565,2.296875
-0.49659112524099464,0.645944013468275,0.4333576345823389,-0.9086966561597478,-0.09610205518051239,0.035816419215972284,-0.12102655354813173,-1.7618257428446438,0.2117400785480187,-1.7193944056046433,0.13947863615590045,0.0815599016203775,2.289216866243702,1.2683899053189998,2.3046875
1.3082077698118777,0.20864040815558327,0.4966387622261834,-2.697134514990105,-0.04740812578881761,0.015838589765760802,-0.05821340123522871,-0.5812393569887301,0.05615947299042512,-0.003940258150885564,0.256323966422763,-0.0620764744173321,1.394702736737463,-0.28625287706936686,2.3125
0.5079114662057265,2.434830135177137,0.014262067993384933,-4.111667600082622,-0.14356873900049963,0.04912162203348201,0.01759726404872395,0.061215333578817435,0.0431452298247906,0.7016116780746321,0.4859216544263772,-0.16329253440608316,2.5720279975312605,-2.4717874794144823,2.3203125
-1.8866763146229852,3.7079385246436383,0.18268609669155775,-3.5326628662732777,-0.20123558300802713,0.08127510030217194,0.055565931051578,0.2248543735380065,0.09960975422958787,0.2538719760576819,0.560842348566086,-0.13227233796687432,3.485809910509337,-2.9029910244992467,2.328125
-3.444908705114058,0.4860830204255881,2.3052250699029786,-1.5226847784123356,-0.018682011602573816,0.05495086574164025,0.07137799703201847,0.9065450806655917,0.01816675095852164,0.1810955336021372,0.4074781624040948,-0.033758535140846604,1.6627606745416597,-1.0743987564592412,2.3359375
-3.3794021359077817,-4.206415242905604,4.958079020483249,-0.4201190112570948,0.23481860641411836,0.011889445390706698,0.07019847447142886,1.4635607464597742,-0.1351613031589926,0.7447607425590137,0.27491169936797594,0.021761941636171993,-0.5858222175974556,0.9502857018387667,2.34375
-1.648364213963007,-4.720215469559016,4.428885109816119,-0.6118281533606305,0.25057057945268907,0.00019163105659087667,0.03419854726102304,0.6718893352891394,-0.1552403706898789,0.9140668308320171,0.19979728183354312,0.007556528393187409,-0.6004211422439902,1.2342854161951498,2.3515625
1.6647717712211267,-1.0947243425123474,-0.239123610646802,0.016477902616488863,0.05254275942700318,-0.011817673848341469,-0.018320634714310672,-0.9093137774478198,-0.06712334507700292,0.5134483693435139,-0.0874425682755986,-0.022613580538876053,-0.04045470127228569,0.24712604329715968,2.359375
4.809832991622286,1.3589103371996736,-5.090646028986157,2.828441197687228,-0.05395588994478918,-0.06544685013343242,-0.035048669495171866,-1.5165396790672632,-0.06317405330061548,0.3153428071665768,-0.6448650588879907,-0.0041382194672327805,-1.767832252398722,-0.07097585727212952,2.3671875
5.269414739987126,0.13563709693072676,-6.169563429629981,6.202480357383078,0.045699788672663326,-0.12715388537991623,-0.008949965031046808,-0.7022404103654112,-0.15558369580359735,0.37160273189272414,-1.1051830530983593,0.07533379438671195,-4.844492295950849,1.011457840946162,2.375
2.9911684357409034,-1.5130006204772724,-3.994074729673728,6.779444359211803,0.13525033115782276,-0.1262771341550558,0.006747956533374843,0.19688980327349082,-0.1584141669008881,0.03284744269257476,-1.043291810803697,0.14195950108115188,-5.4704707458782496,2.0200492379360355,2.3828125
0.4776191296969548,-0.6426847533870685,-1.4133909798517403,3.3074571164780995,0.049734584431903824,-0.05157312825973602,-0.013790528575563647,0.08914080166233947,-0.01735765138939441,-0.5407322432668723,-0.4544617112792056,0.10674465712220968,-2.2918232173856388,1.3932431664184535,2.390625
-0.5001454979371557,0.8661452491968359,0.31305208195896156,-1.2013084759253303,-0.07136165976703247,0.03041364789905455,-0.03405895917714785,-0.6601496295255124,0.09296624427303023,-0.5185331344390736,0.18161404549718663,-0.0021940619062479146,1.6357306031791068,-0.13565420539399364,2.3984375
-0.3717223435649696,0.3762865685426421,1.3504370763639355,-2.887392918183878,-0.05613065468741245,0.05816118662326289,-0.029780052989027903,-1.2236543893396943,0.06235216534774706,0.038201010066658346,0.403248712536193,-0.06368752789331619,3.0099438306860833,-0.6694973043848272,2.40625
-0.1817083503442687,-0.5902263935969218,1.4565942448034708,-1.9975942119128949,0.0021082264785865033,0.04291898139845806,-0.025584717017093576,-1.2413835589586584,0.016096831269373335,0.17882114275442565,0.28432907269644175,-0.041328773238764174,2.2663819884839125,-0.17042178132971048,2.4140625
-0.4512514993847741,0.8302783823560782,0.514942661481154,-1.6202048010448027,-0.06988560220694263,0.03216595403539164,-0.031042984949011254,-0.5258867641352714,0.08651266531256131,-0.389505347930829,0.2306949392886316,-0.018167854855134235,1.7075067657992349,-0.2952515802173593,2.421875
-1.4840832834639246,3.454690591210659,-0.19424366232457418,-2.510141262787619,-0.20398440196140982,0.039251951798771396,-0.0137465761400147,0.8960730329137098,0.19306068581246594,-0.9154839259381389,0.3734273459485367,-0.037279170755984366,1.754679347898442,-1.3503134940781747,2.4296875
-3.1822962316398242,3.585962263963019,0.9886127364985717,-3.1176895941556286,-0.2012959980996583,0.04792114928734381,0.025476758889416785,2.2014792742753144,0.2006836913518444,-0.8919625062419169,0.541865592490156,-0.04546434146301356,1.5773074922406365,-1.7279143165032962,2.4375
-4.275130109203329,0.799805700044309,3.6240591752102005,-3.3247528174616834,-0.06126256205388521,0.050655676938553426,0.025519790025619174,2.3568092953829294,0.14230487196132066,-0.6996880225877257,0.64598410297853,-0.015925724419158484,1.3715636797643425,-0.6375765593248999,2.4453125
-3.047599145672204,-1.5625384788800216,4.745419502093149,-3.6450880561677454,0.037193977850693546,0.040201398156387264,-0.03675167478836186,1.361957167196353,0.114406772831169,-0.7004969327686003,0.6229879165060537,0.007112546219443441,1.3572229499779966,0.7064256011069071,2.453125
0.30972413379335395,-1.4113300498372952,2.2105662550666807,-2.5616565745043585,0.025910871035923443,0.0014424120171440805,-0.0870115410150353,0.17155258591911035,0.08370171038121081,-0.566890135118375,0.28528807490534475,0.003587963624216095,0.48669731125547955,1.0475175484170116,2.4609375
3.1239514063613663,-0.3467521740931324,-1.9677131984687295,0.9652814845422244,0.017356949007140413,-0.053437562588729934,-0.04526569180605395,-0.39191219131274907,-0.040818207436985436,0.154516828764222,-0.3194840422975001,0.0010959960430152753,-1.642308313898343,0.5453512255969122,2.46875
3.1487811284806213,-0.6847296667384474,-3.6363397955752843,4.399223797500736,0.0989811439622201,-0.08010702526104779,0.06559181337790672,-0.2561487970948841,-0.22929748567798175,1.3086879784603407,-0.726822099458138,0.0025763944048057996,-3.3684167570682746,-0.040920521014459046,2.4765625
1.2956592938911327,-2.2535674838890545,-1.9307487920209057,4.979288516828002,0.20685271923925144,-0.05974809429236487,0.14311980319288592,-0.11185880167575164,-0.34670571284472834,2.1259968888336496,-0.6589552030302803,-0.005549373172722765,-3.1438442631424084,-0.239075606277406,2.484375
0.2340998150858388,-2.999049226267215,-0.2692766015098874,3.875259409204368,0.2236637279659811,-0.026063847602662338,0.12166152797818106,-0.7606000745943363,-0.31082964067015934,1.9022137964251382,-0.4436864921488246,0.0019808308048603674,-1.6496988068847855,0.10000559799558105,2.4921875
0.8857805599039176,-1.748676705940076,-1.2152862670116562,3.4978434220972017,0.12372663143470015,-0.014475369554111392,0.04208451870697865,-1.8779389000739932,-0.17370824453270514,0.8584395802327786,-0.4447350956787601,0.03815146509561677,-0.5351639868350467,0.5622458943122312,2.5
1.7341323472674643,0.40659861750872506,-2.983894924115435,3.2552505372598697,-0.002740878121051829,-0.01624595399624629,0.0022805872510433542,-2.086310879447819,-0.06616223711585828,0.1785917047929404,-0.4844421482460881,0.04023813496898594,-0.20087925814085908,0.22087260622540883,2.5078125
1.1301075324296703,1.6162013926687424,-2.4618060569729,1.1773761152972455,-0.06128742509439477,0.00215822058789029,0.041169211249457924,-0.942296752404221,-0.055369406780100494,0.6011430100491122,-0.19765508372276697,-0.04247007965214785,0.3796551372179008,-1.1887332566145563,2.515625
-0.8113118620434986,1.5633870244349843,0.30041968422261506,-2.1744404490480034,-0.06456294054431483,0.047323443434716915,0.08664033943171372,0.26633002131285416,-0.05472427424876785,1.1779488789869257,0.34073427433610737,-0.13575370094708744,1.892087211191193,-2.433101701334434,2.5234375
-2.352183537026113,1.2072417801281312,2.4355056052792383,-4.011962620804752,-0.08147211547107194,0.07555616746083359,0.038133002403726995,0.4665767009264404,0.06041856617772915,0.3453514868090019,0.6531207577787986,-0.10870480843092134,3.080883575217471,-1.8063358461135548,2.53125
-2.0228470748328027,0.8128177233034924,2.318722998544249,-3.0124962931450425,-0.11278452619447889,0.04158937520964648,-0.11306806200710565,0.18008645828863643,0.2713974761475154,-1.9551615889511431,0.46685589752780376,0.05832379308149394,2.0877674515701337,0.9785049359889945,2.5390625
-0.5580521740358079,0.059096430532898106,1.3758631165388053,-1.1150053067883738,-0.1131980165782812,-0.027125501969991535,-0.2636880815238777,0.30159074238126415,0.43765563233690374,-4.066676505904932,0.09068371037093767,0.23184980643957023,-0.3761563996796761,4.02078869060943,2.546875
-0.011265081999988215,-0.2623597559712615,1.3669109967629403,-1.1041668080738836,-0.10316439821892401,-0.052058741058898364,-0.2935529116061119,0.8805195300196612,0.4626415280814045,-4.389529397552479,0.03757928257190054,0.25451140091647817,-1.3944466948051744,4.608214758827102,2.5546875
-0.6671482459257173,0.8234428358765625,1.6835647940284229,-2.8892607145212614,-0.12749605645251677,-0.015493791332174739,-0.18111954018382495,1.5272274481061094,0.35013363778109585,-2.8125806988376447,0.32235878336614265,0.10805026705670356,-0.19970035038053716,2.0816010537246643,2.5625
-0.6975241745409598,2.01011023013021,0.8807966680383508,-3.475040678402347,-0.13192318291406455,0.01318743803569105,-0.025481579388542275,1.833253599371678,0.149452860375472,-0.5750314216424344,0.43453541791488626,-0.05988371459497708,0.6095728595062844,-0.9622716125641884,2.5703125
0.6112564140747514,1.1603375469494253,-0.6304525304794667,-1.186751188132745,-0.03291242496928584,-0.009256496151779038,0.07100616013073222,1.3771063139228203,-0.07764463591914646,1.095908911000447,0.10394056845726632,-0.11144742092488165,-0.5570814544236599,-1.813421010019958,2.578125
1.9018549399966282,-1.0425034723167148,-1.69273714676113,2.188733684115172,0.1226654955426006,-0.03979009066491545,0.12246967806546555,0.1462001339916012,-0.28733611857552577,2.222979263275746,-0.35686448793337966,-0.08759063101324312,-1.9448013196634815,-1.2553254838723231,2.5859375
2.3889103230384494,-2.0168371688688547,-2.544545804762959,4.267306309154717,0.20861598389553937,-0.033329440643203055,0.1912167389456546,-1.3018159456564935,-0.45908998407911955,3.4241587112398753,-0.5995018980941348,-0.10856129399340896,-1.7302866667482208,-1.688933308191771,2.59375
2.3602356469172054,-1.3451242688376366,-3.15640501008482,4.285861335699685,0.1896567595946198,-0.002813305115757198,0.24362438545295795,-2.2704727683236166,-0.5270510685022006,4.228209055991699,-0.5693986088484315,-0.16773739200186288,-0.37663082937049047,-2.8941294356497136,2.6015625
1.1584539558628721,-0.6158199154014117,-1.7491107986626424,1.958515216671561,0.12186369701939806,0.031467286981340936,0.2132802710627149,-1.9776141288984062,-0.41253889468421967,3.6519721954984137,-0.2167813140775787,-0.1836786608622713,1.1423370093218717,-3.1230887223191437,2.609375
-1.815175942764719,-0.06601639698952579,1.8006688156128097,-2.088000721895573,0.04051674283175649,0.06809150511176706,0.151340951075099,0.015936717847163336,-0.18305821052229385,2.1902658897679332,0.42335055529777216,-0.16862190491988788,2.3941373278691045,-2.76247307833457,2.6171875
-4.442511100960862,0.870862581043488,3.894836123236655,-4.196227145342451,-0.03417436397059509,0.07919363814929185,0.1216779023882833,2.2741791379719447,-0.002047744660663111,0.8867733459420577,0.7976596910116728,-0.1320932135200345,2.3569748260911902,-2.4739216085740576,2.625
-3.956180608329187,0.8686472533044698,2.296300326898833,-1.0948412817498199,-0.05210131252136184,0.027651595577185255,0.02302879473626152,2.043433240487077,0.13283353515886598,-1.0010827921238488,0.34639417401820727,0.0447027204458467,0.35601095337614663,-0.034855318064539335,2.6328125
-1.0574780298862463,-1.20484695350102,0.043364395775751734,3.7272872068829037,-0.012692966331036297,-0.05204391730872331,-0.23189314111278667,-0.8388160731946943,0.3450722348491078,-4.1917575815586785,-0.4597991291149734,0.3567314411658569,-1.783997064811881,5.360550651924035,2.640625
1.296350753012555,-2.9031668168590476,0.21284085215098894,3.5932827793031046,-0.0039402231002980525,-0.07778646167675479,-0.44087016119125066,-2.864270087671444,0.5274335672391871,-6.147384107596518,-0.6037859494222839,0.49036738376776856,-1.6448880398945596,8.56700026332012,2.6484375
2.000859267770105,-1.4393351212744152,0.7934889408702072,-0.804894001435326,-0.05886700443266525,-0.03787496003006375,-0.33548060087996295,-1.789501281340624,0.40366148451836853,-3.9558396162918235,-0.08079818029316313,0.24224111372216914,0.023494835977417736,5.0409236635001085,2.65625
1.9546086662309448,1.284173454249045,-0.8727116572592943,-2.218014433421067,-0.08057710027000949,-0.003631927569483285,-0.021542431099484723,0.16063216904245012,0.020998542716063703,0.37648697624572086,0.14747962585861404,-0.09479209454046865,0.4419879013416746,-1.094306834625252,2.6640625
1.6932536764941297,1.7303536287010228,-2.9307531546517103,1.0393506201811802,-0.020936074783789792,-0.014617740108018893,0.14310707331389935,0.358769663739616,-0.21749405660948296,2.1669049594215997,-0.20860096575053774,-0.14666946577085874,-0.7750145490192172,-2.8187628465135535,2.671875
1.1385015656364517,0.7044083237735992,-2.667234001872178,2.8299680488062204,0.010174533133323813,-0.030077228119178904,0.06942382216598124,-0.2512171769213641,-0.12660417763788506,0.8230591674460717,-0.40909282331151503,-0.010133486388800466,-1.3615485678018517,-0.7212000980546798,2.6796875
0.3363736122306166,1.0061211096062097,-1.077842845401316,0.44442835977399087,-0.049196217707717656,-0.011636211078632566,-0.0023978756980966125,0.2069863389569666,0.02812279225557207,-0.21258688493146277,-0.08707700161253633,0.00578342068807988,-0.3886643357385121,-0.1990010355219251,2.6875
-0.7120239761486538,1.723337921926682,0.11848682986924328,-1.903571830328847,-0.07793830225656559,0.019075941900650286,0.05758816131722287,1.2456281032846521,0.0021743322442711417,0.5534105694859436,0.27218715204631916,-0.09448284263403481,0.6007789062234394,-1.8040751351340452,2.6953125
-1.5633179014267755,0.6338032044017029,1.477292339939098,-2.322310467046471,-0.005802863135756301,0.029053080428270334,0.10845593098372842,1.7014001409151003,-0.08381988655728087,1.2970110086782562,0.3899946071513515,-0.12932582677615018,0.6409181918510587,-2.172621804752713,2.703125
-1.1317468836438118,-0.5262455863952558,2.657933711357839,-3.4009585905098,0.02866147603265893,0.02140105083000798,0.05203195657795519,1.7643392327234853,-0.045826458949691305,0.9394861558440247,0.4886881550153078,-0.11345486123674244,0.5382549348549662,-1.2730766461045329,2.7109375
0.2628397685404588,0.8809201136793738,1.4203950852211675,-4.293598051325224,-0.06338989798880806,0.01373765114804049,0.0031792895513338168,1.6473133709249652,0.035171920319603034,0.513339727338552,0.4977231527468649,-0.13145320586652026,0.7107648131746068,-1.4988298055739342,2.71875
0.598981659757335,2.7944228698576348,-1.5680663792723166,-1.518368936604287,-0.13016443932812574,0.009877541401568631,0.05099890050435025,0.7996092845902187,0.0033321279294948186,0.6351171292798582,0.14373370127186544,-0.11327928306719431,0.5288347731973924,-2.236364108769586,2.7265625
-0.33316261800293173,1.428273644481374,-2.072220610288087,2.2386417954633644,-0.034070523834690905,0.009007060567373092,0.0830271236582012,-0.657326735145285,-0.08116248200870245,0.6343643441238548,-0.23520663420543647,-0.01428782803310222,0.2071402558286172,-1.17213327222892,2.734375
-0.29667332310424327,-2.6007712939130743,1.2040503807625376,1.3440550808970506,0.1307923616096368,0.012142828782861208,-0.008711876967189097,-1.768353778948816,-0.08201050511932485,0.24340123296224409,-0.11044461669472272,0.051230005701848054,0.6575913333398543,1.2254916048724922,2.7421875
0.848464808018937,-5.428820487831373,4.1387666525136675,-1.7037584008119586,0.2240629666037108,0.010744085988552265,-0.11172210115220026,-2.0343498773366417,-0.04928429115134833,0.0533625707990953,0.19616938373230142,0.038907660469364856,1.1594973792789602,2.6580258689258693,2.75
0.5211884541729009,-4.875216044165615,3.0290815563197726,0.058570565136040746,0.22499687898039086,-0.00642352802817092,-0.06437573887294964,-1.5079742511628007,-0.09269315504750794,0.21663677694723757,-0.007104399181768323,0.0570378780350418,0.05854896680051007,2.3861718028751433,2.7578125
-1.107177148732868,-1.6152437919267748,-1.0214877577731643,5.33259323204462,0.13455777957239673,-0.03152718099059615,0.06741927967357325,-0.5764318495642133,-0.1379789687522248,0.16102992782041384,-0.5742584764075294,0.12456821855772691,-1.9719896157645465,1.2154712250276898,2.765625
-0.8908448401012737,1.9733602748423147,-4.374642140834688,6.87850203768441,-0.029480066477700163,-0.04138789986050504,0.096979591546798,-0.19900731218051732,-0.06847154883864874,-0.2756571436348782,-0.8004862368701962,0.12885935435297258,-2.4218552545208034,0.026140166826207532,2.7734375
0.8116169837945099,3.006160604159288,-4.483077507204758,3.8741552068033864,-0.12547886619812842,-0.025060535392310124,0.02232750391611537,-0.779016299946618,0.029680974556855,-0.5188484177374321,-0.5378950259753145,0.06173742975227982,-0.9019940198358269,-0.4312344731853024,2.78125
0.412851001281329,0.9179313881617737,-1.532588140139088,1.3133220257353482,-0.04991737841347006,0.0026788340223050937,-0.01598726600270638,-1.1345306481768527,0.031236626241996236,-0.3602879715916689,-0.1812420026797284,0.03335586248201081,0.45409311737677993,0.11119875057223597,2.7890625
-1.5459738910671428,-1.0521780510700691,1.533506013260696,0.18168552568190638,0.04023563464573397,0.018029729606090904,-0.017650214144750664,-0.387483720852955,0.03526661550123849,-0.500263553454589,0.07834417345449342,0.05686750955185804,0.6622532862907757,0.897105673918327,2.796875
-1.0849269318761157,0.10543596042459538,1.84680720386743,-2.2235408752169774,-0.05546373591911757,0.012614916992189655,-0.08762195451867485,0.6123070373392753,0.18185403219401125,-1.3618255823450256,0.31167362753308253,0.04341858870091337,0.7434137357329774,0.9525874957446375,2.8046875
1.268099432229542,3.0003885624243423,0.35770441454539975,-5.54042523955908,-0.24789685750597795,0.000564806011904558,-0.17762801228353858,1.406589231923234,0.35987019214056015,-2.110621351332888,0.5348696058187858,-0.02882342201055555,1.065974423583545,0.1067506111468578,2.8125
1.4237952404061598,4.2448106289589544,0.28466137219923854,-7.295146494019417,-0.3056787888809018,0.0015253554594810764,-0.14692719331612022,2.682665818279758,0.3624139906767448,-1.6758479305658736,0.7287926626474128,-0.10967640060612742,0.9932055217467777,-1.1905306680163341,2.8203125
-0.25846359949007763,2.8679083871038125,1.7381499161771616,-6.779237676199537,-0.1867108080368329,0.014086127390535594,-0.022848970250695943,3.5096490237567703,0.17941115435053992,-0.2035232468471531,0.7947666766483454,-0.16329211774309368,0.6647611486142931,-2.1523279954424304,2.828125
-0.18645544550995322,0.1450743969390959,1.7642563849249124,-3.628843119070141,-0.0015906896405791157,0.012376724647112038,0.05643181285653829,1.882287542389299,-0.05742520489329858,1.1846653827033453,0.4557356481644394,-0.14708601534114848,0.3080777310369304,-1.7843919653502542,2.8359375
1.2062517173224414,-2.5214323028405663,-0.3190764229052288,2.316434444117247,0.17536071233877853,-0.021721923335129192,0.07684554185399571,-0.9705407242088947,-0.2543560692360276,1.708805319721264,-0.31621984219875415,-0.028221908645115246,-1.0265161649302414,-0.025410169506410545,2.84375
1.1497373040923082,-3.8076974605529297,-1.9245269589294711,7.293734054370638,0.2794056995726582,-0.06312069516286554,0.1031976446671915,-1.7088833063918976,-0.3493904045730198,1.5541620348480845,-0.9202071353790919,0.09947466285069148,-3.1416910748732,1.434461814407081,2.8515625
0.3814921359464072,-3.0069405573271943,-1.490538770459244,6.286671219664985,0.2355371800806985,-0.059161975272483416,0.1106513588598431,-0.6529058719217907,-0.299774769305287,1.3426309036684623,-0.7659083473121088,0.08414262706426386,-3.1863789407051155,1.020958129930716,2.859375
0.5505038317414342,-1.4753050790018418,-0.0424825668694953,1.1654955391002462,0.1003884230133681,0.001467355091554592,0.050162175258727924,-1.0477358744696246,-0.15625606234910963,1.1327683412271479,-0.1407519548485463,-0.027790322215032876,0.09251721585116478,-0.20118210685745772,2.8671875
-0.06744748627152523,-1.1911667081606205,1.1804936808722406,-0.9140493624741979,0.033496195554835385,0.06022019541169078,-0.025725077953376866,-2.8697544971058724,-0.0229687345351367,0.3377013659586117,0.1723179556441617,-0.021143620004087538,3.2128346181352896,0.11519345138675043,2.875
-2.508424474381334,-1.5402253991910075,1.4928092740536805,1.8215517009602675,0.057726395257277414,0.06190475944636749,-0.025227736364648094,-2.9610901956159186,0.034999711447871576,-0.7580518926300772,-0.023917007828085823,0.11698821019905736,2.7484650437862186,1.4802003592758841,2.8828125
-3.6832699019317534,-0.20876272381847708,0.2892496267944142,3.700030381113512,0.04077877980768476,0.029348517333079884,0.06996045109945709,-0.7133154645503708,-0.015978910411077837,-0.4850138852644813,-0.2115550665558266,0.1227802975808218,0.45319011497901956,0.6103971170244045,2.890625
-1.5351181484663299,2.645070488185984,-1.5382405749009849,0.7379888286958074,-0.06860434361318109,0.01710868826284737,0.17197317957316677,1.4250428161457456,-0.12366811792931713,1.4358996121936176,0.011994992093268406,-0.10675637127100092,-0.09579264824793401,-2.9772588948233234,2.8984375
1.401539034815996,4.085793758694423,-1.613055048725504,-4.364499776355014,-0.17476688558346987,0.021094852747037398,0.1315205827453115,2.139758792244753,-0.08898473924045786,2.1963395322904495,0.45100745145462945,-0.28936521020449585,0.9015849761305167,-4.796699812478444,2.90625
2.4093882168377463,2.7740339605621043,0.3845123942166949,-6.923613406504533,-0.20476283747178187,0.0018237255092261038,-0.0928278399494541,1.954285154485077,0.19089643404985446,-0.2687116769947001,0.6581142270694491,-0.17224787879241737,1.0161042777927007,-1.7247821917113804,2.9140625
1.7227245728148266,0.7918034032699048,1.5919335762562836,-5.065105586114159,-0.17386085129361517,-0.032450532773652126,-0.2944298743575517,1.1900855345496373,0.45385392489475884,-3.4435441902592014,0.4259198799706405,0.09400930375538541,-0.04337455719642368,2.784495315017783,2.921875
0.26937485132087535,0.06463362374891048,0.3283733854687836,-0.047552717862576116,-0.09736132680639377,-0.043506608443712735,-0.24552367443222306,0.11565827429708281,0.3813296983929548,-3.7112997185244065,-0.08728506309263806,0.22742562560000618,-1.0440076525304014,3.890159953692622,2.9296875
-1.1541521742751153,-0.23687668549369761,-1.24229380581951,4.417340032720312,0.012008311651821526,-0.0350075796341804,-0.05037486039169649,-0.4760102017766419,0.09705728926980205,-1.7626910465660992,-0.4986381221601897,0.20578444351853659,-1.663543786747237,2.38612001391824,2.9375
-0.9953760351313932,-1.1991834934012446,-0.9112316267822113,4.61591627961467,0.0901579462956031,-0.033477805299121345,0.01720600856739284,-0.44844894703439464,-0.04620347531849576,-0.5471227324055232,-0.5090889214908806,0.14767066695740735,-1.8433915022788754,1.6615334820423637,2.9453125
0.7887089320321649,-1.8227262711489063,0.2244975649281169,1.2307482385488073,0.09180930412090132,-0.02915114051337341,-0.029872966520663707,-0.39665790851382854,-0.043126412042845626,-0.06779630825521911,-0.1983212860732573,0.05204075801246676,-1.0832687061328647,1.2835367096903283,2.953125
1.544321111776619,-1.3257918282115142,0.5568573182248345,-1.2515443440916922,0.07441536790912155,-0.0037224986273658458,0.021637883255022156,-0.2791030949522165,-0.12711966324329532,1.2731097510784832,0.08322705828715184,-0.09114504948938985,0.12693685833280455,-0.6015029328976519,2.9609375
0.10326048361563556,-1.0458938468881176,0.8312254097982251,-0.9033076448591182,0.1001893521942174,0.019665727656672082,0.13182273326201732,0.17154210512934556,-0.2440002519926726,2.3890554613108197,0.15051043141928627,-0.15143578844964767,0.5022773675471411,-2.055808571590334,2.96875
-1.0497209476977267,-1.6815555123949268,1.563458350300171,0.035056330993059805,0.11928868907496308,0.012845502641329923,0.09160965184828088,0.3106452390553761,-0.1667828114284902,1.3702109169762626,0.08967948981347926,-0.05522044624250211,0.041441722200205276,-0.6827415071298127,2.9765625
-0.17008271180443182,-1.5128225768179813,0.8607091106772018,0.6124504286891622,0.07081181135018608,-0.00967350747513003,-0.02363418424805914,-0.28571317681731656,-0.012248759030831917,-0.2053428972463282,-0.06241457822452597,0.047859067121189376,-0.373704904601818,1.0628406352620434,2.984375
0.950916480887326,0.3099429237017238,-1.836932922551608,2.000616279086369,0.008987985975258662,-0.016644754822223044,0.03306255431286607,-0.6726176632305553,-0.07904804966022123,0.4738477084333297,-0.2928531350650147,0.0017347910529390905,-0.5970277690137077,-0.2836836267429993,2.9921875
0.5860755766849357,1.8034165310764614,-3.1789977603701685,2.512438371376741,-0.004732928043512671,0.0009274626963649135,0.19016204401826695,-0.1481564297015175,-0.26081200598858195,2.365559882065883,-0.30547773808716455,-0.12591469160350582,-0.40892785182117336,-3.0248231186157732,3.0
-0.27701120378616323,1.6566957880748372,-1.0654343110277207,-0.40622723191021676,-0.0281448634808252,0.027887083800596645,0.15820369521819203,0.4391567949012356,-0.1810903561474596,2.085969906565144,0.1001130045549683,-0.16073998560577735,0.7864918337878104,-3.1355040826734366,3.0078125
-0.46249337875333835,1.3396026903810725,1.212362824384335,-3.5647776828506683,-0.11415410433260997,0.03661623092051782,-0.054815864334025764,0.2567711602151651,0.15061229554147518,-0.6136230650706838,0.4553207424481792,-0.05043665343042416,1.9796599441936513,-0.57099568775833,3.015625
-0.4857689706814419,1.739118699927061,0.4720137049641285,-2.1619195914521323,-0.1717758790244599,0.01582627867771526,-0.16672860245102952,-0.23382196020019727,0.3352303199931067,-2.5948764145274428,0.2510416594274822,0.09478138643608752,1.4371498430791647,1.4690224395281377,3.0234375
-0.9958251672779259,1.5027323010030815,-0.6134251226135593,0.6918491648210316,-0.11682729990765965,0.002813973400989817,-0.09353119728134501,-0.3582855329618854,0.22402272823210923,-2.057071571852159,-0.05640928741412173,0.12384983781385407,0.4176066472222951,1.3287640008832184,3.03125
-1.7704156561332876,0.36123333609401936,1.4476086296201272,-1.3322392305667192,-0.04089965155035999,0.037528965608925643,-0.013622441690122427,-0.06896487933044046,0.08841335643555553,-0.5336446652172043,0.2738625601415248,0.009123496419055657,1.5709957644180799,-0.027002754762422043,3.0390625
-2.3287697982227837,0.014874470753015416,4.126941393463792,-5.592906925155916,-0.052611978055099755,0.07875621253817543,-0.024125962288649952,0.48763608868153635,0.11953071056301064,-0.12232005605295282,0.8401655781111987,-0.09366361281954991,3.43899072150216,-0.8906402604994915,3.046875
-1.9597856038629942,0.3994288229676856,3.0657203648764773,-4.232568824833126,-0.07076148770571325,0.04786098657245488,-0.04930583683187094,0.8964582904237073,0.16280573911882149,-0.7609053680188582,0.6266585300076774,-0.034283965625905806,2.1051898776605285,-0.19716075757268423,3.0546875
0.13249241916865984,-0.7568891466316853,-0.5536173154404254,2.22399460304998,0.042018025422717646,-0.04439846103366834,-0.032266201709492695,0.403264937858515,0.022085914818288584,-0.7554266336790112,-0.30591881159746875,0.10158790581640342,-1.975439863536214,1.4967056839350719,3.0625
3.382287893348798,-3.517883215002449,-2.62003932138294,6.1732112244475825,0.23441236177596342,-0.11183980515952574,0.008474897137996495,-0.7844628483171184,-0.24866696119951756,0.7582468596296281,-0.9611962693574679,0.11255846384125075,-4.696440714445143,2.2721969855111026,3.0703125
5.52638607882501,-4.834771215003935,-2.59705423578284,5.220612552804116,0.3186061886455224,-0.12038615663158754,0.044687015551507316,-1.196003643558959,-0.41784195471409014,2.3829282164071595,-0.9457838558774014,0.0027890132563344505,-4.791243842360034,1.4104255688678469,3.078125
4.800815504615415,-2.9839340279621163,-2.3436406890078176,3.125138206039135,0.20542734927149184,-0.10053191323748993,0.03269675900439949,-0.28727030791773855,-0.3040282009419413,1.9076453080581441,-0.663430304768847,-0.033417815550699524,-3.938817520684877,0.5841261060243922,3.0859375
1.5906340012827958,0.38358711765341585,-1.8510313221591181,1.6700856586541728,-0.020492283746948343,-0.06112932831304423,-0.05000388313839416,0.6719042696554265,0.04740422533599645,-0.7550485698250403,-0.34041734880001867,0.06744763748139981,-2.373828639403702,1.0168321349358547,3.09375
-2.203724505778436,2.8538112421183657,-0.5614548495367797,0.32635544298000296,-0.19496123419161332,0.0016305077875689692,-0.10737892093895035,0.8249753780940084,0.3389213768517682,-2.9473221879748954,0.031272480196181764,0.15712015017026149,0.11673450586392621,1.3596871682534115,3.1015625
-4.300015670226078,3.3654522011308954,0.3256984030123381,-0.0910897220983753,-0.20130834193410935,0.051462826701109125,-0.02340388627094441,0.6797270085842846,0.2866915488542441,-2.250646727377499,0.2385744224630086,0.10726351732231235,1.773194773533318,0.03849438474734363,3.109375
-3.204906919989611,2.2840641425181225,0.1138691195011659,-0.10310761590746036,-0.08652427711642581,0.06418878394599628,0.12141220529211082,0.22392508419787313,-0.01515365006586819,0.5471833191199947,0.23061905955636072,-0.05551194085635033,2.0733758973294347,-2.19058915837697,3.1171875
-0.04001752399836292,1.1592190583391109,0.0433241446506885,-2.364608436740199,-0.02856059131967097,0.07360989995452755,0.1349609173350546,-1.1228085556406746,-0.18065360144058956,2.431288057959219,0.36027807192709843,-0.21467590372730747,3.2226578249092315,-3.4730413025532085,3.125
1.5622156372461709,1.241343555922089,0.7783119456407439,-5.557238161564757,-0.09323872660837047,0.0944768117514138,0.022309821689795773,-2.211545387637486,-0.05612064374089668,1.8396529580481287,0.6556573176124738,-0.24959929835562794,5.084039122629274,-3.1123073868673106,3.1328125
-0.44996355367254637,1.4118545758327132,1.539339769378684,-4.66565770349907,-0.1155615440542449,0.0815516313823935,-0.017247076961215604,-1.0450294203971453,0.08286136984871117,0.3149076664521248,0.63045993448838,-0.1310657585527096,4.09808381562862,-1.737168277868787,3.140625
-3.443827917358009,-0.25748720655690094,2.196156655906321,-0.19505470469886182,0.03168903961631825,0.0246072216473891,0.07387186898108582,1.5296104966744601,-0.006363039133773348,0.03731989189085309,0.2306210281702792,0.012426460492535825,0.12229332877316858,-0.3564443130128604,3.1484375
-3.533410000544776,-2.771028184570487,3.181726620787211,1.3386982184383678,0.18986118848646294,-0.012341046447182978,0.11234536566222814,2.3495238131646086,-0.14238291460942357,0.6731434977236495,0.04891718790008622,0.04073159872195611,-1.9625992816727038,0.48956636034253836,3.15625
-0.8452267322244121,-3.2383223661927123,3.500996454422102,-1.5052700114698547,0.15063811399409302,-0.0029674769920469313,-0.019617528741344186,0.689041290505927,-0.044182060336580856,0.20805595226107207,0.24085766135110262,0.008403593079135872,-0.3255313776757681,1.1879611284366554,3.1640625
1.5530127487439362,-1.4841886152923254,1.6946294874359387,-2.602980326849707,-0.004113679440435197,-0.009487487113333156,-0.1775448713216886,-0.7472461266098607,0.17835086987919171,-1.4670400235870393,0.20463504814454161,0.05448830778736025,0.6324739736293428,2.1780403387488114,3.171875
2.525966497083576,-0.008212945811219098,-1.654949443242346,1.1348360040814396,-0.05208009291350544,-0.06997472087404473,-0.1776668921953305,-0.20645963134435422,0.19929096079596703,-2.1736507259105315,-0.3496296694083121,0.14665260633936947,-2.0698263566604815,2.7545333076319145,3.1796875
3.176522976800371,0.35391683126282153,-4.400984224905937,5.1432217756924485,0.004952118244100534,-0.1258379479052196,-0.06180933605315215,0.806789590740043,0.013932918356681106,-1.0964725111744695,-0.886985152164319,0.15120469906859446,-5.1254129201698415,2.044178290927164,3.1875
3.460625155414209,0.9288986795967326,-5.055449989122719,5.036521947679051,-0.0006858086524250214,-0.10972188096311206,0.003436079541329502,0.48601667726863335,-0.08117031676915311,-0.048074849204922034,-0.8678192004489217,0.07439400410351843,-4.492824953918463,0.6650533316343318,3.1953125
2.42847850769758,1.687449464731388,-3.6158649805749827,2.1653731093746944,-0.07183657342813811,-0.04048605764416581,-0.010138641696844248,-0.6016325435258891,-0.009687767067164234,-0.044492063006297856,-0.4254606676920727,0.010571516200826716,-1.2230928199591322,-0.24879872124062105,3.203125
0.8374341038442255,1.0501579836939905,-1.162388360363542,-0.20801132696843472,-0.056585029391697086,0.015587961880915376,0.0028598113106485293,-1.0341076348822442,-0.004310589492484798,0.27856422858527047,-0.00986794527292287,-0.04041490118110316,1.0999810153243121,-0.7699754133092782,3.2109375
-0.05526249562489402,-0.7789976883428628,0.8814828859074673,-1.0574146098372381,0.057214050148526305,0.03601503425319192,0.07160570585794925,-0.8305246395915509,-0.14405690166401816,1.524187072134757,0.179148270959602,-0.10398693601692019,1.559716969485477,-1.3409583700962349,3.21875
-0.8300757122225864,-1.608535289798519,1.6849519858478041,-0.8121768617634949,0.1156039834298802,0.04687314966641259,0.11538631560402486,-0.8324570243255893,-0.21783184495538052,2.083114065917966,0.21261941101166262,-0.11824905275099404,1.7205144123329796,-1.560145327048312,3.2265625
-1.9688251543241446,-0.6125335870720993,1.3799697109349927,-0.15099527051233566,0.05461475210367206,0.057194869110902914,0.09500036361483455,-0.9328377837841088,-0.11941631577876013,1.167025372281159,0.18879401357645217,-0.057837887465809555,2.0842512327481177,-1.1840405066495507,3.234375
-2.2034767338790084,0.7117788746650113,0.6951778968903369,-0.06538546924351962,-0.02918978354665454,0.04580301243858098,0.05170804976318738,-0.3454931768829613,0.005888811498736547,0.10527609335159174,0.16168237074481864,-0.008670592510834123,1.6526601436850807,-0.7782274977086447,3.2421875
-1.6535147196484987,1.1559363500621866,0.7058322656883904,-1.039049223757706,-0.06774125908618303,0.02003151013488613,0.008235123201394941,0.8561436203933321,0.0850635766185445,-0.4764295408928329,0.21455741361370115,-0.0008941912297475334,0.6336756856096022,-0.4420929058956444,3.25
-2.4597132761753273,1.0901252673275652,1.9570814311259672,-2.2266817112293547,-0.09437474316648699,0.01891054549402004,-0.05059094805319938,1.63523908651312,0.20873396444547107,-1.4978608377699467,0.3836083997831716,0.043402374021861985,0.5773567310207588,0.416295030208689,3.2578125
-3.8129934953778286,0.8380612140073102,3.049826648122003,-2.3098571912466017,-0.1109535513878806,0.034298519456962336,-0.1083830981133236,1.3275311663707614,0.3295061703205356,-2.674104325928903,0.466660777513006,0.12441954025183906,1.254700052508233,1.5931665293772777,3.265625
