AF3,AF4,F3,F4,F7,F8,FC5,FC6,O1,O2,P7,P8,T7,T8,time
1.0987498841570098,-0.6524482920007487,2.275264379418213,-4.693103857891025,-0.017311551116374845,0.011386578902976102,-0.07615286640888728,0.5797750031042949,0.07407331776999909,0.009895048007913593,0.5010050916931472,-0.08922391136295559,1.0991994594016663,-0.1226647732714577,0.0
-0.03502211952336488,-0.33030242194389037,2.9291587020959406,-5.112612077789985,-0.04616252130412879,0.03322533300099146,-0.08703485673278932,0.4532063111235497,0.1357508703136322,-0.4496996988499486,0.6215062501727012,-0.06883921283950094,1.9665069615313613,-0.012695555824644609,0.0078125
-2.5605009437388846,2.377375542428971,1.1255323285773553,-2.285090061926156,-0.17137723164585744,0.04771804311042836,-0.06211693766235385,0.4905841941860185,0.2621360382832541,-1.767898380966998,0.408873050286402,0.04054893794405088,2.102944471780662,-0.010257799035082275,0.015625
-2.6438939019214325,3.2539911077179076,-1.2124543712175977,1.517297260410232,-0.2081739529707069,0.008210716552351907,-0.09519951807807507,0.2914066318690564,0.3409551067147815,-3.094879807500726,-0.08197750276727173,0.1861647725976595,0.33935247904273974,1.3999549284797892,0.0234375
-0.293483753944662,0.6823832428748011,-2.17000649845489,4.228301325888541,-0.04840690072576169,-0.05340411725723602,-0.09204694805005215,-0.16410567973698736,0.1712367435946742,-2.332109776176633,-0.5500893860133955,0.22026496076407973,-2.1923114791021994,2.594999192629015,0.03125
1.5598228830608898,-2.5928063128066143,-1.8948576727915312,5.48506552069537,0.18169880505967873,-0.07614648542754371,0.027030482684285047,-0.6738604743333209,-0.1891089660395504,0.46070934720222845,-0.7626842506617441,0.11179923500153564,-3.4132394168394846,1.7769581678204076,0.0390625
1.8853254754072997,-3.6098147588698755,-1.4481502480003623,5.117081801485747,0.27281825295341094,-0.0564551301976725,0.13188152428829794,-1.0576109020890079,-0.4021390880584776,2.466528527671376,-0.6918957622256878,-0.006590972075784159,-2.798202229971963,0.197007138861341,0.046875
1.8039283958318357,-2.6142124354716785,-1.068478695762459,3.284162692701032,0.1843018810549538,-0.03697665092219109,0.06813594686830111,-1.222034954500543,-0.26575216031298343,1.6291966211499613,-0.4739076390575856,-0.00528072226570001,-1.5895623614226402,0.30615849401345846,0.0546875
1.6774635071319792,-1.4690192784023937,-0.4173851181708808,1.1217050756116163,0.05781331015005806,-0.034539304770558714,-0.07332295715856856,-0.8904789098034532,0.005014040678892785,-0.4561293614083192,-0.24451134825267137,0.06496359211045923,-0.9438065196288962,1.6022711898115358,0.0625
1.0942762294163462,-0.6169973207891235,0.23160716314660448,-0.6136314205459877,0.008420149909144177,-0.02623812483513571,-0.06464319431438507,0.254393870789193,0.0505911164431828,-0.49159089066263695,-0.010123120030239687,0.022631484594970865,-0.7446279607608243,0.9068902582675514,0.0703125
0.37498076137409136,0.3907786448257673,0.47143939118895734,-2.2265324283097705,0.015136287836160006,0.0036639404502188068,0.10804945079037273,1.5987636592552732,-0.15158605093301492,1.8876453684934995,0.2619611207226475,-0.168931896349289,-0.16240614420282065,-2.4014245460754027,0.078125
0.038728464423488894,0.7726853122456379,0.9059396998738252,-3.579234081279318,0.016680047430702324,0.034911064661523716,0.1875280322789096,1.6929005003511937,-0.2518484774569055,3.173901034200092,0.47561959352533695,-0.2798582160509692,0.9793741116075778,-4.166554426160589,0.0859375
-0.08415709171118706,-0.29936663248260037,2.0591036339810103,-3.7068279982101453,-0.004608274515699739,0.03464860144326732,0.005106643297607732,0.32032181510678487,-0.00946559587551511,0.7229089142202463,0.475252609624284,-0.11386129099022163,1.683380579060581,-1.0830297570553253,0.09375
-0.22617733396737363,-1.3452841771110449,2.697663467706458,-2.4498786419348195,-0.04731536407088206,0.004009491023488121,-0.2526431828403111,-0.872967797485004,0.3537465511160887,-3.1665749302100825,0.27309307220001816,0.16867933923015635,1.1903162894566393,3.6724412149553287,0.1015625
-0.20762992351155754,-0.3959578162843577,1.316439352291338,-0.8422482960803311,-0.09955122750989408,-0.012640165206326307,-0.2834801900972295,-1.0096484360315658,0.43108826315348453,-4.068567737835486,0.0553322484144303,0.24267036499454722,0.5453587922616607,4.329079875716952,0.109375
-0.0943783610985951,1.784854562075194,-1.1269883017191038,0.146865075134035,-0.1309618796734015,0.016678067718696187,-0.0843961469195418,-1.1888422592731318,0.18459265312880654,-1.503927257548713,-0.025103960969212347,0.07066142124760218,1.3127478720976962,0.6396657351208354,0.1171875
-0.37918772683774005,3.0269330523774474,-2.239612433548281,0.29494360906978484,-0.1368374890759849,0.05990740089269268,0.07579035759978497,-1.7863022759988139,-0.02335624387115473,0.7171869562793391,0.02685615589399739,-0.0812255711858989,2.8089332292779483,-2.3628692696446882,0.125
-1.1792225405557688,2.9199273657094005,-1.5185771391274552,0.031223084443331325,-0.13951177321452302,0.06022322001057794,0.061529552007544494,-1.2683349860398827,0.02460595761215668,0.26661352069893296,0.09603845225934575,-0.05352079249470279,2.6661995359373676,-1.9678875085915621,0.1328125
-1.6716275272319903,2.1599705499588446,-0.5050636337814121,0.0575231021653406,-0.1140212717681595,0.013980978878706493,0.007883305306135647,0.7474132081004573,0.11711164500749663,-0.8369632335926074,0.07267853271350762,0.02859902567155994,0.3745539731296989,-0.4541091844961711,0.140625
-0.7896912572172177,0.721584508871268,-0.26429523872908367,0.594308925038772,-0.017174780307753913,-0.034233152464283136,0.03145989192389807,2.1365532115938515,0.017329800027676333,-0.24553383842005155,-0.06169067367491614,0.019689319092923662,-1.9861766124255527,-0.12359657640417074,0.1484375
0.9293071966623037,-1.0115628437072508,-0.4843100366528354,1.2393621872472291,0.09451423556408176,-0.05587400924207567,0.06323305805570795,1.6425865339451617,-0.1481450669103655,0.993111608130085,-0.22205034696358086,-0.026382178670814427,-2.800398664695038,-0.21377827730979368,0.15625
0.9432402691119237,-1.6557931076014598,-0.42929847913444197,1.9468967022689738,0.12677332949263484,-0.05171004164673224,0.05691882280496244,0.8736918513488544,-0.16792569161535367,0.9903120945705807,-0.29762685377808756,-0.0026812982269620827,-2.5447152802267614,0.21087299191934225,0.1640625
-1.7822716386518358,-1.1867762371666661,0.19774778793134645,3.05883288079288,0.12050602469560712,-0.027041626560802355,0.11210438123346718,1.2936663148888803,-0.15353485501604053,0.7271020648172298,-0.2661134133441612,0.04068770708488735,-2.1724362807434203,0.035069576544610646,0.171875
-3.81043620102953,-1.2299106210207318,0.8132667276906431,3.7649357873152414,0.17072042501869894,0.002515960172318992,0.24319126390771523,1.7139065738048582,-0.29685977800733454,1.995347627553983,-0.2000778021952035,-0.014608449776042505,-1.715488985778292,-1.4384045065263251,0.1796875
-1.4655432385521245,-1.9019753437432594,0.5564915665007062,2.2614349845972628,0.20574373995725515,0.012138689180889613,0.2536594870741637,0.5276637317848213,-0.41684366317092164,3.36784001743351,-0.12312182898664446,-0.12993130962142108,-0.7215468903041813,-2.4252964595206015,0.1875
2.8664842723250663,-1.6273213630913679,0.010887265494933997,-1.4491154890671691,0.09212707748375092,0.006046019878702526,0.028360628224340444,-1.496066639662837,-0.19930946263476051,2.005709203643041,0.053738017171816976,-0.1417731381360175,0.9300311572184838,-1.0766477262668146,0.1953125
3.8531943028995115,-0.6025552516814088,0.7462686263805337,-4.578030150259322,-0.08173820107963656,0.011983832248199865,-0.23582712740006737,-2.4336927589337547,0.2160034359423832,-1.292125293754432,0.3255486429514944,-0.018400766307970058,2.532654602250759,1.5608974013148307,0.203125
1.827882417628658,-0.5921803590275467,2.1708032797697356,-4.801970021422817,-0.11419620664873788,0.02210144845549364,-0.2980947808138914,-1.962391200155136,0.3805276366438068,-2.855271030088145,0.4505364345930716,0.08284851374893006,2.784613344811649,2.908538359998822,0.2109375
1.6046195898154683,-0.9745066449176619,1.6169986133572307,-3.129169226404201,-0.04846154362579427,0.0013855866197825142,-0.2118372288100183,-1.171063632212759,0.24368834691335745,-1.9166575661567984,0.263709301813989,0.06429146790224129,1.3410139494114264,2.317639513087008,0.21875
3.2787230863331245,0.6092989405238851,-1.1182873128843518,-1.8116783656770061,-0.09589543007965676,-0.036630721248970974,-0.16712354391301776,-0.49041669951673145,0.1801743341939139,-1.3471873076060612,-0.014071511547199564,0.02445488380947462,-0.2939206468038742,1.2813092930984966,0.2265625
1.9986817374145456,3.320888895275133,-2.7012148179323185,-0.8139448867713067,-0.22480012105586203,-0.03514649816469007,-0.14522824195605422,0.37129890316043146,0.28311579723887764,-2.1476587221210512,-0.08578985802909239,0.05966427680215986,-0.552607585577349,0.6702404145387512,0.234375
-2.7264354449859285,3.415202036234389,-1.3270411673771738,1.3201378585747983,-0.18048320645550134,0.013065812166470224,-0.004262264341531831,0.9124891507564761,0.21155006249751987,-1.795595921310225,-0.036757814242236016,0.09941725620866051,0.17628595291375734,-0.07868890516051262,0.2421875
-5.368820477657028,0.19588176098704557,0.6004890744442002,4.080280911305399,0.06854360001846593,0.04695622363108044,0.198788151034466,0.3121029951951412,-0.1442689700668496,0.7408885850372426,-0.1389887152306964,0.055649077188190677,0.3965092684523504,-1.043545264719984,0.25
-3.1772398647108107,-2.5282624601011006,0.5041185126370968,5.1145763999275555,0.2456342568998434,0.025358982442534952,0.2596777970857599,-0.6683772445042402,-0.4089793322368071,2.7398572035652973,-0.3553140470688871,-0.017430717916635398,-0.42714896502413613,-1.3069542805316046,0.2578125
0.2887587293347999,-1.9208339195455106,-0.8503844033068151,3.4462013381354337,0.1753722803481077,-0.02173856732542118,0.14428535640572962,-0.399026715905387,-0.3084795881898785,2.104795854018814,-0.3975305633883357,-0.03532299886268379,-1.5039453180589137,-0.7252801429955236,0.265625
1.4832160161300665,0.43477410265612393,-1.2797921728419528,0.3436611718157035,-0.007895277571638075,-0.04171573754023925,0.008177030416315598,0.9642358577025161,-0.03544843226360743,0.29411489568017957,-0.15265012638672842,-0.024529507437175992,-1.6981441884003086,-0.29190442438338216,0.2734375
0.9257841208825504,1.5708620699244933,-0.17021840098326407,-2.530286580328179,-0.10772974638027119,-0.020991311151312426,-0.05322214317283845,1.6561039232245929,0.1260622222122059,-0.6026845312314265,0.21149254366009243,-0.040192001955501766,-0.587596417009366,-0.37846583842582543,0.28125
0.15964182662232357,0.9167700286724711,1.3800510145007583,-3.9150943332603814,-0.09203770689159116,0.011953056743855781,-0.06463695510479071,1.0973861751183827,0.14187553497870947,-0.5658135709686677,0.4454538049317667,-0.056873822270320645,0.8978816702448134,-0.3539846376092726,0.2890625
-0.6204419587728234,0.04115813310648425,1.9159199248721308,-3.017770627765329,-0.04067734988774208,0.025478225329962086,-0.047855957732298476,0.40232848341816424,0.1023565130472605,-0.4395447128873487,0.4009429776838602,-0.030526072664251745,1.3318563391222988,-0.020150515943092313,0.296875
-1.184360466300058,0.2110447233461359,0.9081706701521398,-0.6490340320610372,-0.027822097146425657,0.015080553564588414,-0.02044966358260551,0.19794386817467682,0.07737909325892187,-0.5942537023484745,0.14424903053823074,0.026086519046673372,0.6159454166684497,0.28062379438524016,0.3046875
-0.8984978131643945,1.0140237196578372,-0.634066151412155,1.0689526523276587,-0.06190950907967142,-0.0018737326452438442,-0.028214476211455182,-0.011066932644819286,0.10391598062072135,-1.0449167330679645,-0.09495856082486571,0.07519459693232927,-0.07552142200876591,0.588087018382978,0.3125
-0.07265821877089237,1.0730254307853695,-1.2479390341605654,1.2865638360117364,-0.06737717449455644,-0.009784914549528326,-0.04291189609287089,-0.37090680088529726,0.1005602248749445,-1.0360648948666502,-0.17126324584510635,0.0745994831518962,-0.19629557083693552,0.6808747341208677,0.3203125
0.46344431408248615,-0.09141812854956943,-0.822626906303399,1.0429840010022644,0.027158718995853797,-0.0052763467287748715,0.04319639344521917,-0.38841504647769337,-0.0900249579104677,0.6916936991864409,-0.14094674700460133,-0.022768804846086284,-0.22258418230756685,-0.48274626848558755,0.328125
0.7054813889361649,-1.406816461602555,-0.2711911971494315,0.8176961482743826,0.159360190062298,0.007409550900041488,0.20596927710280505,-0.0912798568818766,-0.39505423521788696,3.4990663796952655,-0.07700812428274557,-0.18345053324090815,-0.2350856218181988,-2.734428584021588,0.3359375
1.0755156050231878,-1.932527481437779,0.14214187371889042,0.08571758943858412,0.19879233875503993,0.016830079261984817,0.24537161704324092,-0.19042548773793413,-0.48672034853780405,4.447711625067307,0.01005615284766237,-0.250886616658798,0.14031318866108336,-3.502917191506833,0.34375
1.4947680910301613,-2.0960122491639317,0.6363801513528771,-0.5726765179380819,0.1353410313431863,0.008267475743874743,0.07245196020837581,-0.9729450763539045,-0.2394047492243867,2.1542601483196653,0.031630798349974974,-0.12091165487911583,0.5181201284733974,-1.0506160710094095,0.3515625
1.6634545485593886,-2.3023960846641955,0.8132757667867241,-0.02991630321082844,0.0637464032421514,-0.01851397330347963,-0.14383053299211482,-1.6985673462639983,0.08231079605814808,-1.0915432362047535,-0.09871861425998507,0.09384637122803478,0.12043844491309962,2.5459434850545386,0.359375
1.4111260475621332,-1.8125733365966787,0.33755761719322486,0.9451935811010066,0.01266930206659966,-0.04314893937034217,-0.22576401159787973,-1.385991899539381,0.2379285508922507,-2.7261535285741165,-0.24072619178750576,0.20867659367134217,-0.8179288501360332,4.099954102711393,0.3671875
0.4461290775637681,-0.19247348363846684,-0.04147973691394007,0.6540079181782934,-0.0626668800882181,-0.04383884073918927,-0.20062220723215177,-0.09005277264496468,0.29458685046619715,-3.022708077971086,-0.16900884257926557,0.20167584295897523,-1.1859812989615042,3.4144666582100993,0.375
-1.180459743943394,1.599842278743175,0.37013918792084766,-0.782644681254922,-0.15400812440119072,-0.01674682612736425,-0.16650322515691088,1.0072408949386242,0.3619905816371979,-3.1729000026085403,0.09506575996960696,0.16315265140255264,-0.37228985251731667,2.250010700152593,0.3828125
-2.3790995908833517,2.5379393596234414,0.8703877772789561,-1.8770340736938127,-0.198092697783596,0.02083400454027715,-0.12400978723950798,1.0350349152152227,0.3641107184178285,-2.839248178047866,0.3159716390541175,0.11207528446560518,1.048756422885765,1.1121703847623179,0.390625
-2.065415541485581,2.5500103960064435,0.46234931012048697,-1.8429311316074017,-0.16780936966426377,0.041026542418521994,-0.04142884511642841,0.44122945571951105,0.21915887224683317,-1.4073392472090454,0.3284408736229778,0.02226252639086565,1.816886013985387,-0.3584030520972704,0.3984375
-0.6770811462857662,1.8906114188538756,-0.6642867661595049,-0.6863274356977036,-0.08573074626772605,0.02873055588943439,0.052889707028056114,0.08209514506761048,0.0017600146177191738,0.40403341897502004,0.1341727725134689,-0.0635838608883455,1.1692310740394554,-1.5876706376573884,0.40625
0.44759883876551537,0.9243648938513789,-1.593463776667912,0.9823226563572924,0.0041769989862727825,6.003701298796928e-05,0.11661879057700722,0.12363054527102312,-0.16639238382207092,1.5804236233689382,-0.12460023270285546,-0.09415175057903535,-0.246562432220808,-1.9536585896927599,0.4140625
0.6675432644473043,0.3856546884407846,-1.7487044466522839,1.717463431902014,0.04870839976729738,-0.014819369550426092,0.14247580057875114,0.3902367504432542,-0.23018366810305987,1.9731319182642617,-0.22651432831605856,-0.09699210983847148,-1.050595873529103,-1.9579797678261799,0.421875
0.1943001793344077,0.536019251810975,-1.166121434353852,0.9234895602778499,0.03489741567443818,-0.007376219781524298,0.14024521574562435,0.7810753565347484,-0.20312189673762365,1.865321470647983,-0.10489850418219936,-0.10628932048018466,-0.8062829660483598,-2.0842398166877656,0.4296875
-0.4014497459674428,0.5609339207102544,-0.4120688476376562,0.11768930685341963,0.02194113719226872,0.004345868047647947,0.12724195743287076,0.9459351798313049,-0.16158847871573562,1.6107944355049668,0.027325708658523268,-0.10429366077740733,-0.33067805229676084,-2.0091307808407626,0.4375
-0.22739853347130914,-0.307805667226878,-0.0723380067612814,0.44420627568631194,0.06254953619318186,0.001007119805153725,0.1124061416066114,0.5453470726240942,-0.17655011116257763,1.5812807302074503,-0.017761889809160557,-0.08390801279901174,-0.40006207942376315,-1.461012054182231,0.4453125
0.9197456892667722,-1.8153349962064336,0.15087988722149562,0.8569701733215667,0.1266857303339506,-0.017780092815138985,0.0633532168869853,-0.14381240250615218,-0.1911597852763486,1.4374613163085657,-0.13525504369587196,-0.04955204087189189,-0.8744866288661365,-0.325224798895023,0.453125
1.4127704213712433,-3.0098378808969635,0.9665900558022722,0.6293111446892085,0.14847698845935597,-0.03128482280241583,-0.03817833919637108,-0.6438056164571593,-0.09047406562233316,0.330159441248521,-0.15185278431647922,0.030104088791430908,-1.0398300378231249,1.4901645800885093,0.4609375
-0.15548985367494886,-2.7785716544192924,1.9314002306661024,0.4579101136203499,0.10179960794837518,-0.015980294996242986,-0.10706655362973842,-0.7522808095140232,0.07254304634099057,-1.175808513503357,-0.05385746075506717,0.12364079388106824,-0.368760180600821,2.7212579789017126,0.46875
-1.9637453932518625,-0.829231300448079,1.8982699021578344,-0.22814833977278565,0.011557588397577966,0.021515191956626878,-0.05210140595234537,-0.2749424533957069,0.11116598635728289,-1.132381919259802,0.14260844965103114,0.08653747930466074,0.8708163845484879,1.3379325025913562,0.4765625
-1.0598395236844134,1.1105821626503414,1.0059791840744146,-2.49489414650216,-0.05931998413856818,0.041585072408520656,0.043882744392561575,0.48614115847871453,0.006715960202431937,0.5589959622973013,0.38196612380036415,-0.09599857155614104,1.6914960895776163,-1.6170849337311088,0.484375
1.5724193567362152,0.9086278863583632,0.4384918142421752,-4.05571382604223,-0.06190129656253703,0.02388299859830558,0.008307029221403176,0.22689793921141707,-0.024753902991982907,1.1065707195001426,0.4151799422934071,-0.16948688645035453,1.560526833867683,-1.9476266913911358,0.4921875
1.9587633337499404,-0.5503217131949748,0.3662469406133223,-1.8541327568394417,-0.039291941473843225,-0.0012037139720846497,-0.15099082500436958,-1.452402549461116,0.14806095297158106,-1.1432191459804548,0.10087495300303201,0.03387150672581734,1.095187387117281,1.4911124904970168,0.5
-0.5707490650890039,-0.420822867996734,-0.03707775304983591,2.022256538555124,-0.06922485780226727,-0.0021423587609884615,-0.23278735840153572,-2.500985065012309,0.3447391585493643,-3.6893576286600878,-0.24488271260640665,0.27825503907227067,0.8721977997360526,4.252504392618436,0.5078125
-2.241374052144816,1.2897226352970907,-0.9480415959645898,3.188379691761159,-0.11230782346914397,0.004038859026252711,-0.12634066233561708,-1.27616433230547,0.29518723195006,-3.1945045390103686,-0.2906183983323099,0.25274566754345684,0.37593765196778095,2.782529261534348,0.515625
-0.6951153029649,1.769691729097384,-1.8651848521688805,2.0513361459788326,-0.06261357855824465,-0.012872601189781492,0.0485069423465495,0.5567670981803281,0.0065410858805563755,-0.1857289822810711,-0.22399037746833222,0.029286756810379386,-0.867015839915233,-0.5524778525921089,0.5234375
1.860373906617995,0.529855046245334,-2.367525230143847,1.5238350964903058,0.03908646882336029,-0.041635624424714794,0.12097314271895415,0.9130252038867973,-0.22323365153016506,1.925936892886605,-0.29183803175575324,-0.1053548463399333,-2.0344729265552,-1.8506584936619097,0.53125
2.4420548911537594,0.011999291748631598,-1.9012188435169524,0.8127112603595438,0.04298289348578971,-0.049395030020280686,0.06692838558608658,0.8164823075191552,-0.17305248915049082,1.4871176661092085,-0.24859200604838164,-0.08712985924946202,-2.085220549840621,-1.134725160693129,0.5390625
1.1893562080073274,0.7332657206284235,-0.3020034299543567,-1.560796943598424,-0.041940044763790055,-0.03341202950534307,-0.014133417016127754,1.6861363057763612,0.027736797342406833,0.05075867204041748,0.08690476318026404,-0.05024855304406855,-1.307020392011021,-0.46401383746229374,0.546875
0.049167900753203646,0.5700485178052097,1.1265101809688656,-2.785956738818333,-0.053469033601631154,-0.014967524758158442,-0.03771245505405787,1.9886437054853034,0.09807608338818921,-0.4365845305450406,0.3010948401250046,-0.03701846752750588,-0.5991888826903264,-0.17145611897808422,0.5546875
-0.40113035285410004,-0.6632002992930576,1.027024673291955,-0.656689212155894,0.02807640487468814,0.0012862530529823397,-0.0037084457976622816,0.33234966872706856,-0.0010332076257163801,0.023867912426572862,0.1040188680188202,-0.003156201804091541,0.01947247671378407,0.1880770331530639,0.5625
-1.172834784129492,-0.6373874789396881,0.32148852712469217,1.313018347520413,0.04734396538675596,0.025944450260847417,0.04295408495446995,-1.1121529941961912,-0.06570528490051701,0.36535684819343117,-0.05917393761873732,0.017913334013242348,0.954232259724456,-0.043412149866107155,0.5703125
-2.437167154529262,0.8264124888869739,0.7227452606265633,-0.09833879562173974,-0.02503467199025999,0.050052624941501304,0.07922726092497864,-0.16247618837509334,-0.02466132228146773,0.42432627397385597,0.18461189264424605,-0.029744459472427407,1.6948654551943876,-1.2031155680234498,0.578125
-2.523057726664113,1.0112046528380105,1.5373808062334813,-1.8859714888298453,-0.027883546982768088,0.04632832568887142,0.11007542650073261,1.3161057856307419,-0.0485111131926801,0.9569570536698293,0.39891407695858705,-0.10076636297463486,1.2951371602318391,-2.0823133453236378,0.5859375
-0.5248812443987895,-0.8077384611281785,0.9534079403279393,-0.6519475656816165,0.08602356488840746,0.014873787729409945,0.12516330598646389,0.6608252083812679,-0.20156155637226314,1.9528202696795556,0.1446142371854787,-0.12012027745584802,0.13644428596531014,-1.7654532040620214,0.59375
1.4404791970023154,-1.8454259899472152,-0.38298995136739317,1.1410387772900643,0.14118955566621,-0.005303301885813988,0.0958404650038142,-1.0062073265650402,-0.2677885189084118,2.156581361932164,-0.1773609085817288,-0.09041232497406147,-0.2288196502756661,-0.9702942273809821,0.6015625
1.0171749176783023,-0.46059646292409717,-0.5029158376029836,0.2447395517600822,0.03404505133641352,0.005785045858251205,0.02419024822200378,-1.0449022666803458,-0.0952832299506058,0.8520915790740162,-0.06468314898138863,-0.04565144821420097,0.5335819129003415,-0.4977681920555423,0.609375
-0.474222638261065,1.2813094334766377,0.0833289326458786,-1.1926448942841532,-0.09476799504927357,0.013792991823900319,-0.047706642775086294,0.10867688684830881,0.13420765281479213,-0.8905126100286782,0.15841864394078972,0.014940444934630768,0.8527995422271132,0.05290644721711741,0.6171875
-0.13918358420961696,1.1019052627190553,-0.6711986938852118,0.35647459906138257,-0.08961083703987982,-0.011884106232914679,-0.0850063945972967,-0.017642918829701492,0.1743753039154367,-1.5928623955374148,-0.06791451447170563,0.09057373169972333,-0.17123442199536149,1.1248950316860649,0.625
1.4600298071225515,-0.47517393040274697,-2.0754374096712387,3.371744171879499,0.009663222331328871,-0.039308854176305426,-0.08767341209624623,-1.6809381289575211,0.05862377702907363,-1.2062826053100157,-0.5128796524841372,0.14276771808802868,-1.0851222236873557,2.1220686558414132,0.6328125
1.4314175350836797,-1.905466389173114,-1.236064251200358,3.552275127902015,0.08313235558479994,-0.026762594102770217,-0.08319931700537654,-2.607165157513976,-0.004453121584750059,-0.8031137278522305,-0.5085345799547656,0.1424295924185285,-0.49076111407493794,2.4572557423712995,0.640625
-0.1870472371074768,-2.7230233989100463,1.9148901740170452,0.3656257017872601,0.09516234940080037,0.0006257541652669341,-0.10724833898191721,-1.4789988690817688,0.06873117660479983,-1.084963470810885,-0.02686799449948425,0.11547505687227022,0.47449334127925696,2.572139618521255,0.6484375
-0.7401376667521116,-2.6832506129389646,3.831317623092095,-2.5435675676812117,0.062014092063081776,-0.006024106485243984,-0.15715151672827812,0.44335949248759193,0.18617027008695802,-1.7641421315615533,0.3272906841914703,0.10145938188578933,0.10404570014876825,2.8365466705460776,0.65625
0.2510169899584797,-1.1968340815143168,2.345700084990178,-2.61566789921249,-0.009243032425182356,-0.032580733287149874,-0.16089387362031912,1.3929227369950332,0.22078394215782807,-1.9132796262536569,0.24965785255391576,0.08310881474414616,-0.9594988363736486,2.343574284551549,0.6640625
0.8016205805378906,1.4065141948561186,-0.6755102543709924,-1.1207580785840394,-0.09498822641294535,-0.030769092103465723,-0.05987098332274995,1.3551527800336967,0.13062407087386613,-0.9164968830184869,0.043539529470872126,0.01038754660369774,-1.0491559705009448,0.19951984324103264,0.671875
0.21606829202130406,3.761852263498356,-2.5368041660015903,-0.4657901903157181,-0.16207345066085826,-0.0022758598580704197,0.08018031359168515,1.4475967662922606,0.007038433661783208,0.5302373945402031,0.024806258405130184,-0.09842841130309488,-0.26258120634132104,-2.540944422252488,0.6796875
-0.38199232293911484,4.790817301137704,-2.777347646340922,-0.8975876136668802,-0.1968463621119369,0.014990252240182314,0.13811751079997528,1.8457115683566598,-0.027740061943878187,1.0945772802752167,0.12157066420743794,-0.15459967081664255,0.22814965528219167,-3.8008314498471827,0.6875
-0.3801107672365598,3.975673905505809,-2.134419753149456,-0.9871874179736778,-0.1671503888676411,0.013291792159379373,0.10859240775965445,1.609323286056567,-0.011026328571491545,0.8332740351272294,0.13237329184016694,-0.1281891428130644,0.2462781133847065,-3.1134989575172463,0.6953125
0.052670245803587576,1.3826185124654826,-1.0747398974274667,-0.0963819919271566,-0.03812703634586211,0.00824542399265749,0.08646560837957297,0.43911786854087087,-0.08790567279856917,1.0722425787048548,0.02000952025590379,-0.08904365174490736,0.171310295693727,-1.846506222946333,0.703125
0.6628284889900773,-1.4607344699566616,-0.092139507380544,0.9590067477980597,0.11818014229836057,0.0025959956381132045,0.09677840944981594,-0.7166747255153636,-0.2294292312010353,1.8730293607050192,-0.113468997286702,-0.07861676011654167,-0.025256629399048203,-0.9938307314577443,0.7109375
0.6560324117938064,-2.5472047610744517,0.5114177684946788,1.2492514436564026,0.171292638510714,0.0003972387944879707,0.08673690972841018,-1.0432925918283127,-0.252958121438669,1.8992611935988184,-0.14171368190208716,-0.058469486121262855,-0.10893006557253428,-0.4195896706659266,0.71875
-0.5435061357152122,-2.0863450944660995,1.150473573420315,0.8276174004489265,0.1337403776647372,0.013572639251625489,0.06797303894069638,-0.735760533671444,-0.16842717233151677,1.2201285335277945,-0.028091383342144054,-0.026239533191316243,0.331144908054338,-0.15519030370416426,0.7265625
-1.7011216644499207,-1.8559282082751063,1.7791682538208602,0.5156715809612987,0.12727464123584944,0.02947059588929249,0.09560437501218784,-0.35099233444031647,-0.16555194938537218,1.279550396735268,0.08263831055335837,-0.03452003708577072,0.7231492440329221,-0.524022903675299,0.734375
-1.3351222102523206,-1.8908838663381322,1.388079340183569,0.8507897765159926,0.14127067770757132,0.022893907694512747,0.11729207434592084,-0.29696421606090107,-0.2119185522829851,1.6589107299046824,0.023139451733944254,-0.05252549935465849,0.39833567253544755,-0.8129413803236001,0.7421875
-0.37227442918086706,-1.040484251695509,0.20524410918539243,1.2808226578169464,0.06549289045795213,0.005188845660530847,0.024149822164359253,-0.8112860058934144,-0.07070567028540815,0.3404936518546965,-0.11337517979053953,0.02127886588189169,0.16821343323663937,0.2983280095772287,0.75
-0.5584383580345897,-0.11084703353929694,0.19352814183297937,0.8614899784844197,-0.05445602493752666,0.0033552317402908215,-0.14573040780066882,-1.4427049420522622,0.22875503595134666,-2.3384118251066237,-0.0924422466636138,0.16655609235595056,0.7553825579318758,2.5361691801883772,0.7578125
-1.4075261025623116,-0.45960842632466703,1.6224349521872636,-0.19286937101564067,-0.0772304090514168,0.00575139278686525,-0.22985566161303184,-1.1163350538852599,0.3793435867071492,-3.6735532579460215,0.06435721466145566,0.23728336307062817,0.9731596180501381,3.8764107637508967,0.765625
-1.2886363249747594,-0.7457846156545469,1.9941910097402988,-0.7368504921271631,-0.0419379597838489,-0.010811524475632594,-0.18426411715191074,0.19567862085321713,0.3064848895274075,-2.9626192356227237,0.11711107755776477,0.18583919053027748,-0.06797475461055248,3.238541785232187,0.7734375
0.1161916751922799,0.7031029266555484,0.08527998554763917,-0.6422640115999403,-0.08760921325103298,-0.03175932071218912,-0.13158925315605718,0.9236210922351775,0.23576609949428284,-2.116121396757502,0.014193937033458467,0.10770821239594462,-0.9731291332202624,1.7935433269366496,0.78125
2.236507161254572,2.2020888986560427,-1.9709018816173605,-1.0734472330939977,-0.16448418899841105,-0.03754959972231868,-0.1381059996025806,0.3210245117858117,0.2268214525361756,-1.7189023936338832,-0.05860298706020387,0.04336235738358302,-0.6761155898760193,0.8069327096289142,0.7890625
4.256689901429034,1.6045873263629054,-2.2367903892182723,-2.2527231899016518,-0.12361499888817953,-0.040033066403394005,-0.11172943501885575,-0.1185182971482243,0.10107426181671522,-0.36487772967175647,-0.012633969585582308,-0.06410594878714289,-0.44280433296655763,-0.19313166918795666,0.796875
4.586912875690354,0.2765598426047423,-1.6354961106473138,-2.4493242176409624,-0.002880935216618268,-0.04482061936955947,0.012790700501842759,0.6743409797408664,-0.1421174444290957,1.8103524216917732,0.02148723783724367,-0.1851650880417293,-1.1673733098341352,-1.7548967320669817,0.8046875
2.25894224652806,0.2540371571821833,-1.4852846294953053,-0.3956418123881903,0.05040620224720599,-0.03181153090996084,0.1348290418018844,1.2860349505016435,-0.26075351605937935,2.585554943856202,-0.07264748965245386,-0.18217093731984915,-1.5545703902961685,-2.5904676488454412,0.8125
-1.1017326379628254,0.571697536811741,-1.2035956586986638,2.4361726430087325,0.03721230710768267,2.250855692469898e-05,0.1450679446053548,0.45806976032890523,-0.17455658367368873,1.3387023297027885,-0.2113404033786999,-0.03844824072523695,-0.7322157798533818,-1.529605995074824,0.8203125
-3.152433174250132,-0.026525884210886003,0.024118296635919356,3.2568979480284623,0.04497786792142562,0.02697270786681591,0.10337289933736561,-0.4131837685019432,-0.07539456493604703,0.18805478072956985,-0.18384052838662443,0.06717235108971455,0.3150141570819529,-0.17571680190564834,0.828125
-3.5864494495350914,-0.3655588908349002,1.4359113367619092,1.3427381133309022,0.05805787035654991,0.04321180783657069,0.1199473492115311,0.18451025279552632,-0.09190397788712328,0.6349359497748936,0.08269221941146958,0.008289906756988031,0.8971495497371078,-0.7593648322840894,0.8359375
-2.9559186695617816,0.17832802029674372,1.8256665015053364,-1.0169403388368816,0.03457946877216281,0.05194090842656822,0.15403389981078505,1.0063233229287032,-0.13621740858156126,1.5461280698094515,0.3376216683823822,-0.10597072860402602,1.2973114529067218,-2.2121766834797305,0.84375
-1.1919135678118304,0.03291324979607866,1.1526330043475146,-1.3946284282777228,0.02540557816429718,0.03839764274282746,0.10401040196845233,0.353726660088449,-0.12178078358779953,1.4573459984769475,0.2755156029190347,-0.11353325537332602,1.255258341895172,-1.872026056691674,0.8515625
0.8866774122178985,-0.8765327443812743,0.1290341614044782,-0.26857155859530113,0.050571865311388284,0.006375951441814596,0.018115255331048973,-0.8319984669762056,-0.0929803344158368,0.8526287472475231,0.005000227294324706,-0.0492769540191894,0.5310812611042314,-0.36225707067839846,0.859375
1.5782576489032898,-0.26203198828626706,-0.86462474654273,0.11065747021040187,0.02260875761862656,-0.005729446633515794,0.01460548323038653,-0.8016840507391522,-0.08844105325016183,0.8221334276434514,-0.09042663256342115,-0.051840371394942554,0.12699072492765992,-0.5130036245077155,0.8671875
0.9248625858926979,1.7782566401800197,-1.6059649471846227,-0.5196698459675133,-0.071491677560052,0.007688039480681668,0.05524582151155284,-0.010966615373704539,-0.05600049000952194,0.9079693450377947,0.017653729103323527,-0.09674904507369674,0.49553402512108174,-1.8264875076109952,0.875
0.28680130166863216,1.8502166444918657,-1.3878014631091453,-0.10890533808863644,-0.09225341292716742,0.002585097127198282,0.010713571410207113,0.10359418790395636,0.03716375604855764,-0.0628542302787483,-0.01159953879668037,-0.026533648835801615,0.2746680278894457,-0.8737183795487407,0.8828125
-0.44368163610823647,-1.0447061450396344,0.37174762232925235,1.6562624353153104,0.01704082206241932,-0.02852984984502349,-0.11233349078192684,-0.3331850446451797,0.15067863729247746,-1.9112658980604116,-0.20707454711568019,0.168966866886069,-0.9889417246639586,2.7066910522085648,0.890625
-1.7263845883376716,-3.418608550671322,2.7662468569835474,1.986338273916428,0.098080275622161,-0.037632525830381514,-0.2133928882269236,-0.43740521094796597,0.2680200216601456,-3.4624249992503437,-0.18763045225211777,0.3121802871476952,-1.3971961580225845,5.449339219675859,0.8984375
-1.863068374728161,-2.734714300029041,3.676745739866227,-0.4240966056917422,0.023262866194530177,-0.015220809484884473,-0.27587232300392583,-0.43997175033303604,0.39573649283509493,-4.1615533910140945,0.10634918477019183,0.2982060879192757,-0.08315316359703852,5.495732531070779,0.90625
0.42916906771103724,-0.7795395133154179,2.154828565135681,-2.6797962162561118,-0.09560578743464425,-0.008256850236831998,-0.30534507339247,-0.8469910182419447,0.43626142522054595,-3.852614639928497,0.24311940659683434,0.19557665905497257,0.9578883952283288,4.150767251608961,0.9140625
2.8568125377680507,0.0915550926003865,-0.3287222493600606,-2.084364347844096,-0.09214462695498013,-0.025370575194801348,-0.21226686154420638,-1.0477749518391801,0.2424951942922281,-1.9535333234468006,0.04601288864540821,0.06618559439984473,0.34966199811719706,2.092939692356828,0.921875
2.64365385902893,0.3981487781176127,-1.8211326145841547,-0.1536237218821532,0.002650368243363721,-0.020379040881189463,0.03975543801160564,-0.31821187842313947,-0.13278229705291808,1.3774519173504245,-0.12646436512820325,-0.10590321227469149,-0.4498203947534688,-1.3311730615973167,0.9296875
0.7060024044694867,1.3411650779499593,-2.1432633890341775,0.588565008736399,0.04945707985550473,0.0148352555219369,0.28690224221574256,0.7809514186673342,-0.4221093187618029,4.186103402598429,-0.053058799880905616,-0.27107450942075917,-0.15010490889473996,-4.914094202410754,0.9375
-0.3303531074866264,2.0115163081691945,-2.125924079689155,0.6384536519883748,0.0353498310469701,0.031425718712961896,0.34722855056929514,1.1764222844408756,-0.45987212020252266,4.640333894897685,0.011579846419646222,-0.3036856138274341,0.1912206950306838,-5.866519132016951,0.9453125
-0.0924616986977258,1.0234182895199988,-1.7149978571257771,1.2703975459552088,0.05091844034124351,0.010334792903394344,0.24543390755305788,0.7742509435916738,-0.34457938434299207,3.259661376958868,-0.1021038752338496,-0.19191255833049162,-0.39776230370224547,-3.7944950802699737,0.953125
0.11082122554523231,-0.6333601729961945,-0.6074070152356522,1.5122940974891208,0.09343645014307404,-0.011505651866743625,0.12940711895620777,0.41343329135325385,-0.22695377374524134,1.8280696097095774,-0.16565018612634852,-0.07471970774103275,-0.9985640291276329,-1.3708936905485558,0.9609375
-0.11929998443121502,-0.5737243716550847,0.178598344839753,0.38799641547623626,0.05851473256912959,-0.010712075664307982,0.06445501903129197,0.6742548788958379,-0.11154822699574359,0.9110319935396702,-0.03277001383602409,-0.03993915071878859,-0.775547502768874,-0.6098498025315766,0.96875
-0.2152234537560827,1.4440873292624083,-0.4702003215194586,-0.7015557194862019,-0.07356464737655123,-0.006855967247901455,0.008268038143723195,1.1141308553818738,0.052945139277109074,-0.20562358295065375,0.0771740686282178,-0.02140429159326839,-0.357816509953021,-0.6423106208213689,0.9765625
-0.02375452669238168,2.8734791714179133,-1.550452462385428,-0.38152192446075817,-0.18046500966105633,-0.013736894983933191,-0.07945909223088475,0.7784094315247432,0.229467353498952,-1.7627119111414213,-0.0026607292231976263,0.05989138415366136,-0.24999656915526292,0.3040520700871227,0.984375
-0.10742297882151443,1.8746007732101144,-1.111808426453456,0.4419810694738957,-0.16181907809798754,-0.015451543977818165,-0.16625352929439996,-0.3585173932834074,0.3235260305745117,-2.939128226764387,-0.10281135424775625,0.16437840680224886,0.015366326132408082,2.142961919986433,0.9921875
-0.9004043535242751,-0.24632144443534065,0.7409879898319984,0.5080531099397082,-0.06127242472152734,-0.001630878452128093,-0.17722261236187084,-1.0396993005826767,0.28769227057437047,-2.885502332964574,-0.0428710272916341,0.19691368843844986,0.526403568299089,3.095145508336005,1.0
-1.8717082567206818,-1.4695070743706464,2.2627975644828227,-0.04301098781301366,0.027988455892816618,0.015920999312183732,-0.09608111040723713,-0.6083703168405242,0.15358596230981642,-1.6638752715234222,0.1094932675605249,0.13219768585401295,0.7898796518714857,2.262096698471498,1.0078125
-2.075943162739568,-2.058694826039948,3.0696029471557793,-0.9555722830326835,0.0879416519461855,0.03136726346512904,-0.007964469285511805,-0.1936435708361515,0.006221869086627543,-0.15832460682999444,0.260315903305087,0.0300598513118085,1.1138813885322332,0.8525824510022894,1.015625
-1.6971686197964067,-2.869531490718033,4.091202835436847,-2.489609786178948,0.12590882979337037,0.05255665857588248,0.00570719949174577,-0.6716576572304558,-0.057291521852831914,0.6370842639188937,0.44998199293794433,-0.039558638969897954,2.1737341763351123,0.28983182381938566,1.0234375
-1.6533290493354809,-2.7063956330207106,4.638431163075607,-3.7827716079392104,0.09446252085516402,0.06825295479265565,-0.030913642812439652,-0.9863312050070124,0.0024643411582175156,0.3264686602820092,0.6063904603438017,-0.048572921859924,3.1061388677159756,0.36541734442152446,1.03125
-1.22919935401413,-0.6050802172056536,2.4695204701234257,-2.6253243491459566,-0.009279798966662322,0.042032396847915016,-0.04576559226572152,-0.33328090328360294,0.08814550425073359,-0.4392203086590284,0.405669582157103,-0.010748626743456708,2.012976073279182,0.27792734756867116,1.0390625
1.3838633328956003,1.156099845909907,-2.3138659420201004,1.5497407357470578,-0.050583243588510164,-0.034571807889768345,-0.01239248290040438,-0.0002661551787719977,0.013969655825413959,-0.2592105319550985,-0.2921944430164447,0.023896665984485515,-1.2121952504923843,0.04605322381415295,1.046875
5.222512863473555,0.2591705073334918,-6.129227367833368,5.678759150807692,0.06361651206933124,-0.1068241279467202,0.06454588257971992,-0.815253791113248,-0.26591726875296745,1.5726063907416667,-1.0116644663845666,-0.011164725075210873,-4.136896965880735,-0.3849128551504453,1.0546875
6.48814192356094,-1.2040150733170305,-6.25264978831811,6.024282269560761,0.18357461025451002,-0.11082755746302332,0.16255684747972196,-1.1758815194426193,-0.5116491125650162,3.691168893056589,-1.089825015158707,-0.11983069817216126,-4.449683602718142,-1.6356998646164953,1.0625
3.692298141289172,0.01142328875804508,-3.882205418379385,2.7836747381399136,0.10464060834354139,-0.05236418669597539,0.1912344280742229,-0.012590648986677206,-0.4169216615591597,3.5287203496350643,-0.5238555673024895,-0.17996208741373726,-2.376588113506186,-2.8687367003938293,1.0703125
-0.36625671408533056,2.3842016476455927,-1.236258466670673,-0.43226756261990607,-0.10600081683880551,0.0021278871221798827,0.04857297739424133,1.099992320568835,0.02453216153320325,0.16378048372891243,0.05984105828203322,-0.052225264637513674,-0.08152596022931659,-1.5098000899399369,1.078125
-2.908033801008706,2.205391361892554,1.5556872735044514,-1.8641889097413786,-0.21110517375078847,0.012430130741288601,-0.1988312552615809,1.1659790684895117,0.4879663561179801,-4.102596547736733,0.3232749493876677,0.19793474660960964,0.7908197741945926,2.546409620250392,1.0859375
-3.9074197681842726,0.4003839564130561,4.2290312895427045,-3.157265130362695,-0.16644514677653582,0.006563805235233776,-0.3016237854745313,1.7089046129322,0.6266168590947805,-5.501547059284661,0.5172700572243972,0.28993701018936946,0.5895421673007782,4.669949734258648,1.09375
-3.730656819261447,0.7067440636173465,4.351241675936798,-4.707579354080859,-0.11010264286289899,0.024650758749182558,-0.10581555137823351,3.058050814868969,0.33739975542476563,-2.39973760312358,0.7368489044275688,0.061109867069347734,0.686642053400152,1.0943334542829246,1.1015625
-2.0184420727379973,2.5046756015799527,1.092917431878507,-3.9271963579415803,-0.07177903839218164,0.056652861279464305,0.21057300439524523,2.6311277042150665,-0.15792487094782434,2.5655049006272455,0.6270361325871473,-0.26561665288607456,1.4897876548761628,-4.73855984774645,1.109375
0.29125567178169925,2.036648820788993,-2.0814981813833495,-0.2696791630016267,0.010642263859360438,0.061786289358872135,0.3114269093243436,-0.45426646609129484,-0.4357500989134416,4.63421681451823,0.10891616255454299,-0.3243940980952617,2.0341085337823177,-5.928050115204471,1.1171875
1.3529186274312957,-0.44309727342506006,-2.1979776785317626,2.6988502600684945,0.07557823493704165,0.028411228926897944,0.11391243686975518,-3.0515589193974195,-0.26741841040461933,2.1619228675105426,-0.3341199521426542,-0.07983207746368363,1.48367164560035,-1.544724697651022,1.125
1.1876365324981282,-1.5912029575179836,-0.8697562292917047,2.7761301019904017,0.045330896566740754,-0.014152743072640032,-0.12145674749310932,-2.8563583735001985,0.07191721586910653,-1.3457826772918884,-0.4029208905862112,0.15721064482748903,0.23606176878637283,2.7278892854136494,1.1328125
1.066240136886509,-1.7432279912336672,-0.1958055334598623,2.039868508606027,0.03877329623303598,-0.03437604563561553,-0.15857198633267752,-1.6916737489733138,0.14092403048778662,-1.9522710682122872,-0.33367073260783103,0.18295622284500765,-0.7029889459964175,3.3468031862722247,1.140625
0.7049306026419793,-3.442348245780109,1.0106318448068912,1.996345356948176,0.16184636938065441,-0.024838997763152883,-0.06598833521717411,-1.5430657137603732,-0.04936466533871941,-0.3451628982313965,-0.2724970215904968,0.10870938789099006,-0.73647059884533,2.499345765210804,1.1484375
-0.7644550059134172,-4.701655654979434,3.1554797349759753,0.9431582214247872,0.23277952916545303,0.0021818500087860586,-0.022798298751695135,-1.258949374145296,-0.1113375894246623,0.26653687481503996,-0.03414262336178769,0.07456157012511185,0.025540674931545375,2.1930679038988306,1.15625
-2.058316763580402,-1.7295792002191779,3.222084418021094,-1.5782168226868074,0.059725227867499224,0.023590367400512968,-0.03383772828175594,0.39200197612136817,0.06277336975327545,-0.5734373573980504,0.3183316793332625,0.03853154652623759,0.8122488816541914,1.0436303789115715,1.1640625
-1.30465200536019,3.0155445065231405,0.22369909022402593,-2.8887601051308405,-0.17395159585838654,0.018935022415947723,-0.002927480007216696,1.9758296426879813,0.16617409748321718,-0.694911020208667,0.3960489543957509,-0.052907507462914484,0.6892408099871942,-1.3663198854536354,1.171875
0.6762958173950865,3.6763668867331543,-2.0465989392566892,-1.7553941578439893,-0.1695730040563786,-0.007479677655961618,0.058722596514357364,1.9464989608420236,0.02957342419540578,0.5117346256427459,0.14592617514747275,-0.12360757382598206,-0.36495515388171423,-2.5754021165940877,1.1796875
1.566565968955864,0.7125504364012819,-1.3137814599976894,-0.3065451624244854,-0.003255681300387273,-0.027844404692596303,0.06629425333762679,1.0691402973086246,-0.11826314825350283,1.2652937470609085,-0.060458748153522736,-0.10201140300999016,-1.2239366231218538,-1.5230331645287059,1.1875
1.0631802188493689,-0.26204665382009135,-0.37820862120584553,-0.08661586124574636,0.02275021380656306,-0.026364243759238785,0.009067208576434498,0.595421604744226,-0.05006310163534071,0.43326093512861413,-0.061405238998702726,-0.029525456565738455,-1.0474269430950696,-0.18408444997008472,1.1953125
0.6853118359173664,1.69611404265747,-1.3671954522265772,-0.13601943430477612,-0.1037652290731279,-0.017105865785516948,-0.04708649412658873,0.37135150463424954,0.11326530967749793,-0.8448581852496054,-0.05431241266038189,0.021800596150076103,-0.3935698649197906,0.07276272787786922,1.203125
0.9554456505343031,2.1094334790112144,-2.0911612096966636,0.394335738000252,-0.12184423579373191,-0.0157867000129801,-0.044869184401348454,-0.061675378455365554,0.11057676783926444,-0.8383768730708195,-0.131836516259367,0.024777597424778794,-0.24009539885618678,-0.050845287576265843,1.2109375
1.0604035862623835,-0.45866565920650065,-0.853727135701235,1.0399661069458352,0.037077664363407314,-0.01877821946076642,0.012448968301870405,-0.4012343294018393,-0.07272458822912353,0.4589323893083445,-0.18447705422096072,-0.0056872876536700236,-0.640908341493463,0.027728148236246673,1.21875
0.6171424654010157,-2.4495804067581384,0.471253965025213,1.4593002252128606,0.1571893703374565,-0.019565324367501667,0.05316225315971869,-0.38881812350124895,-0.19003641979895333,1.2319859024883608,-0.18903930149565304,-0.014206389067441176,-0.9943807498206526,0.2570013702292671,1.2265625
-0.049232942695230805,-1.8010755840012005,0.37775012033653604,1.711542991363675,0.10756637310135425,-0.01956787076180495,0.014335903363176965,-0.26609484508031983,-0.08580554647744607,0.2676538295151799,-0.19759686265364182,0.04411350406468766,-0.9792647731652491,0.8764903476868195,1.234375
-0.8510486668122852,-0.40284249613207557,0.08403768254247838,1.5989292466809522,0.005563499358123827,-0.014516290216606827,-0.051902865560378084,-0.15905721614937596,0.09062787709935956,-1.2207252113196645,-0.16296305799059266,0.11729752412855793,-0.6218299645104272,1.5879654178790743,1.2421875
-1.6323824702990617,0.20076015937442174,0.37566737118528726,1.0510819544565169,-0.02810188614270889,0.00378664106179887,-0.04166806428628565,-0.05908318057909669,0.1197131645628725,-1.3093990587811828,-0.046906646076311904,0.10641368854816696,0.06499308212622504,1.1940061323824023,1.25
-1.4956603199795766,0.7079582184864791,0.13269264632662142,0.34470962270262995,-0.030475726441009914,0.027455560491753725,0.0327915565158743,-0.269464744385499,0.014235241624774126,-0.06388471064577896,0.05887176276544661,0.006951495903873063,0.9867443746015444,-0.45335447728324585,1.2578125
-0.1735474090407252,1.259045405321975,-0.7444309732250164,-0.4411842465905998,-0.04490515853364407,0.04035917987456511,0.0748155474292453,-0.8996671142572418,-0.07829994541787573,1.0824252025148766,0.10006245883327405,-0.09365557868937782,1.8004674142826138,-1.8804504842486207,1.265625
0.5933248841305412,0.6599775006867219,-0.3815456691448446,-1.278761608405279,-0.019756638639270373,0.04441075241610713,0.06800479605905317,-1.287939468249471,-0.11358302280649032,1.4999030597601237,0.16819190606843215,-0.1307329219582834,2.1971251942243066,-2.016658714532323,1.2734375
-0.7367696209871254,-0.8036692969584524,1.8081289750762122,-2.011784787283623,0.040262142678512636,0.05162179772614364,0.04655870339026696,-0.8161249475642545,-0.08350065990323335,1.1136903166605328,0.33511252356991017,-0.09410407246366567,2.2588123419350654,-1.1065565231742738,1.28125
-2.5140287194731603,-0.8080350214214239,3.5507629236431586,-3.056443143820434,0.0019238584858826987,0.05593030266471067,-0.02814522346101805,0.13814076958172322,0.09777623852317728,-0.48766549814273963,0.5369528094691398,-0.007727065680264525,2.3010417493615316,0.22000278990444866,1.2890625
-1.8463547271963168,1.35214911836007,2.7747868303864562,-4.6128392925201895,-0.16848151846501921,0.03818417632184585,-0.16844208418574255,0.811464405064989,0.378632750989442,-2.654319924221847,0.6292095145494974,0.06123200551659851,2.1508794927399792,1.2530704491453688,1.296875
0.8414960529708247,2.8060080116131587,0.3632228293491283,-4.601087063612469,-0.2542193224893907,-0.006368645926476428,-0.2270892241826488,1.099796085894282,0.4406639852752246,-3.0830904294084447,0.43282128254806823,0.05507891801230211,0.8383450669597378,1.2932331944131956,1.3046875
2.3317136905275477,0.9196010683040241,-1.447859144849017,-0.6206258698078477,-0.06491004238429898,-0.059889197411533146,-0.0722596000222652,1.3381819391147047,0.08643134706305915,-0.6652942459483577,-0.11513823506415742,0.005284577808432945,-2.0889764135166784,0.45361923804436094,1.3125
1.586897107131556,-2.4609638098112754,-1.984481906019585,5.084223264340659,0.2393010708233511,-0.09376616142097913,0.17687281577543768,1.5080643414759731,-0.40091049217616553,2.535388335424322,-0.7092741060603709,-0.027215738603103595,-4.960889351404007,-0.49231170871855084,1.3203125
0.7219445769814581,-3.4064472385912516,-1.9027914998565436,6.828228788877542,0.3321842277863254,-0.08574833313494339,0.27483604918665744,1.2501880294490593,-0.5650760756370586,3.693422600465652,-0.8399577885652445,-0.04682384800667188,-5.152123237925645,-1.1016047793900963,1.328125
0.9930493893301241,-1.7563130045811484,-1.3576068847666405,3.4584370989877873,0.1776087128350189,-0.04388284987768488,0.15631791466516273,0.3408648377981092,-0.3367546394312294,2.3654647027171323,-0.4532387005367892,-0.05671203100285149,-2.5070419609468613,-0.9813260582012684,1.3359375
1.4323075986921951,-0.8979536852532732,-0.4035279615713772,0.3627845237423514,0.04132287273350715,-0.010939248191795562,-0.02328026517987179,-0.9897199288976561,-0.047641530705366135,0.29075495771464804,-0.11846421266523825,-0.003832622668493286,-0.02201542545050482,0.3894655428229177,1.34375
1.5137383964283186,-1.6495827256952729,-0.20145410843567593,1.1438027286591346,0.04944209804152043,-0.017235087301271195,-0.10677619449318863,-1.9194965461245925,0.047318636258697803,-0.8556681811004001,-0.2272798545226708,0.09364530836659017,0.04382162938851646,2.0862715817178192,1.3515625
1.6089053455757794,-0.7866621439459899,-1.5267574650894993,2.5062105513135373,0.0217491486764559,-0.03383128368038681,-0.08721018135701528,-1.6205243312659805,0.04440178493744332,-0.9603078223161523,-0.41095289998213874,0.11412050154605792,-0.8032219453203728,1.9336422246865106,1.359375
0.8781017694222997,2.932679223477924,-2.698550186454511,0.5955790979469856,-0.17021431032202433,-0.00858045954520849,-0.057099133999988484,-0.4124715346372151,0.1570465255265935,-1.189142865390635,-0.1539673512660985,0.03881971033114205,0.1875168272393888,-0.10302152646924437,1.3671875
-1.6111237296160574,5.5947535558242185,-1.4372507738624856,-2.621417587665182,-0.3410589142043265,0.05281382674864654,-0.07088623328568473,0.3610426758671421,0.3539922950083794,-2.1235211932906313,0.37761386122427226,0.004585071940155772,2.7013491469528,-1.2447125066033553,1.375
-3.9874961210037556,3.6460909988537176,1.5967453093685429,-3.2840710013241328,-0.2603651843108733,0.08746897905276815,-0.08566103301072973,0.0838450009492605,0.38234093926685686,-2.534512100921612,0.6181289941543935,0.05593220188058885,3.868145269469876,-0.18685533076856572,1.3828125
-3.6274205740433554,-0.7032529883762753,3.5462887663635945,-1.8765285399723886,-0.009513066939075361,0.06769405244404487,-0.04320231145300876,-0.465015064054623,0.15234035447392683,-1.183234149785564,0.4607981958099909,0.06235881583330931,2.7248168819012077,0.8978973810949342,1.390625
-1.4848593185179488,-2.7656051907773453,3.3125327957873436,-1.3808137771791298,0.1376782760396434,0.04034922602288754,0.030237024575740915,-0.6261028961894394,-0.0995299557828544,0.8592275355075223,0.3015366657929688,-0.033643839570653006,1.5378631542058365,0.17628963165631706,1.3984375
-0.5935995844575421,-1.6967262947030333,2.4164120753739584,-2.2227834268901385,0.09206621279137366,0.0474004198268464,0.06026713966534636,-0.6549216655385527,-0.13751745270102128,1.538003495126024,0.3587698348511319,-0.11211472976692659,1.9970185494727144,-1.0893534060060792,1.40625
-1.0416250854526103,-0.2869120881239823,1.9254053063481507,-2.5454598306886074,0.005897905631242096,0.0570900449116833,0.036391779338870354,-0.5720495641884552,-0.03811851876330352,0.8390934594619246,0.4117190353561242,-0.09390661823498964,2.497506525436025,-1.1948954570097146,1.4140625
-0.30607005386457503,-0.12435588878646203,0.9712273347629189,-1.5183200036925038,0.002425060884087903,0.018842012063557022,0.017134985046338206,0.14568199274609475,-0.019504983657494666,0.45387898719354086,0.21547658907417075,-0.05521614570424459,0.8401392485399585,-0.6419789562105689,1.421875
2.0441224226352053,-0.28291767538679463,-1.014486506071115,0.07712959704319236,0.04056114677280439,-0.05230794367107395,0.03103632381224511,1.3024480237669778,-0.1094339619184716,0.9415375940765348,-0.14885835034833514,-0.06175722538144294,-2.218255901171258,-0.5485511534484205,1.4296875
3.7103749399103427,-0.06695476867341495,-2.751817141197859,1.401740591269868,0.05194743691870643,-0.10066148477253375,0.04327903253882855,1.9913568814077807,-0.16709220953940623,1.2468457749660684,-0.4303213441094703,-0.06486587669104843,-4.274772157476877,-0.588805292933463,1.4375
3.244573363732278,0.019137623049466045,-2.9052554274262685,2.2215226399072603,0.04516045031483296,-0.10749823108263563,0.028835485469179016,2.0780508489120337,-0.12705990474288908,0.7177571906944122,-0.5128940762734772,-0.015001596953705156,-4.654564685968698,-0.034546225022443894,1.4453125
1.351143992331818,-0.017671874133530413,-1.921920553957759,2.5451337328624106,0.03648424205323005,-0.08789162940011189,0.01737011191567541,2.0628286666944624,-0.052985475204861555,-0.05105999377594713,-0.4412294845613036,0.04793307171616917,-4.077895690880168,0.5861359754173131,1.453125
-0.7133944187848473,0.33710394639351254,-0.9476076580223112,2.341518643012811,0.015279711486661528,-0.04389314200487783,0.041278624331744104,1.594962285838,-0.02017195051667395,-0.23797870498613477,-0.2745015842439923,0.05934286825930865,-2.45372594117559,0.2987541156409898,1.4609375
-1.8709834064684587,0.4512827091702321,-0.2622647265793987,1.7819769586728547,0.0105554812064209,0.0174510714704717,0.08332252325339949,-0.012226581432289408,-0.06175682617053936,0.36902713127716674,-0.08992701570340067,0.014045168591621587,0.20321590636388195,-0.6346302537392106,1.46875
-1.2731994821790698,-0.5773208608698567,0.037440622238043626,1.576505732877658,0.06480819557572756,0.051983692595716544,0.10324975539809414,-2.0087276976116883,-0.16397459773238168,1.3264219029926647,-0.05192336847384723,-0.03686200793866425,2.0214250158023246,-1.0693186177421123,1.4765625
0.5146387051765653,-1.654641324040175,-0.41505493442804575,1.9379481956886782,0.11363972297393121,0.03239893433194545,0.06816379476230365,-2.856922463263486,-0.20719511395020293,1.5347936260662467,-0.19706790709567185,-0.03453279782795946,1.619416311670071,-0.45490094102432777,1.484375
1.327706512419308,-1.0555243643759142,-0.6861615761390406,1.269411743063271,0.034566891034583935,0.003982328333092461,-0.05892067185115244,-2.443375919863897,-0.007040109932219865,-0.23275571692029334,-0.21057579188563838,0.04962528619992606,0.900854191412137,1.1087026734551553,1.4921875
0.02105327853978152,0.31627133967906235,0.9846648605624501,-1.6450452974390237,-0.13495234052463587,0.01907384687107366,-0.2587890125850157,-1.9423780159702226,0.4010311959514397,-3.4825075780337533,0.16512846852090443,0.17905322183711928,2.117795742429877,3.2602028487883605,1.5
-1.6114967446610002,0.2861193523179829,3.476099139276567,-4.3127665017579115,-0.19684082368455733,0.049483449589800325,-0.36647905084996985,-1.7028763510254281,0.6241192082579624,-5.168815959884097,0.5688982508693547,0.23822984076571996,3.6246781145703295,4.492641342221282,1.5078125
-1.1535048976904594,-0.4825259503293068,2.950214286495441,-3.202298439016245,-0.09091759922796253,0.034723616137642854,-0.22552154016869094,-1.0017913539387557,0.3678021145776871,-3.019099932847003,0.43231752561075026,0.13597843359831283,2.4061636012001224,2.8497848926353355,1.515625
0.7405399786260615,0.39762124167032836,-0.876697412167812,0.2859914200444608,-0.00532167436002194,-0.013899457588179563,0.02705099879623803,0.2452092470382589,-0.049939898650827375,0.4832973644312709,-0.08038117050314215,-0.033416759071401465,-0.5412709020825692,-0.5771877917187739,1.5234375
1.0287958483149484,2.2220894089743792,-2.874782537281557,1.3265300527655424,-0.06260233219435932,-0.03151855150256676,0.09578541353486379,1.1893865078744725,-0.09795936648244012,0.9965095912419966,-0.2366842092866325,-0.07263821887725372,-1.591916699854476,-1.8888861015882208,1.53125
-1.0767321107781598,2.026601580874237,-0.1552251994642507,-1.0534439904988147,-0.11116578904655344,0.0005344444869582229,-0.00023493097771305272,1.5463293920132286,0.1164045556975915,-0.6819344468455949,0.1614427614639836,-0.003713113133254741,-0.1661590100733902,-0.6006854577781083,1.5390625
-2.710640985386271,0.21983337603236966,3.1463258389390463,-3.528649897909048,-0.019154927086159595,0.0419744492158731,0.0463200775413182,1.9404108593837832,0.03796010857741493,0.2666300174816586,0.593051576838183,-0.07831409949853725,1.220178108054985,-1.176105212289668,1.546875
-1.852114546008729,0.2672779465782542,2.5183156430991427,-4.2011748378623235,0.06767766918332002,0.06031566446114729,0.27271581586423177,2.5372391453191265,-0.3373095337495763,4.030602760401676,0.6832704560347489,-0.329960671055651,1.3990974070514686,-5.119058423731918,1.5546875
-0.34792881761552036,2.19350415628862,-0.4016832950093236,-3.102466801878329,0.02091663788126924,0.04946051186691533,0.3775128222287232,2.6269998241796615,-0.48368329284420414,5.532195824233693,0.47139961797610996,-0.4361341752525361,0.8624873483820488,-7.365601605100846,1.5625
-0.1722542476188446,1.8238377320481642,-1.9252616705076298,0.6859154066096927,0.020601261424749683,0.0034178089175382746,0.274017381449971,1.8397999985875684,-0.34909990705522315,3.495039633696978,-0.03776342036211738,-0.22951172926525035,-0.8963727555015432,-4.532638397585566,1.5703125
0.2089892604283339,-2.0953427717063744,-2.1284242999589074,6.399041853921096,0.21882761492258956,-0.07052960285582327,0.1774600394127993,0.6062896618267831,-0.3572883000011535,1.9734595003192572,-0.7775281719898917,0.03448847156559211,-4.075761319386718,-0.11356560571914248,1.578125
2.447763983218876,-5.175447345223579,-2.53028072447786,9.076326599937817,0.366759384256493,-0.12750010172364723,0.09185685530927602,-0.7268221885451502,-0.4095490451911397,1.5508192213881562,-1.242464906100446,0.14943825223965704,-6.034261912739264,2.560693749790771,1.5859375
4.4498143776294965,-3.961067209957695,-2.366562455090423,5.675518060978208,0.17705520997740218,-0.12500727842805873,-0.19047917141821755,-2.0893143216382866,0.005458624927227209,-1.6610583741690361,-0.9966646004960891,0.2548646975486475,-4.275187248775913,5.099900178132348,1.59375
3.713467010237058,-0.6814106248117422,-0.8944327083236784,0.2536073049023297,-0.16554830040606688,-0.07436350437256035,-0.5328125273797208,-2.9884701640404745,0.6747391613422624,-6.657149818180098,-0.36181395217107815,0.4125957802717103,-0.5185030671254922,7.822236072620777,1.6015625
1.5395845843017422,1.037910560693263,0.32368331504915493,-2.09307375499592,-0.27429409755800804,-0.015140411502578065,-0.5231501003416387,-2.7999631572500165,0.7882065516450311,-7.053283036429549,0.06207769950012758,0.37482686897775563,1.879738455784893,6.758337455620635,1.609375
0.1971002211070832,1.1870339718491256,0.29919277545879425,-2.0824751903169574,-0.1407632878257665,0.03737092880315065,-0.15256287697456633,-1.7659028235083543,0.26011857088260104,-1.8999073632347145,0.23482012683144646,0.05849943434976523,2.6566888302567926,1.113150877946469,1.6171875
-1.0180354126234556,1.3694646896219016,0.6130702647818973,-2.6430012267574496,-0.04086391938178201,0.08232064557740089,0.1418254123074476,-0.6793532068802463,-0.15013370977807391,2.2057192547549755,0.4484414710794412,-0.20521960473459405,3.381822395549449,-3.5087532438367885,1.625
-3.210529049461279,1.2926683765191993,2.3209430111694895,-3.314522590842096,-0.04928100561028783,0.09981419876438061,0.13476042417405273,0.1747444017129485,-0.06655524845119407,1.487865460818183,0.6507249089504332,-0.16343171327931355,3.7168118241945765,-3.0775716562073683,1.6328125
-4.642577944517557,0.24535325586259976,3.7351777359113805,-2.5305014260416265,-0.03326829618088247,0.07470224311262164,0.029850444015589526,0.9157968158021543,0.1131389746497979,-0.5854961400811893,0.5979735911883755,0.0025254352088161696,2.506032501085218,-0.4295284459741285,1.640625
-3.6626564170955604,-0.6021884771520495,3.201456457882888,-1.3540184979784917,0.024749574447478818,0.03480710416250835,0.0309702486043583,1.4318151443285856,0.05682533722378687,-0.41025229884007886,0.38262495528719775,0.023257998153707892,0.7277331383987915,0.11653728355388278,1.6484375
-1.7558670912205923,-0.12063239146612982,1.649472188342705,-1.3479405116285668,0.03149463466351352,0.019357693583982604,0.09205025221556223,1.498423015638718,-0.08043912645231704,0.9810787868764157,0.2799081567635846,-0.07833866363881598,0.17913289208501554,-1.3450616188757036,1.65625
-0.6104249274141449,0.6859191764652296,0.5770344343315914,-1.7127257019479394,-0.0076527448639388115,0.02227580974156898,0.0979699024197486,1.0200167237140827,-0.10158071987853592,1.3843387236423241,0.2630888600279368,-0.12741202512058258,0.6055507336796596,-2.0940770927333525,1.6640625
0.6878563265315566,0.7236664721874717,-0.571822583401807,-0.8372481284243483,-0.023256043162748034,0.007437926078992469,0.04482845232319172,0.05099624063541156,-0.066342129300894,0.9083507553234165,0.07362833896235084,-0.08661680577839094,0.4348471533035434,-1.3457638217789294,1.671875
2.878489225363556,0.864686180477825,-2.9150092737408624,1.2059746519392545,-0.023856626458437263,-0.030530088597686147,0.015209366949128495,-0.8125824961614138,-0.0922438402520536,0.8160906905606842,-0.3149611400389229,-0.05185330866671752,-0.7532248776211599,-0.7875348635153531,1.6796875
4.1492565099102965,1.9274006789330236,-5.210017062106038,2.807812548734073,-0.04926138521084338,-0.06029392341076897,0.05150557506940921,-0.5915109722824325,-0.15218669052748426,1.244825090647967,-0.5956981587417096,-0.06778142526221569,-2.0338960095845096,-1.421394045827264,1.6875
3.076375199269085,2.4374723707867507,-4.898067740986724,2.751228276422098,-0.06414211736979049,-0.06470841127491701,0.08138340898542522,0.6518632963465165,-0.13750230548822653,1.15112690804494,-0.5394544869719012,-0.06596855639428005,-2.656668549626224,-1.722695184940183,1.6953125
1.0086185248542459,0.5361832496726674,-1.786233530220554,1.762265169628977,0.005966522639201352,-0.05864803210661432,0.03510246906817654,1.5235110050467628,-0.05585222142322971,0.23446567749945973,-0.3074968609441412,0.008120092216634161,-2.7539990046688563,-0.1517796036906774,1.703125
-0.5018266316170957,-2.8593106909041515,1.5297131026184694,1.646191203862276,0.1578554054983274,-0.05297007072904179,-0.009496719554926873,1.3114652703020642,-0.055294983949953184,-0.24048318442035208,-0.19307290451299416,0.0916481477179634,-2.7359803916986536,1.9098003359254314,1.7109375
-1.7230223255893968,-4.712107365853163,2.9880193003628515,2.4365862471905064,0.270433820001429,-0.036275751540465105,0.03786072575856628,0.8442842219471411,-0.16031604377571376,0.3904658720246851,-0.18709840915946122,0.1006537604299688,-2.408277500999588,2.155739028461497,1.71875
-2.5605356731452904,-3.521447849419661,2.7082519982103617,2.112637439643258,0.21916528174076116,-0.0035830897295273012,0.08359070671682509,0.5261005055777871,-0.16974474449997362,0.7454033408034848,-0.08048555213814147,0.05839422068006607,-1.127367791451046,1.0077212289055213,1.7265625
-1.5163462916036108,-0.9273379433333058,1.3986771879664677,0.14088927626761916,0.04236238518641422,0.023859591702587092,0.006111950217664866,-0.4710650635125144,0.0004730949394283459,-0.13009235689647208,0.08988078374893217,0.03111406642197363,0.8710387048885075,0.4408801485743911,1.734375
1.2047102927645792,0.8158817828348206,-0.3460443222172119,-1.591206317483361,-0.10467581780861283,0.028440985016193427,-0.1244853440473081,-2.1077761918601707,0.16876274484328338,-1.1519557800416091,0.1269955263089167,0.022905580667034273,2.3469924211616617,0.7132769306520714,1.7421875
2.540704902478574,1.6252795945430725,-1.0979442647852966,-2.5448583876668964,-0.1778842972504751,0.028212161141470904,-0.1970868402897586,-2.8043838132095282,0.26421909236277624,-1.771695040510651,0.1540488449854025,0.024821956000188675,2.9757577419098595,0.9824037028767735,1.75
0.8440942783557477,2.311779852509677,0.2757648268554166,-4.099081194179537,-0.23688287361352595,0.048105613816273214,-0.22416332792447374,-1.9013147344770542,0.39124918440480067,-2.642094231472149,0.4279807250621401,0.04522418105046012,3.6342494008329944,1.1258403336488025,1.7578125
-1.3556767920000434,2.051845314109757,2.271567260232455,-5.221793235126102,-0.22127768241635598,0.06805750097453422,-0.19075180755847157,-0.6521279411260201,0.4092536983106214,-2.6795436543554256,0.6940847937067165,0.038495562383364254,3.902486127633439,0.8858111744149868,1.765625
-1.337077545418134,0.13014205294530398,2.151933821843562,-2.90033152809337,-0.041934086253950294,0.04455115714313699,-0.029270764051602328,0.0223014923000008,0.09371079496061788,-0.3436815182181485,0.4421354357179237,-0.032403239444467706,2.050074300858486,-0.24944028021869322,1.7734375
-0.442555111456208,-1.1463069007437003,-0.0381819406299556,1.6679607162681875,0.1269323397656313,-0.010074789016620954,0.1482393399014611,0.650693483760707,-0.2544447481863844,1.9885593543250824,-0.14779245334035748,-0.07164812668551922,-1.1527524343068467,-1.3175949419240585,1.78125
-1.3642067545322165,0.4448438353014071,-1.368375111997431,3.4006418372577034,0.05147787831339763,-0.02960696186688762,0.14189783202987677,1.4855187466854793,-0.15675870815944823,0.9323828403415239,-0.33785904303928793,0.009037434555241185,-2.2769474743180527,-0.9308308668549417,1.7890625
-3.1759649514263377,2.351674512582603,-0.38319615921954814,1.393479703026045,-0.1137231509615929,0.0009446896695857349,0.019863943046439136,1.726692065894956,0.1586866364577934,-1.4823327506973953,-0.02131665797780369,0.0990077639239465,-0.6862841284341032,0.11352144819668131,1.796875
-2.5814444604535614,0.8884991192694159,0.8151924113065988,0.2038561483681134,-0.04704585915566041,0.015085249016724431,0.01451463736799335,1.0035403146023953,0.09398818089104924,-0.8309145895273187,0.11318116437351557,0.05377776719730967,0.14573418873257238,0.11192726151141823,1.8046875
0.9646867887937727,-2.228668814331156,-0.20244940725980604,1.8691500104210952,0.17824239451345633,-0.024379141460644908,0.1234564936268583,-0.04331192981213867,-0.3016861367362826,2.2607868801628244,-0.24897876207187636,-0.07481007186948523,-1.4350087843547747,-0.8388881027010294,1.8125
4.50720953430362,-2.982791750864713,-2.58274587999068,3.311242243482768,0.2579690974428464,-0.06702715278215736,0.17497307043428748,-0.7894230754517629,-0.5241311683737592,4.048337977502902,-0.6169194871097868,-0.16144235332433862,-2.893290371201584,-1.684198306846913,1.8203125
5.39800453587637,-1.9607690639374742,-3.3385777544740702,2.4944367563549714,0.1918093633378012,-0.06886409711532772,0.14530251670067476,-0.8453701494759871,-0.4697634529949421,3.8161872311584126,-0.5800910545961196,-0.18208285044754052,-2.6361689801783754,-1.964911051358536,1.828125
3.4570334393914344,-1.4803018721473795,-1.5107489802909073,0.7359631784578706,0.1293195396642709,-0.05179085297413335,0.08578831653914182,0.18642767822570755,-0.2895594657494758,2.4296589156832917,-0.27627057805215777,-0.12961233736451389,-2.058902759107079,-1.2273133783261676,1.8359375
0.08060979320458794,0.31345619557328686,0.6043200479817509,-1.364463113022,-0.03801473380635816,-0.028256871777903026,-0.05196584445133021,1.6824446682121408,0.10634609977050251,-0.8069678677497946,0.12038653457798518,0.017875486769750443,-1.1733889902893018,0.5358543879171712,1.84375
-2.6014577826459186,4.705145361715011,0.8545332696823996,-4.008095705613712,-0.37046672620397264,0.023026885797723624,-0.2498936008573799,1.7299519894422601,0.6503960722002773,-4.943478517036267,0.5400797437420743,0.16947753928346102,1.6113995603808275,1.8871632581585482,1.8515625
-2.7232903275101172,6.595134090437801,0.008623915969254081,-4.7164256821147,-0.5088981269970294,0.07083380604557697,-0.31897095102066175,-0.2804664306252222,0.8086206179710982,-5.9862423653102415,0.6455041207006554,0.1931851004756354,4.348066723924244,1.8648477957411251,1.859375
-0.7581064672092634,2.0039965018437598,-0.2250505666746152,-1.0547132069706147,-0.18049074142295346,0.0464800435194709,-0.1484947059860259,-1.9812117846047286,0.30687437899265835,-2.402913111526901,0.16336022114950394,0.10241241054322517,2.9108320475885043,1.2204438560930608,1.8671875
0.5142111819686808,-3.8060571746598924,0.05695292108328101,3.8795593341379297,0.2731904229297516,-0.022887443130774607,0.14176593732352674,-1.1018193378568613,-0.38089495462429235,2.477731846915184,-0.4449947415933565,-0.02300415735494382,-1.5137045703080247,-0.04738623814730077,1.875
-0.5613037613501715,-4.200243963484445,0.3277967445473954,4.539683233765337,0.38112197603955417,-0.029801656115787212,0.3472964177310718,0.988531881488879,-0.6667204783788677,5.01265267084833,-0.438559469900558,-0.15707301475110091,-3.0107556726310594,-2.533025600844686,1.8828125
-2.5548841383242245,-1.5266016005418923,1.5199478314498405,0.8888048550789536,0.19833453917740693,0.03771817784368932,0.3111583631580346,1.2255474549674379,-0.45386732687003944,4.020626014909573,0.12125594708748924,-0.19865293637092757,0.02681501064296947,-3.6179166984375004,1.890625
-3.2802438471817905,-1.368024964256891,3.7214508881647363,-1.978996698453623,0.04805703035879072,0.07290179448323507,0.014917094080479544,-0.5810319019809094,0.026402108519567716,-0.03776649107101469,0.4754329783616285,-0.0026527500117944068,2.8152752861533377,0.07388529718103692,1.8984375
-2.295951627833002,-2.5464322773732397,4.45169000670876,-1.771645683510254,-0.016035412477729626,0.02789983867411691,-0.3122916215938748,-1.7509636650181668,0.4618063099968269,-4.4705067690243165,0.31754747452683896,0.28989302792030713,2.1350909280351438,5.481229235978466,1.90625
-0.2907671194320179,-1.1333475177623895,2.2802989579085393,-1.3432531848519809,-0.09784625083819593,-0.0205538903964029,-0.36937770192313757,-1.0642141068252822,0.5443810511707997,-5.19093899713213,0.10305007363429419,0.3136941674849059,0.45228786963782497,5.818557475975358,1.9140625
2.034917146587605,1.3768750310662357,-0.4615345390801375,-2.712932546896334,-0.14819451636259795,-0.01190169577127087,-0.17257853161448514,-0.30427904806605294,0.2559325146231813,-1.7955560759644185,0.16839017111604715,0.02862095732756715,0.667189404005684,1.0766833423275002,1.921875
3.785650898490126,1.5341837489729304,-1.6140706664528597,-3.393315792707896,-0.09248361766112653,0.009654074908872936,-0.009365021973252233,-0.8695459635071526,-0.05433404630239271,1.3890131534430348,0.207075246550365,-0.19258565396625277,1.5130052853007283,-2.212419992405579,1.9296875
4.145177524941322,0.5657992807963875,-2.5533947180728065,-0.7029090242175957,-0.016678766191983344,-0.013882190660538014,0.016030193189675294,-1.4292816110778988,-0.14598737357325395,1.659826721868849,-0.13558700412695907,-0.14329242833048147,0.35734104099183084,-1.6044479643378837,1.9375
3.1872788355583603,1.1895946875459757,-4.392070788609955,3.315416985489961,-0.010407982841635735,-0.05970587939686803,0.053326944424551166,-0.41165408207544907,-0.14913126561701415,1.0125386789706403,-0.6007480963189644,-0.02831066678487086,-2.2579678022388427,-0.8505023138428279,1.9453125
1.6091384782363607,2.2689270037132214,-4.8623887057483115,4.47836115298765,-0.02585979075447464,-0.06852977265446716,0.1410092786998516,1.2264113943237018,-0.18857767824281862,1.29812983548773,-0.6619565960808407,-0.03200376784419081,-3.4318628101811903,-1.752337120438884,1.953125
-0.13075850007768788,1.7077994672788408,-2.456010061449777,2.4029226828893866,-0.009621318698291664,-0.035295155468681595,0.1524980240650244,1.839643454719475,-0.1643711270774512,1.3543391893457029,-0.2956402638500074,-0.06094933463221786,-2.3030338383711726,-2.0013290139170365,1.9609375
-1.8144748112172087,0.5863827256564234,0.33552852188279453,0.48387913604448257,0.008798310933199698,-0.007689462642178346,0.09538549324282702,1.9996901588727762,-0.057327332463637276,0.5037256404695659,0.037735144438540376,-0.022491567872032405,-1.1643763521346173,-0.9842516650729118,1.96875
-3.0113497583456383,0.674263042474922,1.007468569860399,0.43379688269033956,0.010062974787311349,-0.007831334855981026,0.11398797001931961,2.952744848228125,-0.03877050648388649,0.3168510870099059,0.1047835259714349,-0.008070711668732163,-1.5626598940046759,-0.9863641309286882,1.9765625
-3.1169925993448775,1.2937768464778239,0.4866021636951852,0.474925493468805,0.013141846977412013,-0.0037787048738299384,0.19977346178146346,3.546037961215744,-0.1448345454590544,1.4150404048271163,0.1177754810699403,-0.0841574637618685,-1.7344768247065194,-2.465002980590246,1.984375
-1.8463529386038997,0.9831209792494523,0.4107187364014659,-0.5784928749763057,0.013012204523497788,0.02505351606114556,0.17989063695200525,1.7078016848417905,-0.17844601795156761,1.9534905464798795,0.20433441362298696,-0.13934934072883184,0.12074776576577317,-2.8563384559782468,1.9921875
0.04105252491837523,-0.5523945734672492,0.8966407617931745,-1.2808891112047598,0.007365715048917733,0.046044118714902445,-0.013809341389787922,-1.8390753393934396,-0.01390599538100214,0.3698121487977722,0.1937410640612759,-0.040347537669663425,2.4612319341132456,-0.27411728241654437,2.0
0.8424625620748565,-2.9158407882340653,2.175794286961691,-0.8605720918631815,0.036501912347838686,0.035439377039896164,-0.2477379106494796,-4.221890470608419,0.22870480023835568,-2.347070708584349,0.07643548385800315,0.16808698444310446,3.0869370475131404,3.9443168148886616,2.0078125
-0.11234663676572271,-4.987018019074092,4.27495157366274,-0.7833447151074637,0.10726895453332083,0.02616458747421342,-0.3352616005841063,-4.230762734831072,0.32573742313299775,-3.6142631650640764,0.10889352964946372,0.2828256241055918,2.6944389707305096,6.242858748330942,2.015625
-1.1037572315360453,-4.812532184596726,4.883454627038344,-1.4936710041676575,0.14486284557753387,0.041163603203031106,-0.2059854967933712,-2.9558664271126665,0.17019771119955912,-1.979572049208891,0.2746583190217235,0.16885137525238036,2.635964350471986,4.231814509590817,2.0234375
-0.3227177099299456,-1.7313701715553016,1.85051170382999,-1.2318128578939695,0.08185370184581527,0.039679249405382616,0.017224454262949274,-1.3157451057377072,-0.0869944026042942,0.8775451619674453,0.21509739608318926,-0.052049598830787726,1.8833730599018939,-0.22381552693565396,2.03125
1.2134095835100547,2.16364092287109,-2.5239441426568496,0.3220627945847632,-0.06126596940600423,-0.007332464320510956,0.11174740586981892,0.5550832451816204,-0.13591001209751333,1.5675200604701451,-0.10281515542232578,-0.12791913552084674,-0.4042799617589651,-2.5676135649190384,2.0390625
1.2436545403531458,4.039399131636534,-3.8401247158171605,0.962056186463928,-0.18913564027577817,-0.05125310467872696,0.008723883205334276,1.916973770968842,0.10059101975521956,-0.6333256539176817,-0.25210313441126647,-0.00624244967218613,-2.154836054930478,-1.14149616229594,2.046875
-0.031047496821323822,2.83962750312755,-1.5494830090790939,-0.0853268518778866,-0.1836362997522351,-0.042524149461703416,-0.10797375925485653,1.8053903966251248,0.28278376158144375,-2.385674124661884,-0.06760967468748497,0.10488993954131477,-1.600519567207259,1.0226242003958328,2.0546875
-0.41241382599000787,-0.004081494294936712,0.951543899253284,-1.1020727303232793,-0.029601721867826048,-0.010563606415808278,-0.06289573251729327,0.8528248260483113,0.11977452727143502,-0.9951215268572039,0.1308494947107215,0.04167856885861233,-0.3425684468098,0.8614686467796236,2.0625
0.7839461808456119,-1.3368228974992966,1.1101870411903332,-1.531209572837737,0.09125605575339243,-0.005258231364873615,0.06504176344636894,0.7541712653867173,-0.16344824026363994,1.640091679855537,0.1593418012808155,-0.11623748523251386,-0.34660901070462513,-1.1072656666058442,2.0703125
2.0965831275176643,0.5197717211798494,-0.6494883444794823,-2.112730462955321,0.012785269667519066,-0.020327416083981576,0.09883524924798315,1.5633635207631442,-0.18592997854630766,2.2024043584688444,0.13920760564252113,-0.19571134952459754,-0.9052521027167966,-2.5649989263309396,2.078125
2.2856093412438376,2.601735151721313,-2.4412982096458893,-1.3325352641274482,-0.1150712484681371,-0.028115137039967077,0.03720751461444508,1.3295738294244621,-0.027383303227260264,0.8343419543747564,0.003610565431513314,-0.12650002542407673,-0.9242602811021533,-2.096257464584993,2.0859375
1.4478071813270263,0.9003234845100675,-2.8145839037747202,2.6843252698781477,-0.024514178242898144,-0.030952658670857763,0.01037616319809061,-0.7249499904908269,-0.03983071302650254,0.0510506157799334,-0.41934440549656243,0.030782202595889978,-1.073077491300363,0.002344271877825909,2.09375
0.23955452921020023,-2.4899192953857576,-1.9909574265565693,6.779433063060616,0.1836580358302286,-0.033749017304507835,0.058306950944442416,-2.356084285645764,-0.2118776407403721,0.5415048587359483,-0.8067030257129498,0.13677037651076035,-1.6669641041510204,1.6135930736587736,2.1015625
-0.7389976356477302,-1.6943536999650777,-1.472526897310713,5.711071053183129,0.1522755159951509,-0.02122185741024969,0.1004073884783236,-1.2938996374057337,-0.2110526240517395,0.816541754217541,-0.6213956714464195,0.09090042533174415,-1.4764037073898568,0.6546990245199363,2.109375
-1.3134566947206014,2.9118277978032623,-1.5726542603863154,0.536896389007123,-0.11968448372184076,0.008022220646801699,0.0785683458295531,1.2027384147444178,0.023882140602356567,0.07788346261789607,-0.0012863559962103903,-0.031298264895298605,-0.10822067410001747,-1.6934567199999886,2.1171875
-1.9369119788068687,4.566532524659517,-0.6678320568989305,-2.5949830476931677,-0.2421382194034598,0.032081856128145,0.031149977161728203,2.115625698527098,0.18521561820838303,-0.6982663739897809,0.39740810218771794,-0.06689988153611635,1.099463379770151,-2.2170149791577063,2.125
-2.7433966995006758,0.9590258597102739,1.767790312144839,-1.7328719425955141,-0.05671034479204572,0.04185876984974818,0.03173462619923009,1.0056520940463913,0.07703826481411477,-0.29118008196162076,0.3753252745713233,-0.018503441938366158,1.3477044333385149,-0.7601736476164088,2.1328125
-2.821276087001634,-2.837467318095272,3.7150520573550962,-0.6532033602051598,0.15987646995524477,0.04581299382802909,0.07594772803779994,-0.1192431350045048,-0.1293764450499445,0.9969797002176268,0.2950923961183433,-0.020955871288148017,1.3009300442494225,-0.007423761807695683,2.140625
-1.5984238781078253,-3.3527772732665384,3.857265428373629,-1.615536492713841,0.17426599666849296,0.042817431899547384,0.04902476424369628,-0.5147805882395254,-0.1448011232276496,1.2474813137069638,0.3447185164844627,-0.053408169014749256,1.5332850525839097,0.029974114528375572,2.1484375
-0.10343076946696433,-2.6714672558079875,3.4438750491361856,-2.8675824742449363,0.07016822679771574,0.027634381832268996,-0.1192357979084449,-1.142578922076598,0.09283610351199849,-0.7319746381165889,0.37057448754202943,0.028172734022286136,1.8269736643467631,1.7753825589668075,2.15625
0.494601028363834,-2.484547250007017,3.3696985000469275,-3.044355351552413,-0.007519292986569091,0.01049056793820694,-0.2918885859130271,-1.8225398016658816,0.34719992391111976,-3.134021127405914,0.3162523760584268,0.16855300430832618,1.8346980790715355,4.243925018922406,2.1640625
0.585660476306361,-1.5538062784860003,2.4425837656236884,-2.5950997375477742,-0.04066381353261811,0.0011211599081272696,-0.26526861574413385,-1.3052874371805847,0.3385186617492747,-3.0114912032532914,0.24719586417216222,0.15581488214873448,1.299296546703323,3.7031865284199625,2.171875
1.0755870474243046,0.14417435308834362,0.0919394371392154,-1.4116411668035016,-0.03727482005456445,-0.0071919762362838814,-0.06381560055278669,-0.07312128537999474,0.07332043904705816,-0.4364176034136292,0.09555214215652878,-0.0076849538510764415,0.21583012395467338,0.3428651277476662,2.1796875
1.960412179904985,0.7484757889462376,-2.248694331437128,0.8823792655020439,0.008637260539344029,-0.022092381468925594,0.08978301770680117,0.06299676608000218,-0.17690139896453627,1.660981514564213,-0.21071921103858643,-0.1050727104450721,-0.8868970701363829,-1.7623426575560532,2.1875
2.780972755281146,0.2989682672194536,-3.5694012672112483,3.1308490306780095,0.04685951794225171,-0.04063400067208988,0.09351117506740617,-0.8517046312520294,-0.2339822050354013,1.7632497078544294,-0.5276341128416687,-0.06368449454346085,-1.5783275545990951,-1.2501913416717312,2.1953125
3.0353937186492024,0.6106709816465435,-4.151172910442431,3.75971315271666,0.018316267664705406,-0.05436379095835594,0.049995879460876747,-0.9521359751925264,-0.16423384366092442,1.0139327059808378,-0.6362351291156398,-0.01035760427058618,-2.0055642178036397,-0.5162249625186316,2.203125
2.0829672625946745,1.7278585498762755,-3.7564043714186024,2.688483459890759,-0.04766783238863206,-0.05199602745245682,0.043969221973458456,0.293910421419082,-0.0751972030902776,0.47098481499795314,-0.4716549003230285,-0.010253740410047667,-2.1170909583055284,-0.7792132311056233,2.2109375
0.14062322207079758,2.1288273491271483,-1.9541930047868645,0.8610362085978976,-0.08076410674482631,-0.030314185190244144,0.04862096718808973,1.592048396792153,0.004387728366578606,0.06019380069236228,-0.14418423713174058,-0.018558041587335372,-1.5775297139354845,-1.0298296800138975,2.21875
-1.318346470493428,1.7271967580198164,-0.027233496032904207,-0.7175916921313338,-0.07374812933453222,-0.009306484526727207,0.04594273012506305,2.2754981871610527,0.04748988938214383,-0.14321800836154572,0.13508528751615115,-0.025120635555977777,-0.9254330612372924,-0.9908481459978319,2.2265625
-1.5658236043859945,1.774239763377194,0.33088129916738446,-1.2055073182615568,-0.07564725541240294,-0.00821276606050202,0.05281956595699309,2.71030064329493,0.04985229953785184,-0.08629432542691981,0.2062255054902094,-0.038044453927250234,-0.9796508159219615,-1.1664941192319271,2.234375
-1.50631531690261,2.362411592146876,-0.327331282669699,-0.7287444796347277,-0.10697397635063567,-0.01015553114907042,0.044469894258854094,2.5551037756846684,0.07870039972462796,-0.3624535193479326,0.13919486788908908,-0.020311123939061166,-1.0019256770148988,-1.117758910075462,2.2421875
-1.5199143947422404,2.2234336707038036,-0.4066300661629597,-0.34044532707051434,-0.12094571993418637,0.008733045587019496,-0.00041917346102629863,1.075196157918697,0.13132117997375511,-0.9070783848670873,0.10525849638887534,0.023473318359073837,0.1677517548603209,-0.4400581844449,2.25
-1.0288987517372052,0.6611643172391952,0.2571576389346959,-0.24190723099012523,-0.0562862038100303,0.0351500614651575,-0.02750466117602183,-1.071343012989617,0.0871327612100866,-0.6450201970320811,0.10222958371846458,0.030132938240467044,1.7419994744537604,0.15761329796607643,2.2578125
-0.7800770485300833,-1.8053477975264534,1.3531434515305556,0.35359496523071227,0.08336683915432372,0.050255903272651746,0.0047833314238995076,-2.5197720693641354,-0.06794393085807371,0.4442671172824366,0.05985270538967042,0.00951115950530742,2.4159589304401763,0.39938602445674326,2.265625
-1.9467001147753036,-4.22922402999678,3.1596436129834076,1.1659957288739613,0.22360253090775048,0.06583040805511453,0.047118112204335476,-3.123105640183575,-0.18713156550693588,1.1281713839138876,0.06345655162780274,0.023818317390540324,2.710308142444367,0.8970785989209119,2.2734375
-2.8581057192752906,-5.395790429394576,4.531249864768078,1.0344337836881943,0.28106022787393764,0.07673775742388077,0.05094455701385241,-3.1885973676963357,-0.20532724386295617,1.1651176282055917,0.14412249300298943,0.039979313492466355,2.988835074037893,1.3338232419893117,2.28125
-0.9815528985686303,-4.039633374455513,3.03936121029523,0.20615506819249896,0.20965199348428692,0.03937203993927101,0.028841708319053565,-2.0200940714042717,-0.17052200828245317,1.1151133726830718,0.0997952189850683,-0.0014848197939927817,1.6488768276390735,0.826510385172201,2.2890625
2.226001337427175,-0.5455311471034472,-0.688984494965076,-0.29868321779437296,0.026802737499629026,-0.04280473943702527,-0.026860625396663652,0.454607804845454,-0.03961109387332589,0.32243825762607903,-0.11235150099263436,-0.02763062638476929,-1.4509950742656286,0.20579217180678214,2.296875
3.090489014073827,2.2651368062634583,-2.4077730381226745,-1.0579317052228796,-0.15618784606664052,-0.08677902964438707,-0.13760689394749004,2.176358519544562,0.2196248350272521,-1.725321515657408,-0.14774056991248066,0.03936166432112635,-2.983600874501603,0.9141192554360202,2.3046875
1.4649969748428402,2.048212401069391,-0.2550795715607088,-2.9679725740371747,-0.1965420668765058,-0.047683142077076524,-0.21917423908705447,1.72750304435844,0.3879055439959558,-3.015395370653167,0.1804834747512582,0.09179064974508269,-1.117939418714109,1.919739580729978,2.3125
0.2316335021214563,0.07999338278684508,2.3499088309827463,-4.518030117227206,-0.08504556621834518,0.008506511279979409,-0.14828319583673794,0.7862309844224971,0.24028457289646407,-1.5340883923699593,0.5025677290504597,0.003256008248122886,1.0548998300972061,1.028016112952351,2.3203125
0.5123461631335411,-0.5682146176164082,1.7146968409986685,-3.3420109135778855,0.026622758757476137,0.009708088204236407,0.02921117235933689,1.078204926113681,-0.06810076766418437,1.1496270314537647,0.386578036168667,-0.13180406150800333,0.45987598318158585,-1.2566436140094692,2.328125
1.2565042618952427,0.6759270928845037,-1.484837546290815,0.18832005305676053,0.02874817398390529,-0.022485764916535117,0.1379969647674549,1.2524648543318935,-0.22194672166606028,2.176949873978221,-0.08619781635090516,-0.1469258608700716,-1.3195836882476668,-2.433794602531456,2.3359375
1.8087277356060414,1.6586270845313804,-4.097632286679178,3.4318065806169886,-0.013309514635816262,-0.03476379282861931,0.12117211812828874,-0.2296092803267608,-0.19597229273706407,1.530621087629544,-0.5163192289026971,-0.05896595009497674,-1.6054612684189726,-1.797439982233273,2.34375
1.9758817742446368,1.127556097057432,-4.511636024245542,4.849410722675312,-0.001673096806756649,-0.03068304458440685,0.07205536335204035,-1.7739406031279887,-0.1573965381590399,0.8735596571919271,-0.6909521030263727,0.017250922795128097,-1.1070583905021754,-0.642317893510471,2.3515625
1.2402937355833656,0.3683266830491081,-3.4758890359679997,4.818193255942724,0.025048000997166683,-0.03558064137509456,0.042926661923987086,-1.4021265244530132,-0.11152769261048001,0.30664895410164217,-0.6540106248470173,0.06611246316488338,-1.4439305031810061,0.2529921004027658,2.359375
-0.4039121897709526,1.0622366501664275,-2.303449287124902,3.7146523983626856,-0.03563776563279061,-0.03110931674851852,0.000897557887859661,-0.13833921055805434,0.0406933324523613,-0.9090102512639546,-0.452171318432882,0.11641540383543138,-1.4852820707012944,0.8196111894473515,2.3671875
-2.2918206368334726,2.9136934509495753,-1.0544767518432216,1.0776856017673937,-0.17336882998757894,0.011452185331117528,-0.049776741233136655,0.4236146286137113,0.24834039462375554,-2.174592346674232,-0.034678262763362507,0.12348429053802594,0.3790671757219149,0.597503075047878,2.375
-3.761375263404948,3.7617431851309404,1.1497352232662965,-2.811492362301769,-0.2470176682992641,0.06556776641494305,-0.05476696314680274,0.9905036305284985,0.3391440985090902,-2.22140176705105,0.5357753668944567,0.04300863200184415,2.6898231959964383,-0.48007737752147966,2.3828125
-3.842891412709269,1.8153971275130711,3.8064540072394024,-5.55536815096836,-0.1375206576614613,0.0758793677387942,-0.0016528727046132869,2.074122850581815,0.20568271715431066,-0.747150778843417,0.8964795364864362,-0.07414369660944736,2.8420427061754765,-1.354969036926556,2.390625
-1.9211398431622966,-2.140313159805896,4.7479746752671295,-4.517029194107667,0.10538029433071944,0.036981673675755854,0.057968369855643395,1.8640043845698329,-0.08286786117248983,1.2696883327447104,0.6873878580361631,-0.12898662135226002,1.0404749291385718,-1.0167625920867465,2.3984375
0.525787855436003,-5.188821442649958,3.318800184953547,-0.4544791654308556,0.2863293998008258,-0.006343434357525765,0.04909333581076564,-0.46113473308484465,-0.2719475823094743,1.9732700675267938,0.07436004826336835,-0.05768069522312772,-0.44205716940706224,0.6554026378614967,2.40625
1.3267846312830165,-5.299463498121206,1.5188267670724942,2.6623670528402625,0.2653246087718516,-0.027704381785854076,-0.05682013173788038,-2.4444751281314594,-0.1549268769850439,0.3095758469401197,-0.3670524278142772,0.10586523498762254,-0.7801525450741171,2.941067655623878,2.4140625
0.7417156993396978,-3.1408255471504596,0.6980602043477099,2.488489226301933,0.11245816247931602,-0.03286362074958962,-0.1563355594218323,-2.049524280117922,0.096264824076569,-1.7950211818042086,-0.3569254852678827,0.20399076815305295,-0.7343336439015311,3.925309742056613,2.421875
0.4064696709806196,-0.6183739126983432,-0.08278002539358462,0.8335598880333345,0.0020068951611708643,-0.017802354968204155,-0.08647606456829332,-0.6751370702042893,0.09585701851444804,-1.154497375431823,-0.14196843105130777,0.09571851744319129,-0.34701602647619073,1.6925594706742906,2.4296875
0.3167730365430678,1.0673389111549043,-1.2136561141988242,0.05396376143557797,-0.006239543416909874,0.022796035645153055,0.1293340044533849,-0.26900917715016603,-0.18025643952853382,1.9284109020063696,0.012377576541755388,-0.1355884755962585,0.8064367392947988,-2.5308674432615574,2.4375
0.07246863100251479,1.4289744972017446,-1.4775414796246495,-0.16517037704425513,0.019911809972538597,0.05274510758988864,0.2543400656742863,-0.46523073674260107,-0.3595140538949459,3.785512789995889,0.09494418018024539,-0.25953858286300346,1.749096406383236,-4.7308170560742555,2.4453125
0.8441708414689261,0.45946105454571556,-0.8034272368575142,-0.7049349452544255,0.034832052832124163,0.028208082073695274,0.16009292396438068,-0.33586192863411757,-0.2656456630801283,2.805314142612834,0.09047641222409715,-0.19860767982057279,1.0494907047471218,-3.1645540135555192,2.453125
2.7591315376033836,-0.7619945504002481,-0.5862968780432164,-0.9651868965346081,0.04068789074055781,-0.03113202395727815,-0.010845206856005452,-0.0068279056229546865,-0.09239486626488834,0.9394841323626282,-0.04534907498039259,-0.07839783399665749,-0.8106344873240096,-0.351273734603267,2.4609375
3.3475891999797995,-0.6038213328653311,-0.9142696017307921,-0.7612351630328194,0.0038424109244446754,-0.06646276377396329,-0.10113672756771738,0.5917181904810932,0.042865396182607714,-0.4264575116611561,-0.14665790744951915,0.005569071797939927,-2.07829944096656,1.1067250636085042,2.46875
1.3976203493971084,1.2144937371473579,-0.6806525415816413,-1.1808063023460222,-0.11057315256902842,-0.05868716667480488,-0.13642038192797895,1.7699326950262422,0.23056030086180893,-1.933555025629774,-0.015255666330559829,0.07259234430517875,-2.0092349268165,1.4412347226916198,2.4765625
-0.9807555893512131,3.2651299093760024,-0.1660673671607158,-2.052063239350793,-0.24361069445731642,-0.029471664050493545,-0.17182054398647006,2.4717569020041226,0.4350110579034087,-3.4630206939547916,0.2077940663239911,0.1304771600305746,-0.9607760721397005,1.558486243416345,2.484375
-1.9914795700873222,4.253901236981173,-0.5354882126203693,-1.6086467765389336,-0.30091803212593204,0.005281259051199363,-0.17085070693005555,1.3759344002938039,0.4865598849174805,-3.8443023534030742,0.2290371126624872,0.15289642261922592,0.5929720514300808,1.354111484842164,2.4921875
-2.2640046387911696,4.019161903808579,-1.372904140861855,0.31643708951641103,-0.26600083185039985,0.034268504814620446,-0.11813983087474579,-0.5781048466098445,0.38370211741908994,-3.147416311344812,0.053564266127588134,0.15263407147446728,1.846844973444569,0.9376113727528471,2.5
-2.2455172191759543,2.500205447341902,-1.3085889408560416,1.9294433779843554,-0.1563082605941666,0.03641884806659849,-0.055398453736898244,-1.409848736346209,0.22419040425482506,-2.081058622752849,-0.11157405413300729,0.14077358873821555,1.719210726228718,0.8170848173391482,2.5078125
-1.2648735114891076,-0.5164143546085604,-0.29799888974735733,2.618454002461129,0.041133505585449356,0.008897798981406312,0.023606316955310395,-1.0655395989921002,-0.028557407650073297,-0.21841606980428807,-0.22744782871895353,0.0787883396031058,0.18566389936196961,0.6636037418934161,2.515625
0.18267368994065278,-3.947026930155203,0.6498240827265183,3.277173179922463,0.27847062911393866,-0.01902235115802201,0.1455186541184047,-0.7448754260663619,-0.37757266504861103,2.5217886954172797,-0.35264199494478743,-0.03431375509416404,-1.4409714849819162,-0.13903107095628064,2.5234375
0.6029972905705481,-5.462399516478819,1.0668063095836304,3.6352467968944886,0.4018151845207316,-0.02328000973672883,0.24784047476993287,-0.536512460327807,-0.6013064646462333,4.397550119655818,-0.3897231130686497,-0.12334161032025354,-2.0070236221576385,-1.211233034561755,2.53125
0.09226686103265888,-4.204329114289854,1.1061625785569957,2.482074147602206,0.32760935806407976,-0.010568410143438754,0.24315604000053814,0.009360770407603029,-0.5302824479341556,4.089102770074488,-0.22900149224832822,-0.14336949441545582,-1.4806505020871856,-1.7543246843423714,2.5390625
0.11381056763411823,-2.0374562386481596,0.8741625301935926,0.3551160342129164,0.16459541849062706,0.00011392829994165388,0.14317091270559537,0.32107047304005043,-0.2954927210301551,2.503813465187424,-0.00535312357656772,-0.1190411310766917,-0.5269005656935406,-1.4914792135142279,2.546875
0.9118768487352643,-0.8414341241293042,0.5182473686559115,-1.0479203997653808,0.04505497923084293,0.00035691542418881934,0.013400774554301755,-0.15523922967000975,-0.07769765668294461,0.8286210822278329,0.08882082957675433,-0.06383262957841819,0.22446407197151202,-0.4418641842080548,2.5546875
1.2011218310554856,-0.11644158438960198,0.4875113304997577,-1.8900657412414104,-0.04526400293439568,-5.046652633242379e-05,-0.10785738990320476,-0.6087547351077345,0.12576830659271743,-0.8785854115493922,0.14695850743801203,0.013586616552360117,0.7823720381434838,0.8923914544587918,2.5625
0.28484686878472953,1.2463952555135507,1.1172054788347452,-3.6794919216185114,-0.15344382794908165,0.017347030694642267,-0.17174729659906854,-0.09528990923210653,0.30635783608902245,-2.119560025710551,0.39595254152136555,0.039009531576087254,1.677370460980554,1.135800291622329,2.5703125
-0.9370606101804216,2.5871497683807108,1.9095843917636641,-5.825012099860023,-0.21768026483434488,0.049073568893946914,-0.12136964683269115,0.9448890961250037,0.3205793562658486,-1.6907357128736842,0.7339121140228991,-0.044726570943172846,2.730130184547362,-0.43897110669303857,2.578125
-1.207659404797492,2.7347499640909954,1.6335330473963845,-5.598358957729795,-0.17612658412887308,0.0596691721692149,0.0009857847046648486,1.4003190089015574,0.14495615916081384,-0.009689258178512907,0.7492982599290484,-0.1456498284243255,2.6942678721753697,-2.2797008735728443,2.5859375
-0.5469237331654451,2.0791277401946315,-0.08219843166971526,-2.2443003909245895,-0.09774613912131512,0.03012600284746217,0.06159915221923037,0.8872665701017586,-0.0004529806689130375,0.7085367525188403,0.31176005404213225,-0.1167854806444962,1.1900629342469529,-2.1780790090567903,2.59375
-0.21474240253534455,1.4562238426956144,-1.547924102188569,1.3779774032748042,-0.06786210885373885,-0.006735848191898363,0.004793339730559567,-0.06028450678551474,0.04587112712549513,-0.4700727081664988,-0.16742742354598836,0.03621757976033687,-0.2664149977676664,-0.11709339527489455,2.6015625
-0.7685901523103045,0.5255719291640296,-1.0868275177626547,2.667158242255631,-0.048983148989849186,-0.017379730235522434,-0.07958840458207178,-0.6901760776664341,0.1572136652299431,-1.9050494867223156,-0.30728286412784245,0.1671001722360955,-0.5740394314518279,1.9623299232694438,2.609375
-0.7092595276268998,-0.9144840852053419,-0.12517345342853153,2.6830887131696275,0.020049958928611264,-0.023852096631072132,-0.09526280725274335,-0.8044464725256307,0.13033968132568569,-1.861357006142869,-0.30858081389141434,0.18553349279181322,-0.8551530246719241,2.6772390621778435,2.6171875
1.6959267731877297,-1.6636813796250207,-1.5788021811211812,3.696828042382089,0.08977783700480353,-0.06223872373101761,-0.05735016305444049,-0.8915338655422416,-0.029936605917419826,-0.6209571862315071,-0.5686698242976843,0.1290685903711888,-2.3490518445622515,2.2061977967003177,2.625
5.1059316520648474,-1.0160229526019613,-4.687412925180038,4.980963419060877,0.08873703358432655,-0.10911136933930873,-0.027293218344827796,-1.153161369827222,-0.16319978147662562,0.5151486287661574,-0.9307095612593927,0.0596579454752078,-3.946544782920599,1.2781047057279606,2.6328125
5.586694519776665,-0.19545283659224177,-5.000898650446958,3.8629867552925354,0.04897401700595583,-0.10220739114989438,-0.009763326870138082,-0.8995973909789462,-0.17418226943054824,0.9396443958964434,-0.8208278917796437,-0.0029989566061975324,-3.561308385758641,0.3273119185016355,2.640625
1.6610533897268607,-0.2546657186872235,-0.9961682692058198,0.36044722455964995,0.031282742297308874,-0.028952011462388096,0.02290710134202143,0.19668260412751917,-0.09394916906940635,0.7937463847491456,-0.1434770155581493,-0.04557877785192979,-1.069360520021031,-0.43197901366968533,2.6484375
-3.088006701938222,-0.3992518408686377,3.158624107892392,-2.3601778598593484,0.01667934920872237,0.049920445138851,0.05115060862853139,1.0675701613689996,0.012362089640030535,0.25112144068158027,0.4877134122451811,-0.0432459467233189,1.540058870531737,-0.7428238493821568,2.65625
-4.583974608509698,0.005183850257550218,3.7187564166572167,-2.2767290348165936,-0.016723603795138448,0.07394753693411965,0.03731264113197592,0.7833036073101709,0.09033687128939784,-0.43967124530044044,0.5678158838870732,0.0018131245535543152,2.4561824818172853,-0.4188849860964493,2.6640625
-3.594455180775167,0.006708804267330754,2.411727465832394,-0.7452009848463054,-0.012584924144522867,0.05107121803224311,0.018545730071127,0.2854934020476649,0.08336337505619762,-0.6455242644451363,0.3153233923744155,0.040728305236742875,1.6670193779401832,0.11576511186236443,2.671875
-3.4629665430363867,-0.6544124105781328,2.414539254255752,-0.09960233684001843,0.047477600180952005,0.03255322704217609,0.0660845853920211,0.9698035290275328,-0.01186198117138505,0.03842692104491208,0.22972023247576923,0.02025448829661181,0.555743897459905,-0.14477900891621767,2.6796875
-4.12231806186383,-0.4137974037018493,2.922856447628947,-0.864316211211382,0.06066007282460562,0.037281484411713306,0.13951631463393535,2.1619051362369968,-0.08713699422713406,0.9122791353119389,0.3665068876827202,-0.04989356110858105,0.2959931570991631,-1.3559793830602354,2.6875
-2.5773887055282425,1.1713446775010279,1.4957227505777095,-1.914694614272475,-0.03278776795030893,0.03774238732646318,0.11441241196267894,1.8452374398501625,-0.04332577047712351,0.9133334022981818,0.3965262270357137,-0.1008270077207449,0.824069550375254,-2.12679380448084,2.6953125
1.399777605913524,1.9702177849483427,-1.0952343944067988,-2.1916439186351435,-0.11304130196367344,0.01793920185290053,-0.0026066947804438837,-0.28092124757150605,0.026682980095182978,0.4423451753291326,0.18868238254286884,-0.10601968577663387,1.3404470439894718,-1.596738055793021,2.703125
4.4763385023177245,0.6453120965318441,-2.29240578866201,-1.5727586202062576,-0.052241307734834194,-0.0016639062608002225,-0.04725129898037651,-2.2039255078465616,-0.06012493261620689,1.0203081348352163,-0.049869416349309394,-0.12343139238838594,1.3125055988079775,-1.0519735576897344,2.7109375
4.655192443740795,-1.095924268583385,-1.8491364948323472,-0.610044326932794,0.07560589689073084,-0.007142167625633772,0.033165101584405145,-2.3197779719979543,-0.2526429594169851,2.4651155628968064,-0.1487209240141508,-0.1692073556325019,0.7319185986736074,-1.5085245705872288,2.71875
3.3037375553583246,-1.4299355777738558,-1.2181677798000117,0.1269977841114093,0.10975315042454173,-0.01322564746396683,0.0698757650087701,-1.3635018403445038,-0.271887078018527,2.4442159130892285,-0.16515424178362623,-0.14251045702742443,-0.06783061095980727,-1.3811151830387285,2.7265625
2.0756723877873946,-0.8987906536051337,-0.6846379145253879,0.3104855585989037,0.03361806433730596,-0.02578443676088826,-0.05057597938812064,-0.8534873232417087,-0.022008021736201474,0.041218185089631036,-0.16190072266844188,0.007887048649344936,-0.5005178428620786,0.7301246443654178,2.734375
0.9166019998140477,-0.3943424203773086,0.11228578558227985,-0.03233885355635831,-0.055813334114984306,-0.028958798901302797,-0.19752652432492288,-0.7508668467851207,0.26293194735763276,-2.597223432648996,-0.09595293751750852,0.1625291417014645,-0.3399375397774035,3.0384274904050703,2.7421875
-0.43205948208610345,0.34369316421956,0.5600447163236003,-0.1917096639887836,-0.10839813479888002,-0.024713727843048348,-0.2243955369923774,-0.06529357807384575,0.3773255364390987,-3.5891613338454627,-0.017519292154091294,0.21591379320543697,-0.3487368380214822,3.5031920780158874,2.75
-1.2816378055534234,0.9101926532305934,0.2444958270895308,0.592618756410668,-0.11393172294116916,-0.03370693554303566,-0.17602025032099233,0.9436561517911123,0.3544787499243801,-3.4571327015998596,-0.07257450124348418,0.21860690108612713,-1.200254491726169,3.0695117680170783,2.7578125
-1.0403386114166437,0.2509880038296219,-0.16021467137117576,1.846176473948175,-0.04937141157873839,-0.04743653505120673,-0.12097417938343295,1.0453649354906933,0.2381955588662133,-2.6574261498029426,-0.22942789509358638,0.2024942511674923,-2.048288689787759,2.7704318710982747,2.765625
-0.44482263315328335,-0.5733066916948077,-0.4964955730259391,2.446226714834564,0.03924283663407425,-0.034854937689757705,-0.01098298575973761,0.37124340223937,0.012485202678872038,-0.6646855025452784,-0.29270214251322596,0.10023658185220995,-1.7105546643484644,1.2602218956506483,2.7734375
-1.0380426192498136,0.4907340971610176,-1.213549085844616,2.5055369592560788,0.03985172651578966,-0.0011211666801336634,0.14026784174191315,0.3819271798277539,-0.17207481175878347,1.2953100603600989,-0.22371814988401176,-0.03333599289715664,-0.7503704321382627,-1.421711916256947,2.78125
-2.9837583799083656,2.228233714946959,-1.4403200566317524,2.7589581630485274,-0.035845808450768284,0.017418545272313478,0.18696268845238964,1.2510449744680774,-0.12057325477949608,0.9927528586271112,-0.14756732283252172,-0.026612576601755932,-0.45803329714842805,-2.2252978546286015,2.7890625
-3.849131602882899,1.5087707234166052,-0.1455633612737757,2.5136234403518136,-0.036351522528094794,0.012384702786200642,0.09972470947640243,1.4114614182082947,0.02064680919092601,-0.44936661773586695,-0.08906279441855032,0.07235474781153822,-0.593779927540562,-0.47830221619155233,2.796875
-1.2592581521474449,-1.165919793488241,1.082675518863402,0.7814733877167829,0.0736017937596384,0.0026414521030648785,0.03467051655254944,0.2086494750047358,-0.0547712709640006,0.22356949232049403,-0.010601337442264516,0.024175265313421828,-0.258472262863047,0.3173538328442624,2.8046875
3.0394647159356825,-2.4356625118733417,0.45930829695902775,-1.519003079277742,0.1488952930996202,-0.0038443129634848977,0.060218120704552236,-1.0050547602548348,-0.27722007613786726,2.6340475034046293,0.056448704630419295,-0.17122846623010127,0.31193485128924275,-1.2967415256269603,2.8125
4.420960365428328,-1.773662377863261,-0.04451054712882436,-3.1665900053261655,0.12107722645967776,0.0029466064959315173,0.08808271216239001,-0.9823130949228127,-0.3390127495290554,3.6269433010669223,0.18695769549390126,-0.28134613417674903,0.8589052110651314,-2.7169868592817927,2.8203125
1.5865346465990613,-1.1438082511263772,1.7934153130473836,-4.454436952643167,0.08130942234568465,0.04196672351923372,0.11155647013192385,-0.07117338955779852,-0.25902813663879615,3.1707999559435986,0.5119923299317762,-0.27558889540252246,1.9981158072649456,-3.090796246627646,2.828125
-1.5529472538171734,-0.401800935609847,3.2362537147348207,-4.9597552271270935,0.05927007021589522,0.08694336342474561,0.18850891663112343,0.7264997444746071,-0.2521966277383037,3.309880877743998,0.7735156127946032,-0.2915532422241534,3.1653349797425054,-4.087390397666321,2.8359375
-1.6573549156426417,1.5047385957177208,1.0057442566036672,-2.9394576206272713,-0.025669256700430514,0.07343006751948515,0.1954380542292106,0.7455012597222314,-0.1977947750486931,2.6951711448317277,0.5143620326537819,-0.24070499141541724,2.521475096299904,-4.1948091956929305,2.84375
-0.39973148713703993,2.845255960045753,-1.8954117192223254,0.5039856319778595,-0.1608558762897838,0.007820118378932152,-0.03166339467242039,-0.1746635452978701,0.1552064177906246,-1.16052307816134,-0.060267153473714495,0.04217829761140901,0.5872479615661218,-0.2584120796543496,2.8515625
-0.9292352092527781,1.908572429059439,-0.7954190387895848,1.3286291114244804,-0.231003972807907,-0.02209098486691878,-0.3359896658900925,-1.2399850652613045,0.6091554930105533,-5.839436381950535,-0.20049360417264445,0.3653177806329358,0.21870267797263873,5.165118982384511,2.859375
-2.6302422485268484,0.6394915179871883,2.195324559654619,-0.7549135837811041,-0.20822584884147083,0.0071875065214051,-0.39860734751192367,-1.1264417712509533,0.7200823088455712,-6.71769783798043,0.1549314693350505,0.4044674291068567,1.4530503615251413,6.264538523199591,2.8671875
-2.1964208765031583,0.7492727854903447,1.6731484854088197,-0.9673013475205657,-0.13984041795107396,0.008517133287184096,-0.21993112156545647,-0.020249817546878667,0.4389378760209993,-3.966904930444901,0.18817485899322986,0.2257836176853457,0.8658503867096303,3.361804474329021,2.875
1.5309270755862858,0.06481680306846047,-2.0659750161280637,2.6899849416489734,-0.011577726648642268,-0.06630115020428555,-0.07987131837618269,0.12527009415512821,0.07896156169105621,-1.276726685892652,-0.4642656580070841,0.12512738843933455,-2.5032932215259787,1.8506805077559616,2.8828125
5.9750804232837735,-2.7983785690940755,-4.328058165317561,5.9065407075630345,0.17011857882017292,-0.14276379430815697,-0.0798839739912927,-1.2993390278878407,-0.16897525784635106,0.1283290130170282,-1.1065811203805782,0.12450830445594581,-5.231999409241392,2.849337296615562,2.890625
7.535897867109543,-4.677964555309757,-3.4957289678250323,4.834658704707127,0.2683017760681781,-0.14011594107964215,-0.07083324128498862,-2.121501221957058,-0.3001636003317363,1.341340915332108,-1.038007302256385,0.04872540641434084,-4.802690086512528,2.6183876918835547,2.8984375
4.840398751548189,-2.975580491862444,-1.5894789390206499,1.4547891480887514,0.19369245749484393,-0.07259805260864238,0.03394153172611068,-0.7402855955927711,-0.30952211466626667,2.2877970672026042,-0.4438458424474983,-0.09055198264726014,-2.55467038830688,-0.03409348209165949,2.90625
-0.36773940433529884,0.030582916112593554,0.03739145886358308,-0.2393678451600086,0.06507907119529449,0.005274160344433086,0.16927409078530373,1.2815460770471598,-0.2426538839133427,2.3750096849922686,0.07985062021828407,-0.15126599133794197,-0.4742000203713852,-2.572197281271017,2.9140625
-4.919813252833224,1.471191960744611,1.2766960861365737,0.25017853645659205,0.01580089249142826,0.0674907896231508,0.27202887622304445,1.9130582044351725,-0.21227849166615326,2.2286622630170396,0.308399186870446,-0.13387163414869216,1.1510435207853402,-3.693564475007037,2.921875
-6.8047206019557285,2.033456855071006,1.8930544890425434,0.2720564752041463,-0.008798009311680321,0.10273149980349718,0.30650464223741997,1.747769256116561,-0.19193776573828084,2.139894739310269,0.431898067061561,-0.1279128285302988,2.339179764495583,-4.135120572123109,2.9296875
-6.150526643237944,2.888183837526482,2.156823433347482,-1.882631182853831,-0.09064622823641369,0.10165974363558496,0.2317790860947492,2.1813568416403073,-0.059021828790037374,1.3464421661855341,0.6321305324223606,-0.1367574552915755,2.718240367769518,-3.9343730303633264,2.9375
-4.030481443165634,2.7175765770092233,2.639134944923737,-4.523418939583376,-0.1426883504023952,0.07525904616880733,0.08850627858912123,2.48476950020915,0.10225402201397611,0.19766762761935883,0.7913141420916142,-0.12459073162033793,2.43000384089314,-2.7008460650480974,2.9453125
-1.4101858265783573,0.7014128248106078,2.673439874197678,-4.636760009976689,-0.0689424529554626,0.04581160866953831,-0.006646976232814153,1.233003337194881,0.0932098739385328,0.022414677599581583,0.6497461534914224,-0.09775481136344934,1.9556977944772753,-1.151769717551004,2.953125
0.8271736505893125,-0.9431826873086766,1.2023209946637385,-2.080484211293784,0.020846536561492105,0.019571362616230728,-0.038547641669690345,-0.8658021490124554,-0.002368514922902355,0.2949264731767781,0.2239072145164179,-0.04938761074700507,1.3735517315287085,0.017577179731484885,2.9609375
2.175166883146278,-0.2187678420509987,-1.1351330703583544,0.27426449870703584,-0.02824267114685803,-0.009801041962704158,-0.10802601232061353,-1.9644294421155655,0.07736498196595508,-0.7784703609456529,-0.16332326917777149,0.04771222670372757,0.6017694850883111,1.229515907154466,2.96875
3.027254139473691,1.2149770547831047,-2.722851288857985,1.0019320147066875,-0.13801278459047062,-0.042314988105856925,-0.22054319831874625,-1.8817676119797897,0.2768620120856081,-2.655720568231287,-0.35095393042858314,0.1541104177224635,-0.3153778540526951,2.653452548480632,2.9765625
3.9449267532592183,0.5210680688886683,-2.967611669839634,1.51603293216601,-0.106187022656162,-0.06812194339094951,-0.25028747820771835,-1.844492874243567,0.272608442338558,-2.8246999838399125,-0.4790900589287304,0.18102600080016684,-1.2728750690970048,3.379606746685236,2.984375
4.39562101062818,-1.8678540800682748,-2.129372166655019,2.192980953251147,0.057919595863755995,-0.07192902728489045,-0.16031702323194835,-2.1103454368785326,0.03394678672357915,-0.9745163738968222,-0.5493360981993898,0.11260261768788801,-1.760235874948428,2.831526148382412,2.9921875
3.2958480304879596,-3.023753982360776,-0.44865864402274136,1.3227926023018102,0.14484623761733428,-0.0460858260055041,-0.06947615860710003,-1.7376819782951523,-0.11028197969621012,0.41503382086244217,-0.34477104643272355,0.03063447094487248,-1.1574872036438262,1.7276710132862885,3.0
0.8192985409085487,-2.059840672195623,1.413122556574873,-0.843989853250805,0.08355960466898793,-0.008675559983982924,-0.05072830279493029,-0.46401986682064883,-0.01825189745644515,0.035133326956631725,0.0607496754805754,0.007658096066904353,-0.010964944797012686,1.0346158514892136,3.0078125
-1.3523374534464137,-0.8748900253100828,2.283435270298593,-1.6140222111813392,0.0175673651898701,0.009398720103244468,-0.03909900379392557,0.7749671788032658,0.08159999577117062,-0.6459602265606277,0.2667144867575035,0.02662039028528567,0.3034066473433032,0.7610245063202571,3.015625
-1.821795264883798,-0.49604601331703446,1.6076899731231324,-0.37242345128891186,0.02680529708727049,0.0018876935506577611,0.016991812085974087,1.2365246093541,0.023530463098661025,-0.2627851624560671,0.14344760104489843,0.023971812466389058,-0.39278137614389774,0.2650632480453061,3.0234375
-1.16693574076585,0.041592869359145045,0.1770574056874941,0.7805390204427851,0.031895308211177954,-0.0075698416213631926,0.07841996491047329,1.1917591790728086,-0.07644192998883004,0.5787228281589543,-0.027121874739869434,-0.016071746797052793,-0.9195596654985535,-0.6653452290823841,3.03125
-1.42607202445313,0.9923830244090021,-0.5532716704647326,1.0657501612725735,0.0011093460845641443,0.002813647820761279,0.12545219532095922,1.2164411741942698,-0.11080139333899129,1.0075683944728346,-0.03859300171013601,-0.0498413712962747,-0.6239683758022344,-1.609143858922935,3.0390625
-3.3195249211800895,1.3489648667374536,0.011811357582165307,1.4232934416265846,0.00010375824724616442,0.03078103596410697,0.18460510485611403,1.3684011964244502,-0.13361402484112778,1.2316893820705386,0.04501519071577196,-0.05367374548643619,0.08900051835125122,-2.2288577003667656,3.046875
-4.467425753999201,1.1260324297061512,0.6595306895457667,1.5984435348218555,0.022119633169369955,0.05056967356400695,0.22230152451568044,1.2774476132399268,-0.1667907993506606,1.5055034641124896,0.10714604074074963,-0.058933513137188226,0.6482199531366741,-2.526034777700121,3.0546875
-2.1462697507310162,1.184719238231095,-0.298404953229104,0.8836219606606283,0.0019265538692421712,0.032029000820825264,0.16956890758009124,0.7164218757559551,-0.15681480532341163,1.5478531282083219,0.050498486388119455,-0.08664978416586713,0.4989731868573458,-2.3970498240493145,3.0625
2.186404335328304,1.211435944315255,-2.295876889483682,0.1917863508725964,-0.03277262767417412,-0.017785603779849293,0.05501349139066222,-0.07942414286339672,-0.11375344979847797,1.2462143563873531,-0.14642918206883618,-0.100792696086592,-0.4718285202279035,-1.6301631970638173,3.0703125
4.005271372592516,0.6168869808737965,-2.7715049602977953,0.15093507963265704,-0.03142655473720843,-0.045593741872011595,-0.03526094889051517,-0.6378266837841582,-0.05186088426166691,0.5625760457061743,-0.26655122337168907,-0.05827455582654423,-1.0580498624456187,-0.3779902253939548,3.078125
2.016311524157385,0.24509771954998968,-1.0463867757272312,-0.28539849541914053,-0.04624174651996561,-0.0222662229640553,-0.09410278494326065,-0.7619636110974904,0.08800778286808737,-0.7546315946141763,-0.10265766103324729,0.02895450763036665,-0.14722068913715897,0.8824464679970394,3.0859375
-0.20520585176396067,0.6843806353917794,0.4557372669471889,-1.1338997484803408,-0.10218483175809086,0.008708599248751316,-0.14341365652281327,-0.6602734983067875,0.2495367574151745,-2.091821919773886,0.12277418620400735,0.09831571388385432,1.0580315275050778,1.6589616506213927,3.09375
-0.006153615376546692,0.6284090097100717,0.278725706835783,-0.9352882011500473,-0.09553729905389804,0.0029994384467743507,-0.13973805202152245,-0.6023104536868161,0.23609624746311283,-2.0105917096691854,0.08550501019068556,0.09714553651813498,0.8060278725901941,1.6548753738221336,3.1015625
0.8865363442724444,-0.8852651653908745,0.34543832373893524,-0.252974448803861,0.011595041429566074,-0.011759690765474494,-0.08564505681796666,-0.7194579432930261,0.07148011097004951,-0.7608473241065348,-0.030329463353617896,0.05141055842861739,0.04208435833493712,1.3385748389674912,3.109375
0.41150195542894247,-2.517527815334506,2.197319767914388,-1.2080657929112435,0.08479670989317917,0.002512729878793972,-0.09371010051838571,-0.9509001102453727,0.04301468687631479,-0.5381139092063345,0.13061811492361963,0.04460936866443906,0.6227975607148001,1.7726360468507043,3.1171875
-0.4058733565465523,-2.5269161329923997,3.8698764923655227,-3.3024611442956617,0.03736709496823935,0.02190007869471076,-0.17762526809956988,-0.8335893523065806,0.20281804337679402,-1.711816225204227,0.4205820823292878,0.07952624581305125,1.6934509004541307,2.6339865862302654,3.125
-0.2547522569406094,-1.0559824560694424,3.240781993461961,-4.188497501067349,-0.03542142921487922,0.018286175431450682,-0.16557585643166936,0.10004264611161318,0.23765240213291,-1.7082458777686056,0.5034263992902149,0.03935061307542286,1.4936437375101486,1.7746702543444808,3.1328125
-0.010368245574723291,0.22407206876779218,1.4899628899463344,-3.305934080983861,-0.020700121505910538,0.015263986960629472,0.017586179176031436,1.1859372977994067,-0.006411503883585419,0.6601278895150026,0.40458744458459917,-0.11011129924671663,0.6763887632753787,-1.222656979236591,3.140625
-0.359247654490477,0.00691371102690119,0.2622479235956939,-0.8353676508853042,0.07303908702030044,0.021647367115430603,0.19866433580351522,1.019885933889122,-0.2920516478070365,2.9760551050231574,0.16945960256249265,-0.20004477493849226,0.22287158470229484,-3.2653357645670105,3.1484375
-0.2820316835641703,-0.9339754790932825,-1.4398362337257493,3.6145835251005307,0.15606949089216482,-0.002370580992333727,0.23032271433166696,-0.25873616691723905,-0.39174640975382935,3.041790131884318,-0.36534838664035135,-0.10202301248407962,-0.9939716218926099,-2.271626393950807,3.15625
0.5544477477056085,-0.3749701219370304,-4.259579541335967,7.797893501592567,0.13378316291449557,-0.055490665581525385,0.17907825473952618,-0.7830504726239147,-0.3267241266670559,1.7320098859789577,-0.9591631607948018,0.050689338107571535,-3.1369083612625697,-0.551021994927283,3.1640625
0.7307398781566847,1.9994177284535946,-5.60447182923422,7.3557878387007145,-0.009274219377569025,-0.06877087817499107,0.12500205938829045,0.04478870230017162,-0.15941087155792555,0.4992145169283543,-0.9569934769336181,0.08272569988756749,-3.511719395155856,-0.528942283084475,3.171875
-0.42402197699652205,3.5478918681335383,-3.541229462326931,2.7584020107625062,-0.15511427584618212,-0.021185505738289857,0.03428720509913977,0.6272715458996664,0.0803246568026134,-0.7749083952231866,-0.3451702104393183,0.05265290281089831,-1.1035871898207859,-0.7388529955261657,3.1796875
-1.5586948283945945,2.63812424417328,-0.48422326254956494,-0.4934492986502548,-0.17634074794699764,0.01799541764975005,-0.07654084018915036,0.25547775436060366,0.2587685548463701,-2.0279695253090435,0.1174472839444998,0.08415900267743756,0.9605525656470612,0.4842611870626337,3.1875
-1.3224121268666293,0.7990311419046641,0.795803820917012,-0.716928483369072,-0.09104028272196614,0.005502442026211738,-0.10336713135243722,0.29297491586804997,0.23303414470666886,-2.014730113229109,0.1317324291404105,0.10492419116736608,0.4509131744499089,1.437809293721182,3.1953125
-0.03739199981244729,-0.7895974598670683,1.5045777656730241,-1.6191677953694283,0.01647368569908162,-0.015265521371522343,-0.04768854084289235,1.0874084273231743,0.06148071648529541,-0.45835497199654207,0.17797785218312268,0.008003032310914879,-0.5817105368038596,0.6966182221686169,3.203125
0.9488336451849206,-2.7163949987848572,3.3838026976503834,-4.0768896254500895,0.11447826634936743,-0.0014853880382546443,-0.024982827177472924,0.945638312938645,-0.06788251646308724,0.9592303674236968,0.45026432325857013,-0.10499627450584309,0.1631719297243062,0.027497584757700283,3.2109375
0.8538167068101177,-3.7701704346616705,4.3982064996258545,-4.614320887005553,0.14682970877056029,0.027329268694284106,-0.05841890229056359,-0.5398790402984862,-0.06132186496390549,0.893653957658446,0.5474689862497125,-0.09569308101454689,1.7206803614977628,0.5497234110018818,3.21875
0.3152679304976812,-1.4409173624524005,2.078830585390533,-2.5669496720654985,0.032026941895882004,0.03835384109021034,-0.05790194498755121,-1.4178197759462274,0.021890513033111403,0.09869312463596773,0.3242218803789625,-0.03731077331292833,2.2608194305481137,0.34905180085528453,3.2265625
0.39518556048131637,2.5809694125881864,-1.5923906722357875,-0.8936778036603006,-0.14284980897162777,0.028809391449685837,-0.0014359621792429695,-0.7591595425617741,0.06995645379499275,-0.094606005771281,0.09080505692278365,-0.051302926498932484,1.6893146613090664,-1.3196278863221291,3.234375
0.6733183013702029,3.281138543517621,-2.5860948117621736,-0.19505125982076493,-0.15939578436794266,0.009203010174253866,0.028583021865758056,-0.018311297029892655,0.044235756140294354,0.10226926498510494,-0.02360257919238614,-0.06115142481992932,0.6646884824868676,-1.7587715470775938,3.2421875
-0.29405779076816474,-0.041931774595192636,-0.29897442474439667,1.057782144994951,0.001129197871760743,-0.008458983934322083,-0.012125683785178976,-0.15342536169951765,0.024127411799606913,-0.421301518921525,-0.11782655232669012,0.049129551715670725,-0.34594130355228364,0.562645378828092,3.25
