AF3,AF4,F3,F4,F7,F8,FC5,FC6,O1,O2,P7,P8,T7,T8,time
-0.2259016792578594,1.0117161755417095,-2.4693275253027682,0.11108876315242316,0.05368701060843526,-0.0781634408401975,1.4048524576345922,-0.11475096866680448,1.2758909424304512,0.3527436239147917,-1.4525143249056225,0.06133855107680091,0.12346678999501239,-0.05511007596200827,0.0
-0.2649675258317409,1.6676627872145187,-1.2454026544389525,0.8288630331886078,-0.09198169688149184,-0.7064799837792094,0.25146719036907683,0.017080060191737072,1.8565426436603625,-2.90662871066927,-0.31792924841411296,0.507329228858421,-0.023952236806822777,0.42777441819806733,0.0078125
0.022371373212824345,0.6873998832281489,2.16804933350174,-0.004742176976108682,-0.14079497833894902,-0.722699902523607,-1.9546671657085635,0.1729276223623311,0.1433637998918826,-2.126578468929253,1.2843713512576052,0.194203584632658,-0.13259349795493885,0.40919439182122386,0.015625
0.19679769090479604,-0.6166661610826984,3.9672868542564603,-2.3039567602828117,-0.14166294542564703,-0.1141110261434358,-1.8037730008975366,0.18456459886579168,-1.4219040833790997,1.1421288187127911,1.421692575893501,-0.4267838030436986,-0.11043455294934472,0.026850449651483622,0.0234375
0.04354017770053521,-0.7505343002937992,1.68181316746857,-2.0722761176690803,-0.14168050465795445,0.3264996958774545,0.625907712965243,0.035067854857724165,-1.1863762937729763,1.3284911322178907,0.600255937781916,-0.29627325153158784,-0.0608395549200429,-0.13397584385493602,0.03125
-0.0742721820789154,-0.21215950253434146,-0.818331677451711,0.5025163584640991,-0.07281865731248348,0.18733608255907838,1.2762210722454166,-0.052306644085315275,-0.1462464852926268,-1.054241353242104,0.2315429985604986,0.2515298930878074,-0.05159381838775703,0.03202152469327597,0.0390625
0.07486587395093068,-0.06318892267171053,0.24336241598694505,1.1481233540431395,0.05451870698984739,-0.1492216204281581,-0.9935804508178799,0.04169284656276519,0.2965906184449168,-1.2814269824133961,0.31180221896189164,0.1938444334751193,-0.030829782870922043,0.1526433038531288,0.046875
0.23255791246075488,-0.5278965051667952,2.2426418499701213,-0.42882463698927126,0.10999875145798009,-0.07665722388701679,-2.294219863305417,0.1294797746350982,0.05772957538502461,0.497223656523175,0.2366093772002243,-0.24109175403606334,0.001615841882343658,0.05957429306126377,0.0546875
0.15155460685769948,-0.8971589412761148,1.16140097757568,-0.6685366030785268,0.05529699734278672,0.3235708230656851,-0.4558954836679147,0.032387740853861875,-0.4392147724008858,0.9879448668943386,0.07606451586749595,-0.22327988719059483,0.0028974428939817455,-0.10911072613856472,0.0625
-0.06571567528146618,-0.1220291887181547,-1.6090797178848473,0.5657146622936043,-0.0034447973854013847,0.2719382785974387,1.3924180344211956,-0.11911049061220119,-0.7164379122919763,0.7115903402714722,-0.1275558073445423,0.016745809192033462,0.026945423777270956,-0.22277087090062403,0.0703125
-0.20683150973506584,1.4788512912244216,-2.2170303706728225,0.4171668954953982,-0.003455732031025996,-0.3966487059665216,0.6287613262666916,-0.10987458111095309,-0.07897332700707622,1.2682259704084273,-0.6189227323112825,-0.08721912532037437,0.10374283663467034,-0.17417744723857317,0.078125
-0.20552466642125544,1.8916553285891544,-0.7176264355846054,-0.8253236125080537,-0.0006722867364687839,-0.7083520952027059,-0.49116768209902806,0.010069036537914371,1.2707799743037826,0.7591858801685964,-1.0121066143269175,-0.15231099471463955,0.11127520135648053,0.07762892359870006,0.0859375
-0.13385737564765704,0.45936609438901566,-0.12798844739751397,-0.7104231528766198,-0.025111376850849767,-0.11271542479322488,0.5586731743521673,0.03127456140554188,1.8251287955025726,-1.4334089702931128,-0.8031950667551887,0.20048445452123106,0.0088662335906928,0.2697675299949269,0.09375
-0.06262154068295868,-0.8375057261729283,-1.1936120188471004,0.4688122147275038,0.006812148555755207,0.5718525743408526,2.0141110762268126,-0.07236378364211657,0.9366359405539093,-1.744904208815992,-0.5322779650131065,0.3818603862922198,-0.027445333226082537,0.09338564116171542,0.1015625
0.05715072296550916,-1.04281834985288,-1.711779255907586,1.0212348806053289,0.15439036649167145,0.6966092262543627,1.3206027572481593,-0.13007028348454935,-0.04774289088697563,0.5443265776019474,-0.7375834406961843,0.050326038374806335,0.06637747335370518,-0.24190788075252984,0.109375
0.2742292410505447,-1.6693597544822825,-0.28790785954911496,1.1203031706628748,0.29621717915646484,0.749183107019351,-0.481273103709608,-0.0495705515133444,0.011812459580621623,1.0106352597809167,-0.6967967536184774,-0.12613805638624714,0.08598229553155547,-0.24001218953441775,0.1171875
0.39267929617098307,-2.554609751645004,1.7560945896607798,1.0626651247997578,0.22720365373303103,0.8377041232673851,-1.1287132562752957,0.0800636298689217,0.4429114353314075,-1.5207189798908545,0.17760545728542357,0.17157094925599042,-0.058558256371796735,0.1101945253820018,0.125
0.16196295928326607,-1.1630803329166088,2.3702573933573743,0.014358841250512887,-0.06947124701867861,0.15986283805706747,-0.7809325943995826,0.14154215130632783,0.2172163766925435,-2.6464325513309963,1.0973285685230136,0.305959147392825,-0.16557016522694673,0.35239904829025126,0.1328125
-0.23784348924887938,2.0096579437948034,1.1959185254028462,-1.2720408634700644,-0.3383539641008125,-1.0615641027661626,-0.5760885389787879,0.10462904056078219,-0.6125765525146821,-0.6774903628874573,1.3045720356537136,0.012927679749663197,-0.11215384295956798,0.2564963235775153,0.140625
-0.354532554914752,3.080905566081283,-0.5582763364679482,-0.7260569459938697,-0.32899170457917243,-1.3555107264483415,-0.32339828592346975,0.0018414548991811444,-1.4311286204143736,1.111437644039407,1.085163672134657,-0.17066695465398546,-0.023935412860815193,-0.009567238879585833,0.1484375
-0.15998484816744443,1.3989722244792793,-1.6105455721981985,0.9747197216599552,-0.12561908115303763,-0.5407298928187644,0.2577478551779851,-0.09487780856288909,-1.8072871947773528,1.1825519205655854,0.8107365191749388,-0.06660019576820994,0.004557782287982472,-0.2263168105456271,0.15625
-0.03332476559596626,0.27433615892742547,-1.1613150399706615,0.9563333989534656,-0.041719026974128624,-0.05620062707958513,0.4187788061249483,-0.0903606748472141,-1.6066618285006808,1.0305960880619183,0.6110963943707896,-0.05561003580604521,5.75467544454288e-06,-0.24885242949724765,0.1640625
-0.048896944147054394,0.45369588824637197,0.7442749502848086,-0.9932174915526124,-0.13716777450513762,-0.2402978029118192,-0.0836924536000907,0.024739669722983353,-0.9912572930319858,0.9210299691807724,0.6386962956223241,-0.19054275524006936,-0.03443770924372308,-0.06369343181262564,0.171875
0.05176192525854425,-0.34807709649572816,2.229301623040275,-2.1183333771399386,-0.10151208234998976,0.03901714856975443,-0.3705519020596599,0.10156309918741942,-0.22180373811787374,0.6450843476302301,0.3495750838176634,-0.2531833854581867,-0.04823646540499286,0.04889669225792908,0.1796875
0.21675614446978247,-1.686984566861677,0.9545444341133784,-1.0850496987213945,0.19450581887223184,0.8093689030215762,0.017870555972659217,0.006328973488520878,0.45688660771715084,1.4825508867114119,-0.9535384588039659,-0.30280368204197855,0.07401691348533646,-0.17806456795796502,0.1875
0.14446647842130297,-1.115390340289345,-1.986393311877431,0.5456615151685067,0.37850561656588205,0.8464023658501666,0.5774736880957642,-0.15140488106073105,0.6683577668247138,2.7307459861363315,-2.081619555385538,-0.3299173162940773,0.22755979380554522,-0.44847968918943604,0.1953125
-0.0792179756880863,0.4879623146927278,-2.5082659729790326,1.0059238780630597,0.16657883541904145,0.08192542337790856,0.6643590994211629,-0.13505807935507155,0.513074743600392,1.1952266415190174,-1.2595211183504753,-0.053643509971520176,0.14897289868417837,-0.22466063167198927,0.203125
-0.1074610933811187,0.6240665925011764,0.22959241671933636,0.30181815148422925,-0.09201395189001368,-0.38176374224556114,-0.12451662599912189,0.06761147924044608,1.2101746274687737,-2.6383586055056503,0.2025025105122616,0.39453044909636503,-0.0752967184997543,0.3898694309053763,0.2109375
0.04169229336179459,-0.10612011563031805,2.08847816454246,-0.36632770759699557,0.043597059070652505,-0.2553160246263138,-1.4430024187588606,0.20857549590068378,3.3288032160710688,-4.162593409331795,-0.513159336589262,0.478640379790326,-0.07374165883672483,0.7284489336060463,0.21875
0.10503891749539933,-0.2145160974466881,0.74859665462599,-0.16123576094760186,0.34315866193875927,0.016183690419582418,-1.7498494519582408,0.1361638153632686,4.561818334482558,-2.233578136803532,-2.390835367367491,0.20422587793703018,0.12897038080485865,0.5036076747304323,0.2265625
0.072864917947019,-0.5827232995107174,-0.7582486857576268,0.4799223862010278,0.2569272775740263,0.3748223962698828,-0.08561923232655506,-0.01798265464322988,2.087837823412983,-0.46832828864368514,-1.6268351813235875,0.08582142063404269,0.1134727180038393,0.06879574953749963,0.234375
0.05376755420612453,-1.4136580654925888,0.04220054322251019,0.6222042262806262,-0.1977875190253668,0.6060706996386434,1.8278265901599837,-0.07359673218615512,-2.614120213499405,-0.47619933061059166,1.797019123641882,0.18643892019046865,-0.17200095266034052,-0.18634976158410885,0.2421875
-0.017912466406657404,-0.7067943717167291,1.0690077163002774,0.26220462287766344,-0.4762634976756107,0.10614892579035808,1.6019979881339972,-0.031163555820073862,-4.697847971132714,-0.42316823681731824,3.655576082674917,0.15097554804246882,-0.3083267736893705,-0.18692115155503009,0.25
-0.15027547199208915,1.341454849029877,0.30147778419948623,0.08905327629988789,-0.3278104443457242,-0.7464049974914856,-0.1028478885688036,0.006322208635689823,-2.6095324275724594,0.28648630376902356,2.1176726143586047,-0.021609290145991993,-0.13433253093829559,-0.05605973011780651,0.2578125
-0.1724471129998653,1.8211067659438842,-0.8782032966240885,0.20292759666429308,-0.07047171787269926,-0.7781938660454669,-0.5997458935104585,-0.015341904488056958,-0.2614027577221395,0.7288824178668781,0.08650533504434382,-0.0934474599989496,0.04542654858225769,-0.01933750250741725,0.265625
-0.07932023061994535,0.5186128038893262,-1.1450346188374387,0.2379244718121197,-0.022658074077082868,-0.08841901863877959,0.5236802094198119,-0.08007242924412653,-0.8401886634661809,1.262740542103477,0.006157689193992385,-0.12274490768273598,0.0415987541245831,-0.21116808192120648,0.2734375
-0.05435257029517039,0.11620092069374983,-1.3087960844636553,0.2690014060724894,-0.07021795660395598,0.13139185933829417,1.1125916535193527,-0.1287612669090692,-2.129542385712591,2.1600519772173152,0.5147914079077955,-0.22035040565262948,0.018570945604100997,-0.4092881364175742,0.28125
-0.06985030503474184,0.6489550031544739,-1.5959052371268145,0.45823025819905605,0.03701216299511875,-0.10014740011691935,0.34983076720388173,-0.1072086960614079,-0.9043957710365884,1.9891280402219493,-0.2688127070686057,-0.21788217784539252,0.09003421478075632,-0.3093886586909191,0.2890625
0.06621750545720656,-0.32209027946462016,-0.8007268948836567,0.36480395832308377,0.238035911794149,0.26615105136021033,-0.26322888866202365,-0.030751930533679254,1.4618861605042899,0.4294362934716641,-1.4403939772102006,-0.05418789606703525,0.12707484354650003,-0.040732938091900955,0.296875
0.27837852086304415,-2.2326902838281395,1.2617950175486046,-0.46286783101449075,0.27321569721956834,0.9565620242737666,-0.25002681478761896,0.05553107209152545,1.8499229590997817,-0.6050361944400471,-1.2613573943957024,0.006441483697956865,0.04553385979436203,0.08844549440078242,0.3046875
0.29115232165621413,-1.9802312094167849,3.082750148630244,-1.5764484651966342,0.11140701856984175,0.6408829976653655,-1.0093280308825512,0.14988126023191833,0.9433273796223343,-0.4317013866469958,-0.2083256089444314,-0.13127030391620623,-0.04062605797526064,0.16013995967555966,0.3125
0.08669766612360301,0.39332036864878045,3.0756620733655424,-1.841882674596385,-0.014853873616409715,-0.506364979202048,-2.36892553644505,0.21299313713265103,1.2029324139802637,-0.407008151734276,0.044769987864393984,-0.19123407378636365,-0.02312530510523027,0.33495137245720424,0.3203125
-0.08829111262383031,1.701375945657599,0.973906370700835,-0.7480589020927935,0.018850464874695792,-0.9173984097185754,-2.0817720533310533,0.1362358999122046,1.8643627013904058,-0.6177050523352311,-0.588635000945429,-0.051485372667064225,0.05301063178797398,0.34355305818404036,0.328125
-0.13196936962032219,1.124665497678756,-1.5355493542638838,0.5870828089567262,0.06496907487003963,-0.35557749393111177,-0.03474088938612061,-0.047947367691699626,0.9009359816502103,0.10449449367366795,-0.82471548208392,0.042237946176734716,0.09113272360888992,0.014797214653648989,0.3359375
-0.17523834162951346,0.8426870807889782,-2.238860863124222,0.6419072549394446,-0.0303571894028116,-0.10567286036818889,1.2688183851342059,-0.1307330966764391,-0.49454009807571414,0.8538301660906792,-0.30161764559600646,0.010662662238319937,0.05857897757229465,-0.19945917748084133,0.34375
-0.24237439036819597,1.0824129090577375,-1.3236814499179135,-0.09825217496491807,-0.1670548456039323,-0.29625019749733356,1.3839879698126238,-0.06452257298757288,-0.19016728801467875,-0.35426634936237716,0.12889172491273138,0.14381235031528802,-0.019950112264966114,0.01776919902056233,0.3515625
-0.14254934058906507,-0.2966296372046797,-0.7442631297508902,0.18111670589772683,-0.13269756405735483,0.25775792336025893,2.0011463286692917,-0.03489088111542029,0.6669412071064019,-2.4470546598151692,0.10108597585955748,0.4690413858545375,-0.09390978358411955,0.21765716905154714,0.359375
0.13966080001251274,-2.5477848591305343,-0.526846433412099,1.2442686052090661,0.04382037307875852,1.2090831800001556,2.249104635677271,-0.0761870286675166,0.02059365823045319,-2.380154679916308,0.20424569030215547,0.5028698184087623,-0.11023373557268305,0.03101776308466343,0.3671875
0.25803254582784785,-2.0737556328308937,0.5151659955310215,1.0711040371324028,0.0873777102280243,0.8064106242175657,0.22691333606665798,-0.026544596978198463,-1.2093837466320627,-0.2212435334291692,0.7134841761405676,0.07607805738497106,-0.06828631401999197,-0.15564496211777618,0.375
0.032670880802026285,0.8192275505827517,1.1594944934413052,-0.1640944500388351,-0.07988897605020998,-0.5973818826303973,-1.6826136481171956,0.06977235493437443,-1.253652660741472,0.9700711811861398,1.020048508505351,-0.2333096578103746,-0.028796464986653905,-0.03502834810658125,0.3828125
-0.15655084666429894,1.5153038729549713,-0.020717120843892656,-0.2828085260343336,-0.16665296753690356,-0.7198661496210507,-0.42912098012533545,0.01847026041417982,-0.7489481429178066,0.3638931248719867,0.6936299769715589,-0.06922674081873716,-0.025359632806511944,0.027321761764357837,0.390625
0.022884178148489264,-0.6329029283868346,-0.6986892089225887,0.5762992699772137,-0.013817318033996077,0.3646534704281493,0.9805914224262462,-0.07457359932543456,-0.9607007394343051,0.25073548611113916,0.3316385724345318,0.04801863119536315,-0.023771916710279135,-0.16651745927483236,0.3984375
0.22671227034344685,-0.8773393433672628,1.1689561713159173,0.2417977768582116,0.08338657933900169,0.19761940115220442,-1.2604398644848567,0.029546016124247843,-1.3004341055014408,1.3247367618847463,0.6252124298655095,-0.26068575796141324,-0.005924730893552591,-0.1916310560338952,0.40625
0.037124963171334124,1.7627372070818748,2.5598363741955152,-1.0706026264446384,-0.08884706006065086,-1.2019585584137746,-3.500417509945986,0.182638616070961,-0.7796306651854091,1.4101950219871475,1.0306877615893466,-0.4428655880017143,-0.006922190165954863,0.10231002583962262,0.4140625
-0.22386159370854494,2.1555884301078554,0.5858896190399696,-1.0522151279327712,-0.20546209499850238,-1.051418475580066,-0.9094112014954034,0.08305560034027046,0.13653018110426704,-0.10080855853831229,0.4585496429279635,-0.06867557156641438,-0.022966344644792535,0.20783974913609812,0.421875
-0.05180410236119386,-1.290938897097555,-2.0081117506799346,0.4953653659262286,0.06062189412243796,0.9362332530072516,2.867259201581731,-0.14743579569081028,0.6226880957336195,-0.7539477627009106,-0.9292308844938315,0.2869558690514828,0.01819385809984787,-0.10683932504931819,0.4296875
0.2910225492345268,-3.1808809888000456,-2.077282322737682,1.613738712575896,0.4395198368795288,1.759974918428826,1.9042689383763707,-0.18394526668342367,0.9106215328811491,0.6096137367300256,-1.9293097423781702,0.07867980948417648,0.13879266661722137,-0.370463315787478,0.4375
0.22057171475340043,-0.5278764485439862,-1.2616917451831606,1.3571113234745678,0.4720600799156689,0.33308868650051954,-1.5541478504720154,-0.05591172650783391,1.4875635372414118,1.8340275969071616,-2.0431633223091064,-0.26773628805607436,0.23998731839287302,-0.23085955295003957,0.4453125
-0.1632529942408962,2.444316714583244,-1.2680337675904114,0.10567803829921281,0.15574517518927763,-0.9929113928113599,-1.7991392306755989,0.012235085602083395,1.8501950901228088,1.161777247201233,-1.55551983149458,-0.2170975746159854,0.19965877630848056,0.06620743093066202,0.453125
-0.32177227890535537,1.9516955601816328,-0.27190797876353945,-1.6973807271415697,-0.19163372865190903,-0.7104129038108423,0.6196831294631547,0.03171513717910117,1.2190290343907584,-0.3862399301215838,-0.5053298539281992,0.01784789109671681,0.015794493136054393,0.22861876081873497,0.4609375
-0.17727269474565446,-0.019806513841186233,2.1805572271225877,-3.1101963727279927,-0.37242020528895026,0.0029886524562112884,1.6338424291740128,0.10371888301337111,0.05551778901835701,-1.30753927693206,0.8129275037517046,0.08092856624653116,-0.1698593661572639,0.2873845119712151,0.46875
-0.05642121061664052,-0.5897132864342515,3.0167186404633286,-2.8052632371021873,-0.3594093633046583,0.09928590234604986,0.9972283691129296,0.13899831599740428,-0.5139158676776608,-1.4519877796649314,1.3822242325333307,0.0723204777838958,-0.21336879322389904,0.2841912775750324,0.4765625
-0.04744841075602296,-0.2630902161385932,1.1266493513858076,-0.8604858628958466,-0.20470985334438224,0.034112728762356846,0.7281376349039468,0.04927351798660778,-0.5094970242562593,-1.1724554902186,0.9544025213733603,0.14731319869501064,-0.1308678640985441,0.1499291496739788,0.484375
0.0038752092968956198,-0.3658608100261373,-0.6561357732381812,1.0323150637735194,-0.02740558691732349,0.16969925902328192,0.6351918222518458,-0.0471462022963158,-0.5839294060578141,-0.7774571238764754,0.48567747252266846,0.2059905659406055,-0.04987578023776736,-0.022551510366368304,0.4921875
0.11367589730708952,-0.66722551774464,-0.5355860573449188,1.6335558959717251,0.09347951947001171,0.2261705162199638,-0.21753542715014182,-0.035419250839685876,-0.4258613460356576,-0.5817085924982789,0.30304472059726656,0.16194214975019589,-0.01593320717317621,-0.0498474512495996,0.5
0.18652056136015693,-0.8051294616244431,0.008152343161342009,1.4791682463867855,0.17039385385783315,0.2196313623368709,-0.9866856159203716,0.0023102448482766437,-0.012452831911134821,-0.355761198915653,0.034413826326528674,0.07318412108132873,0.013027307621944368,-0.025408776824365608,0.5078125
0.20832863855115366,-0.9779431290664486,-0.4831289085110133,1.9705692677813176,0.17880103720506613,0.32865746868738227,-0.7544536358936713,-0.044301419577474965,-0.7850996480236657,0.2115403607443888,0.26311895571258304,0.034520184250195284,0.016531211494500698,-0.16923442154114307,0.515625
0.18322548246500778,-0.8085978453789133,-1.3534150440982375,3.1523213187622847,0.09241029383647137,0.2446726815327039,-0.3699701053545644,-0.11412628857331807,-2.518761573221355,0.47944281734497274,1.2808188581685456,0.09537835312845334,-0.0331424463437642,-0.3367488620607477,0.5234375
0.08457393231089648,0.24113490420722758,-1.2445951966370075,2.8628512454351256,0.04595765708772714,-0.2599774793803733,-0.972089520572014,-0.07161945574415797,-1.948713503361882,0.1803220953833717,1.190193367576386,0.10222134715946476,-0.02190436351862043,-0.19571356680075253,0.53125
-0.048801797946751276,1.554609415258513,0.04206227474058354,-0.2158301156875066,0.1337126485981986,-0.7471721166280696,-2.0251434418212484,0.06915788560097744,1.616671092613725,0.5969237650534868,-1.0567361415573826,-0.1866788630619373,0.13014400928019296,0.1352526968144825,0.5390625
-0.15630042515315845,2.086359142554347,1.1580858362698514,-3.375576303710843,0.12922472834362905,-0.8126026222596273,-1.8507305886493746,0.1411368435587544,3.4664311071402825,1.863593567260249,-2.5530546207374076,-0.5435960457806187,0.2272605538804643,0.22439433535666164,0.546875
-0.24075364716752293,1.6698615177519935,0.7483852912532064,-3.045536809034211,-0.15785869631186975,-0.5870766589603241,0.1472785735951703,0.057879674643885395,0.8049975911217572,1.5829667331724875,-0.7180517348867655,-0.3770069182174812,0.06311274852256048,0.05630514556298702,0.5546875
-0.25379122884404426,0.4852275425219957,-0.677932705724284,-0.35142957839021416,-0.39931504924633,-0.09138316271478387,2.5293377984573024,-0.07700082265969055,-2.151930766394145,-0.7224765535910235,1.6971659621640385,0.23317385552512282,-0.1718356460797437,-0.047652448798613495,0.5625
-0.09871863107572189,-1.271698832451969,-1.4761739552136444,0.6616550075736374,-0.18300511321169202,0.8060206484177445,3.4364421306446262,-0.14069351602276345,-1.1904415841441818,-1.5326822383976422,0.7771552630171539,0.43655541299879436,-0.13525466952636217,-0.08936418321236463,0.5703125
0.1122452841909504,-2.267741818785344,-0.9436271224628919,-0.7116306389990427,0.22819959782352525,1.3918581565079648,2.349653703552814,-0.11104737441848357,1.3378683561325893,0.6295416427900521,-1.876189843573858,-0.030545772924435555,0.1001637275912026,-0.20537954174344294,0.578125
0.12432715368132405,-1.0518172703756672,0.6685919548992222,-1.8878013530417197,0.2248185105367839,0.6474116770571365,0.07841570448762751,0.011921712332195076,1.5654383734385138,1.84618265489082,-1.8532989930310761,-0.38894101778652107,0.1456500363421507,-0.1273851218639095,0.5859375
-0.018005932150445263,0.8734196664669261,2.692267981466701,-1.7873417973254826,-0.16290069522175832,-0.691042124481664,-1.7167350882204007,0.18225870333161784,0.22483322254991986,-0.43002611410532743,0.7547535041265511,-0.13954320989237265,-0.07665319109485327,0.2939033813581489,0.59375
-0.0023635616869106795,0.43338483304074804,3.3677813019680625,-1.140683501749337,-0.2981453845285793,-0.6748405093460907,-1.4791549742844685,0.2239629678725746,-0.24778975740903336,-2.605541209376478,1.9303643688898822,0.2120317067905565,-0.2234078528792831,0.5011584846428129,0.6015625
0.196034607594009,-1.7181899115721957,1.2684337986081613,0.14720289282701998,0.051434819129573234,0.6141410653950113,0.03179789808574343,0.04801953899482662,0.10950317079426047,-1.258434611724168,0.33166603600119726,0.1592552763903423,-0.07934798635302749,0.0965813455227211,0.609375
0.2539196828847863,-1.702802608624455,-1.8503454658802532,2.1566191355520608,0.4016574722203712,0.9160880020870753,0.06602795315242876,-0.13456462555480148,0.3074015116067,1.1219662878377288,-1.3023600604934145,-0.04284879304716106,0.14921981443491344,-0.3413047875862269,0.6171875
0.04240780812993359,1.035860333144127,-3.0055850190524698,3.413143652526185,0.3296724694634489,-0.39737147306497417,-1.5763324815614124,-0.12059916430015898,0.28255087699372716,0.9393403954691373,-0.9296415464010418,0.012260460701144964,0.1865534243461981,-0.2148983561047399,0.625
-0.2123160278498891,2.846265613466727,-2.449787123039754,2.8851926551519025,0.00037554440239484206,-1.3371829903066557,-1.6312329236234246,-0.04478073900803479,-0.06805638173074396,-0.7349109066092587,0.35059743683552297,0.23972598961081432,0.054729628376666395,0.09930546161791433,0.6328125
-0.291556035275847,2.034102123680418,-2.1002726939516796,1.527642944671258,-0.20756537086477297,-0.8352028204732381,0.6130884776859178,-0.07891453866427885,-0.9121662802654246,-0.9573122132789533,0.9052271583278573,0.30170276929868717,-0.04811399471470383,0.04992297875075199,0.640625
-0.15659245974166716,0.47555669928084887,-1.1246927038609333,0.29816702726084887,-0.19517323736154496,-0.08424881855714986,1.4892420713233019,-0.08996964286338284,-1.589967188954353,0.2092195103415666,0.8946818507812815,0.08401614012947135,-0.06373021483049528,-0.14497771353614924,0.6484375
0.10908277430004751,-0.7906704919109216,1.962596159674081,-1.1241105539493885,-0.13244210308638346,0.17739623548329003,-0.17975987070303434,0.06268433809127237,-1.5146125738183474,0.5993295671167616,1.181488116457643,-0.18178658097390088,-0.10195056039332108,-0.06644166061383185,0.65625
0.2904526916979809,-2.160498192754558,4.766075293560016,-2.5930632611447044,-0.14427309229879345,0.5479644826696117,-0.8207375595257136,0.20809783452231642,-0.8790054278691941,-0.4508641185122782,1.452778240112499,-0.18871237520438414,-0.19060924114150793,0.16431754824919778,0.6640625
0.20941996998511758,-2.508711778800335,3.6306710599325096,-2.641644751818018,-0.10613354012078176,0.9319245171061022,0.7096696105194904,0.1455261841925994,0.2442432972909342,-1.1924940249466243,0.5386642963150428,-0.0009923163032400314,-0.16016804715298255,0.2042918376187051,0.671875
-0.011971556010043304,-0.5817590813443869,-0.6486861558493452,-0.7660421294989153,0.14027518288603594,0.5052949308137556,1.0264190110946458,-0.04118879976786265,1.6252503799445235,0.2777834309600128,-1.5665156131783455,-0.03272857055263154,0.09742949598699342,-0.019650711997357198,0.6796875
-0.15348821143843433,1.9448927506150404,-3.556615352220239,0.8534871623975439,0.35688764640922854,-0.4333756025903591,-0.5804380323028522,-0.1471446364380003,1.964558158895506,2.902474784892889,-2.8586343227389803,-0.3484742517780214,0.34493385925464654,-0.2878958847441526,0.6875
-0.22884648456726273,2.5241761083494265,-2.462933299746186,0.023103476230634485,0.12059457360518364,-0.8194451777409276,-0.6463923832205951,-0.09601270894824149,0.6360222427769561,2.913214415528963,-1.555668345443682,-0.4001304172004531,0.23841025896738305,-0.24657753646640654,0.6953125
-0.2640182939121492,1.0920694868866543,0.5282686022951747,-1.6038030194440647,-0.35713899620596706,-0.44505781563057184,1.3051819516108782,0.03136598214465726,-0.5951838503208224,-0.8275463541467509,0.9823325446008955,0.10802445223257819,-0.12518930129423042,0.16916519569349917,0.703125
-0.09070961555137903,-0.7766701256023274,1.2955299142206822,-0.5131198423320884,-0.31631477556023446,0.21758107150707964,1.7335554253270733,0.06983263447997988,-0.06651808420711529,-3.7563709472126066,1.454724334508014,0.582327383187855,-0.2507575302203515,0.4121448415706615,0.7109375
0.24559955846768053,-1.8186603809124033,-0.9408875595554818,2.5225037893797486,0.30809962612836,0.7693131010825948,-0.15687231792498216,-0.048038967535556316,1.0161895737884787,-1.6544696399086345,-0.6631698985205156,0.3549944153671639,0.029267015941562714,0.02804413162405196,0.71875
0.3559173311964987,-1.4057933046286952,-2.2559921303922694,2.8814605151983446,0.6159612290541842,0.753973238575729,-1.4713621013276528,-0.14032004556414063,0.668369902834635,2.496505058080191,-2.033859041593225,-0.274003079435548,0.27409553910484685,-0.4713096132059855,0.7265625
0.12469766960500173,-0.036381119290560135,0.05243046762076004,-0.1252834083671516,0.15335538516066313,0.023347672368251034,-1.1192224758140559,-0.02208801642472172,-0.715147672820581,2.7052821976296113,-0.38739914358372113,-0.4537145225845313,0.11310611452370956,-0.31290343343049154,0.734375
-0.10319649037810219,0.859451225663514,2.8058324770914926,-1.8304494290995452,-0.4043561757626889,-0.7078520681386737,-0.5692596540115187,0.1587127494854251,-1.431147477549925,-0.9874712472797049,2.1550979546183213,0.00038200851479833377,-0.2100900875418155,0.2694300288571747,0.7421875
-0.1286952385842357,0.8152202097026877,2.1995012883781406,-0.38739116271049895,-0.42514322263160076,-0.7540077095232358,-0.33258210299451535,0.1528914674210805,-1.0616245773920483,-3.2115369180790156,2.5298081879106125,0.4177100625429465,-0.2775758664260413,0.46853959013397173,0.75
-0.08117962277930867,0.5229516739078295,0.09664283545490429,0.6104429608159375,-0.14717486424284476,-0.35389568342844113,0.003462827610988143,0.027826102764322378,-0.3401801537577578,-1.6497913128247226,0.9451816126287412,0.2792984736826368,-0.10082588789688242,0.19008283002521192,0.7578125
-0.014107138182747926,0.08528749198532659,-0.17774801992578507,-0.363521658695624,0.029365778653950743,0.035257040938755216,0.10803812248965437,-0.014737867649999969,0.16218054536227355,0.6598415258051632,-0.3807055434931271,-0.10646320224136033,0.04130694038850134,-0.0621978106459494,0.765625
0.07134362339724235,-0.5339802284758893,0.06234802188634978,-0.3972349187155996,0.09967903112624894,0.3060330866375608,0.04663629620511044,-0.015027917753877313,0.22835253040870468,0.9307122850766237,-0.5789153924288333,-0.16077514761283054,0.05636961989841885,-0.11372330125262778,0.7734375
0.004715836827293232,-0.3473513805227499,-1.3009321539179763,0.8978058062011897,0.08719972956666565,0.2938817957253726,0.7230944962594299,-0.08279534645306033,0.045583856622581014,0.09648569813006586,-0.4214056387428093,0.08142954405948684,0.04107864834332108,-0.11733270188103315,0.78125
-0.21138666069708897,0.7023596323344986,-2.197010130237641,0.21181667897063863,-0.03629560993698687,0.012595353887546895,1.769431039207828,-0.12112090629373042,0.29962216582039486,0.19113073065191882,-0.6850799135694539,0.10461690104488917,0.055136694351118724,-0.09476851774285655,0.7890625
-0.21375747924823668,0.6875926887598991,-0.6404006879063172,-2.121334860520919,-0.059542171633903726,0.03340641376209178,1.550543021726297,-0.04047165908398635,1.080765604414661,1.141172474140819,-1.27107012935619,-0.18912125171607347,0.08543353175054053,-0.04247702388373055,0.796875
0.12738604456445113,-0.9631402121276786,1.0905652853160412,-1.7789203367714943,0.1625330725561095,0.5106424225514501,-0.18013619356012842,0.03777153213827455,1.150250120502534,1.4652848538024508,-1.3004802761271008,-0.34289087939581775,0.09766220610077031,-0.07753963098536298,0.8046875
0.40384403196975244,-1.9416571927494795,0.7863392884943864,1.409259517160697,0.3352434154157925,0.6580773780818192,-1.767824389269819,0.014233778861835328,-0.2911317962518598,0.9275153422267602,-0.221243331112284,-0.17701015562908692,0.06034627548244136,-0.19988711934873318,0.8125
0.2876757621096343,-0.8921915978818005,-0.19948279887180823,2.7659007874923702,0.18268746624577872,0.13646891536359132,-1.7415497298465854,-0.03192132049625824,-1.835153287989112,0.5838782211022507,1.013749266746003,-0.02559531195597339,-0.005913897025742538,-0.24297701787778397,0.8203125
-0.025480635943332074,0.5040716374255554,-0.3671405601273106,0.9164227037768186,-0.09401202489042457,-0.3047799869490306,-0.25098505298876916,-0.027819564476154152,-1.5449611989867544,0.2649522667868757,1.0646377752073937,0.013143879867870382,-0.04831931489462399,-0.10136623156057174,0.828125
-0.19906940976136733,0.787677126862425,-0.20290614421710435,-0.5489438646094487,-0.19808082213151887,-0.29071520387594124,1.0159172169481783,0.006447238449932971,0.19860499989003863,-1.2467399458433015,0.35322999127058125,0.21378472790442118,-0.07094008361318371,0.18199493730965846,0.8359375
-0.18052314053182852,0.8000836197467507,0.053555948192292445,0.011798024736544495,-0.15681916982219046,-0.40585859236368677,0.45365821303256837,0.058811201814108,1.2977721840139387,-2.9450680386212995,0.22026963436934818,0.4562535933813254,-0.0934291559020312,0.42826131145739044,0.84375
-0.13185433039177008,1.4161166074365015,0.6015340787061949,0.261476261599467,-0.12537797610063567,-0.839431059141044,-1.1118170653165584,0.10769212972213942,0.9845041042408357,-2.3263699925430634,0.5059848189974097,0.3031380579198184,-0.07219901874406692,0.42406849560460347,0.8515625
-0.1671560448728892,1.9132524605541013,0.6146887192324109,-0.7713495905120111,-0.13421077880581267,-0.9648082812615172,-1.2217497396442734,0.0882584600826908,0.41639825263918606,-0.17364039708269108,0.25338169029377094,-0.06308490738098697,-0.004108907964558234,0.21352484851217746,0.859375
-0.20588928587321415,1.4126849618042356,-0.12574229276579243,-1.1865982897977156,-0.13471946185481248,-0.5353881097989771,0.2195601996349579,0.01628336750452793,0.3669714534880078,0.3502388430852666,-0.18541520132416545,-0.08637014216966872,0.018005075117436726,0.07820392930514161,0.8671875
-0.08173418290778586,0.18305498392019118,-0.07141714206888126,-0.5659975267241757,-0.06634060418844856,-0.008827594810290308,0.6392297288560747,-0.003386666504425723,0.25452156232162754,-0.25329442784854395,-0.10269683502131262,0.04130785843581323,-0.012672904547104165,0.05019237654724933,0.875
0.1757314186069807,-1.0621771774314734,1.1342342569915764,-0.6162686541483597,0.0915799041320635,0.4052073808259442,-0.48626388709854435,0.029772057385035935,-0.2750491613426453,1.028801856228765,-0.09161695863865628,-0.2300829276974339,0.016039219892562476,-0.11809418270726323,0.8828125
0.33951113760880197,-2.1505945468632306,1.3527000575980779,-1.0646049201071281,0.24843398755306723,0.9640649750691196,-0.5258190958267001,-0.003913269260819182,-0.6175572215418982,2.994639209627468,-0.6768505557881529,-0.5552615107229422,0.09482187477376479,-0.3960090737421008,0.890625
0.3141188397443911,-3.0166492531949323,-0.47365899752026297,0.11485606923272652,0.29844609752301643,1.5728035062034489,1.38450622727979,-0.12670149706535513,-0.5049162483232521,2.1482755655794934,-1.054114865473053,-0.26291555677712203,0.09428047592353594,-0.4833605294856446,0.8984375
0.19391707389070284,-2.8677638402151815,-2.2716288074669566,2.0118331004674226,0.23234661460858347,1.5822965097986486,2.6769683797936623,-0.20640579263556263,-0.4578159573383711,-0.1514313103574463,-0.6658628743127419,0.2592766237343748,0.025312265804708665,-0.35749081486382644,0.90625
0.01858116670933127,-1.1345209106551721,-1.8168248968098768,1.4864108210643958,0.042015554899639734,0.7010409524353576,1.9190513246727816,-0.14066637323464518,-0.6580554464175362,-0.49438130769707456,0.021408500740496383,0.25807953875750256,-0.01862173768548659,-0.18307287292387417,0.9140625
-0.18293700949875769,0.9328136684341198,0.29765163486796664,-0.9309701853013904,-0.25228871994604163,-0.40849068956739143,0.6826071416922732,0.017573167676241046,-0.717869038694157,-0.31742379621010464,0.8390911081870404,0.04077958037582387,-0.0843426230784565,0.08184786080890935,0.921875
-0.23539131103400107,1.5794914592192717,1.5853559106838484,-1.2928133937667579,-0.4002045701897787,-0.9143439782323977,-0.11209340779816429,0.12428128964251214,-0.5213045506428527,-1.8533602125692026,1.6451591994652088,0.19685260524571288,-0.18099176868243236,0.37653511722253596,0.9296875
-0.07996385123470535,1.2879440670334912,0.6570246462149907,0.9363132481442691,-0.1534665114562852,-0.8734888933631317,-1.4017819020148716,0.0963036802714204,-0.13499916833025483,-2.111996884247988,1.2558265242554378,0.29491110925542,-0.1100412208773017,0.33463164284911884,0.9375
0.03109147433940959,1.7169675468490564,-1.1520731651889713,1.9628504667239404,0.2460430138410628,-0.8853721028900549,-2.8827294021009515,0.006774373636418196,0.6496852906538049,1.0034931582727735,-0.6762959644740365,-0.15423308501782867,0.16223712835638968,-0.03185549274537157,0.9453125
-0.07148000784853135,2.5277955599934603,-1.5291281757370894,0.38966872841789896,0.30943432664763265,-1.0262006684771052,-2.8072351820776067,-0.00881627679855418,1.6208435088108948,2.973738480233923,-2.032818175381965,-0.5103898603529815,0.30174405800577947,-0.14283221150598507,0.953125
-0.198130025133619,2.207594722523887,-0.34509397244185097,-0.8821335982649153,0.028066663202511874,-0.9236277974070245,-1.2490402880736933,0.05437002579749978,1.8102620447523394,0.5130113340984597,-1.164607067949765,-0.16039359578380466,0.12527429500349352,0.17745369207677592,0.9609375
-0.15096941465553537,0.9044818959179766,0.6233909854636137,-0.3311373877198149,-0.17534608550284703,-0.5186527223700507,-0.06261848218219826,0.08387446459443444,0.8413205171748537,-2.3035242815701915,0.48372706208746846,0.31499731828171,-0.09614101215732547,0.3832341800318943,0.96875
0.006633715685979938,-0.3769791170381207,0.918050650330355,0.09377803708188066,-0.1369691936494914,0.013106635830142304,0.22647736985776076,0.05246138411182562,-0.32007198038455204,-1.7940781886657933,0.9902399939292061,0.2639485425087157,-0.13088488733094794,0.19814378341145109,0.9765625
0.1442490015666605,-1.565844850916464,1.483698797091087,-0.7089655614288687,-0.05362807858867309,0.603487306943214,0.5602975033434688,0.03440484572057268,-0.7232069724624901,-0.32997926552817686,0.6694740531947966,0.006518757616261559,-0.09738616290551894,-0.015132647737005322,0.984375
0.19266554394895458,-2.3393699957945238,1.872346201077658,-1.3960724050105275,-0.035924475333151455,1.0038039209959435,1.14954466911852,0.031180050994763283,-0.5971393048784464,-0.08384551328676876,0.4159318745630009,-0.049873597071239964,-0.09830780034756291,-0.05878323193233049,0.9921875
0.10648128532371919,-1.7860903910497485,0.9286096660240146,-1.209031277228495,-0.03817669757621543,0.8708673818791952,1.4975115477395233,-0.01601409554972964,-0.5914152719895642,0.34338941723988226,0.14714328760101925,-0.06749127857391482,-0.05839688661299903,-0.12445091104227379,1.0
-0.03573719310528823,-0.5509179422561508,-0.46833391298970356,-0.6913351909447637,-0.0498773084525466,0.43833888143304844,1.5343514734227388,-0.07222290743425107,-0.6464354557834784,0.9266770741480732,-0.09770461954284905,-0.09272697855814759,0.0012209899712849045,-0.19287257026495985,1.0078125
-0.050112669423960234,-0.30941390336927144,-0.9889082611979769,0.21801896258068865,-0.016111122582293993,0.300530791230094,1.2869944599015481,-0.0763918651669539,-0.24055749266974108,0.03718548920495829,-0.13847152864865467,0.0799946534601104,0.001002466559681558,-0.10099840450370841,1.015625
0.07635223879309172,-1.021820155139064,-1.4065780930608314,1.5957017349839118,0.1577087114275865,0.564830944533626,0.8214540280366186,-0.08580031984384857,0.47553937289615733,-0.871076194978485,-0.5359940459546875,0.2565912705784402,0.02618226029466297,-0.05169825469035798,1.0234375
0.17236769465022958,-1.4990202176961318,-2.146256304102654,2.2005167309763762,0.32594847204742056,0.8605357464794123,0.6738945124729422,-0.14322617650860434,0.4430077399676771,0.2928249096669036,-1.1551354120380148,0.11560917856568188,0.11275241403392439,-0.25438161745967286,1.03125
0.16367935706777187,-1.3056276259209307,-1.4610517258885294,1.3531223757295467,0.21545170504291639,0.7411773793301254,0.6041585477794956,-0.13333223491114912,-0.8368228699224249,1.5750559034011034,-0.49036617137641986,-0.12076390194848644,0.08558953282303872,-0.39259427535606817,1.0390625
0.08027141818279951,-0.006148018134818551,0.7225057857540814,0.35715870135059585,-0.08469729337113643,-0.17635415501929005,-0.7817664723562662,0.011871154201478423,-2.0341315319527773,0.9501419374286628,1.3372096088304755,-0.15897105583802545,-0.06189942158169088,-0.16053157450425082,1.046875
-0.09228155615342074,2.62224316205259,1.5084402221183777,0.009188399268838519,-0.20092770571462978,-1.5790878894345857,-3.151552142922887,0.14291576276523033,-1.3664458082214492,0.5281936440532584,1.6932321699987667,-0.2168168314619762,-0.05450392106993092,0.14916247905119562,1.0546875
-0.2839475824546383,4.455640721417286,0.3033340475550819,-0.8522427532001489,-0.07383651273985192,-2.1638092607150154,-3.7022976770605736,0.13649347783318028,0.8819215448816297,1.6474957815641522,-0.2750751014288885,-0.42619429692325556,0.13895661179510121,0.20701187336049984,1.0625
-0.2997677292661574,3.0778975454204587,0.046658555289415475,-2.432443755456066,-0.002852637300283132,-1.2324106840379365,-1.4618165765657118,0.09049762233158491,2.5202534009267734,1.4917199144454236,-1.7962706256894616,-0.3933731447696883,0.18539652101619644,0.20606226752783718,1.0703125
-0.13750338371230555,0.0756024491602586,1.210076019912221,-2.518345855114283,-0.10494339156567356,0.0649033708705876,0.9625456033504649,0.08913442435734828,2.118026283886717,-1.26335015094149,-0.8836756462478921,0.0784502946314293,-0.021571532252236025,0.3344472144452514,1.078125
-0.034056504953637504,-1.1247044798283374,0.7835107685143515,-0.1439453667074275,-0.18479252327657691,0.43943017200390927,1.6923068294266073,0.03939166782818628,0.4302299415575204,-3.3937775441447475,0.7957801524335576,0.5482205854680311,-0.18744493593498446,0.3429286038714249,1.0859375
-0.0530658354933611,-0.5911089621555377,-1.3379769952820237,2.0313960500749815,-0.11236838334073083,0.277149301323701,1.6375896137943995,-0.0807937866334043,-0.7323308679384405,-2.6009845774404647,1.0265818862217537,0.5801703384191933,-0.1356988377155791,0.09313989101355304,1.09375
0.007149242867241406,-0.7499016964066667,-1.555398978890077,1.443544842482461,0.0420282489494327,0.46949706825050946,1.3507373501385418,-0.10770310079646388,-0.36435895611899527,-0.6776955268672316,0.011426622031525701,0.25444826317911967,-0.014224855866017004,-0.10598030360819674,1.1015625
0.2061519142362098,-1.9059125805348673,0.7148482514747175,-0.5154723927855368,0.18196477154237775,0.8916375671249623,0.3797667453102451,0.003581194160296063,0.7820287821462867,0.2086205271439965,-0.8422491235709317,-0.06988036990187804,0.03406063794492429,-0.06310179756240707,1.109375
0.3145936345302934,-2.4385283080259357,1.7749750130711466,-0.7995780365468846,0.22562948379978517,1.0066799460104332,-0.2931797424873116,0.06109491421669989,0.99428843070615,0.0455278566263995,-0.7890376274587538,-0.11368403917119084,0.019442860998846092,-0.0035673629875543392,1.1171875
0.16625925351168244,-1.414014552700426,0.08489201632158158,0.7339779548606182,0.10602567370029868,0.5997912656129848,0.2431261621222741,-0.025004926377161278,-0.2668574737732947,-0.2575737698804783,0.05520268701822853,0.07367026489969722,-0.017303302358378993,-0.08251439496649568,1.125
-0.07484330379300974,0.6717065093185345,-1.418607004078628,1.540663029217849,-0.07327561403138044,-0.27994988028390794,0.24483600368732555,-0.08435581361245455,-1.5385026945570146,0.23262008438496548,0.8651065525317136,0.0898323105184046,-0.02476507468083594,-0.15520550736571295,1.1328125
-0.10930710917925715,1.9152459587218291,-0.47751809363356446,0.4467833019746755,-0.0836326718420206,-0.9297922130480224,-1.3706246757624214,-0.006284687073079127,-1.3779842370769706,1.621734345785343,0.7190268089785066,-0.2487828317488866,0.03470500281101585,-0.1390876763484726,1.140625
0.08932697434300109,0.6490654770572831,1.1402451716565973,-0.7725016689436122,0.0748998399792989,-0.4290526061633757,-2.0527518474868023,0.06688971418720353,-0.4090596266536067,2.2314582677183608,-0.06995277330077906,-0.4722782085528895,0.08002702843725941,-0.12945169741466114,1.1484375
0.2067622561255454,-1.413427873601767,0.908206772724301,-0.3195264442762634,0.12579033217325872,0.5838088426300002,-0.2647675443232329,0.01009957256324277,-0.2879854549752858,0.9388658086038804,-0.16605879528969808,-0.19147204428726342,0.01844672027932232,-0.14898169920938278,1.15625
0.048482515928697574,-0.9911214032023228,-0.4084803835251335,0.678433849810786,-0.04802449255053278,0.47762341560795785,1.1670757474843505,-0.06543993258372217,-1.191236369633019,-0.2810831380011841,0.6816872846669161,0.1334360988177494,-0.06946052221546209,-0.13066723013387563,1.1640625
-0.16325920838166244,1.0973039550112704,-0.3165564542030198,-0.13254500827605956,-0.22775583429874452,-0.4822236636762092,0.45563482759045854,-0.025420433252633906,-1.5453047501788677,0.3786919565515056,1.11134715030146,-0.01777147076811612,-0.06667390318214325,-0.06428614423849002,1.171875
-0.2169291508833396,1.4295819816752815,0.6497053207040979,-2.08965171191054,-0.23626199327798267,-0.5745048412495829,0.3202289120625223,0.03933413056438352,-0.3555185843523779,0.9493571137220711,0.29381263859342727,-0.22282410208155326,-0.018857162923920413,0.03291161861930465,1.1796875
-0.2615302370016297,0.5808658349177526,-0.5695194257978209,-1.8432692144561311,-0.14862483272623483,0.03891000904659681,2.0931999469575344,-0.024650569030414526,1.3077436974259797,-0.5550613609281343,-0.8591613330991135,0.09687572250389598,0.00545208499515713,0.13857163600168565,1.1875
-0.347915774177206,1.272365119984592,-3.3702458646533495,1.0218004495038526,-0.025559752737254013,-0.15820490712115826,2.3225924255614405,-0.13484497499698833,1.9197523447327465,-1.9401692742851269,-1.2875323313723173,0.5001216063464726,0.05812873484152461,0.17015887155662354,1.1953125
-0.16603800831037335,1.8315495577438676,-2.986730393073523,2.4147413702261127,0.17682814056955173,-0.6715193534228207,-0.6523531709670616,-0.08318209198444956,1.5927196477379488,-0.753055620487636,-1.1865464535773178,0.255855990705993,0.14192109454709712,0.08744283346485214,1.203125
0.2936128845011404,-0.5532319111550171,1.2585218597689665,0.3247219471834498,0.3478602128426762,0.02476564337815299,-2.890285869256057,0.09577771943008712,1.2834408516594378,1.0169721091875479,-1.0385928390967238,-0.29890035246928154,0.13206927964251056,0.004021850262001259,1.2109375
0.48910575965369485,-3.081442130012178,3.6855659404484045,-1.4485014181159879,0.28331022238158166,1.0696595226145542,-1.6869376396111118,0.16419253916293602,1.0967238537527575,0.2349858270416272,-0.5987345387529514,-0.2749204019638473,0.0024084104418510477,0.062309825632717,1.21875
0.2043710364555895,-1.8433288294646901,1.7668292869522044,-0.02253081572399139,0.05720894743968212,0.6127847600139561,-0.14198011648971154,0.0945669078427926,0.929336660824553,-2.2949599554138036,0.18324090685721256,0.2823154802397139,-0.10046864915036194,0.26947853375427105,1.2265625
-0.08071058022705772,0.9097751106436086,0.23425107947095206,1.1997118664557032,-0.07988585728113307,-0.6372858247048767,-0.9367419151930623,0.08746896323047748,1.0319365946309784,-3.1709032976483393,0.6030741472636006,0.48293553247909465,-0.09399357800030246,0.45056054095637216,1.234375
-0.06325999462994929,1.1391253767873584,1.766134715162987,-0.9411679901207887,-0.13933843784861236,-0.7613589157211802,-1.5099850389391707,0.14599471678765424,0.4657640116173998,-0.9821051268319616,0.6206052781896368,0.008910830759863828,-0.06510059177634801,0.31880430390421427,1.2421875
-0.01576953959200044,-0.1756889250308963,2.2437414394670387,-2.87145904040577,-0.2719751355432636,0.03292892595546891,0.4923432140166558,0.055220986497895835,-2.099297942865834,2.1477841615662236,1.2022295923030444,-0.46082862620366494,-0.09000894856209857,-0.1877738536769664,1.25
-0.07402826667068722,-0.49183280845099986,-0.6737807253130322,-0.57760913084177,-0.3286277913154488,0.4117541277393323,2.570716480516883,-0.16813830793462262,-4.776760207692945,3.0792217165729934,2.1138490644898513,-0.3319219552374467,-0.11292787645516729,-0.6406138070403916,1.2578125
-0.010682497670099999,-0.554031168521042,-3.0816525929905865,2.874469864892579,-0.07857490831196708,0.45122035955987194,2.102265669793359,-0.2580055764613239,-3.9336304686438615,1.5034728358746816,1.5602212989057045,0.08175324117356667,-0.04851348456090586,-0.6070062619935024,1.265625
0.15033362549746204,-1.2017974434251002,-2.4238952828379268,2.760815917993653,0.2721072666440001,0.6905565585354627,0.6026495387750587,-0.16018260191780107,-0.326374829935014,0.28909316185542544,-0.589768790576222,0.1512292002948476,0.0840769737687021,-0.29460232454360574,1.2734375
0.10793806934280335,-0.7589738748113346,-1.3544584112883506,0.5998837987067247,0.3295365489965533,0.5540778708522373,0.06896086680361704,-0.07481350666444067,1.6031809001344608,0.917647495641337,-1.9202477174345278,-0.09519011512843728,0.17369749979485655,-0.14899680938467408,1.28125
-0.10946969136978205,1.1194259167439287,-1.6380916104946173,0.20350158418222483,0.13729637755635196,-0.28760473400941167,-0.19551243060464102,-0.061471575907671876,1.0592706513703658,1.1981181894740982,-1.346627469018412,-0.1443827403337666,0.15599226444040684,-0.09357340907646222,1.2890625
-0.1858767502746474,1.9812863147900985,-1.2697884328618496,0.6471585667363438,0.02767935727477971,-0.836973711673963,-0.8835765045421111,0.00072829995750379,1.2086928173696003,-0.3465915839131763,-0.6597289690631546,0.07425936352295977,0.08468267747959307,0.1525936215683421,1.296875
-0.07960773303624702,0.9518469601069232,0.9461717560864314,-0.7630721646820421,0.009148500945930628,-0.5385453552828469,-1.1448243082762215,0.12608549858428642,2.2947065661564725,-1.6907650342126228,-0.6916255284944149,0.14113023882030085,0.012877047541667986,0.4230915694290392,1.3046875
-0.025139334233138955,0.1665706876900002,3.079127982185925,-2.676598456344261,-0.1502189734462684,-0.2941243491528321,-0.8137797412142447,0.2041874740999187,1.5278536414363437,-1.455107704938502,0.08484582185221738,-0.009378599519091294,-0.0873737650989554,0.4478514105745229,1.3125
-0.10294430322341974,0.7484607541488771,2.8833337587384973,-2.2271002516081344,-0.34796836556535565,-0.6141383436624525,-0.5333710836178388,0.17374623103230202,-0.4937930733634067,-1.1787906247510227,1.5263239232203543,0.0034748404643109333,-0.17663256930986837,0.33809104157059205,1.3203125
-0.15927783601518472,1.1380864892270515,0.4720380289741397,-0.15834324392960714,-0.23643509759890619,-0.6342475425403657,-0.08618457827315086,0.055550747200262963,-0.41546177302023013,-1.3877786766867415,1.0950452834820374,0.19830341446078797,-0.11078314343705727,0.228692836296755,1.328125
-0.06035349729798111,0.12435712941353813,-1.5040041695699586,0.7859301970093432,0.11648690453161423,0.11401197237597001,0.5829327628418774,-0.059987893058455116,1.2690855270015236,-0.6429635633172524,-1.0172269059106567,0.18004878747539727,0.07053261961890696,0.043113217429718055,1.3359375
0.1393804357361047,-1.4085663867191127,-0.6326703508303797,0.21533340510420843,0.23023309337451095,0.7931166653725672,0.6426374231939056,-0.06206595915625664,0.8701757311785949,0.5530072442052584,-1.2322782126064489,-0.0470355333153501,0.0909627165039347,-0.14788693062501004,1.34375
0.25108343723435755,-2.1553423480757004,1.4979708703265069,-0.21727861549078786,-0.006309092050402251,0.8294634389262833,0.3911346150872745,0.006308058088894407,-1.6888249711820085,0.47524282220034997,1.0031821546402786,-0.0962012278962689,-0.09671416317732948,-0.19012349059185124,1.3515625
0.16934046963308894,-1.7300927717819539,1.1805542819459895,0.07656288565644676,-0.1344824173836687,0.632908875354585,0.8108509154286722,-0.01508190370965872,-2.5657329637225015,0.1989222773870396,1.7395361757674368,-0.00827302721574911,-0.1537423170113332,-0.20027898772959585,1.359375
0.014149861713444484,-0.43274682943699777,-1.1029719772645514,0.19415008064205005,0.07904773441052212,0.38630709255013185,0.8723781785912633,-0.09505026306737123,-0.41705876621424587,1.3086336326010084,-0.4908685236424635,-0.12622719444278538,0.06529007405380842,-0.25550804880109734,1.3671875
-0.03239676756127118,0.7908498398067602,-1.495764306872902,-0.07105476244072143,0.2656700766910056,-0.1107871503269641,-0.6064985847341362,-0.05606228991329496,1.6392214721571594,1.9545444622855281,-2.0547911470199267,-0.2965018654470818,0.22573014047649953,-0.15246760121020816,1.375
0.042731231485893584,0.729286249160062,-0.04130133241505022,0.3776776248224245,0.16390417534512483,-0.3955111639193397,-1.717703947782583,0.038632537072104726,0.9731016699967631,0.5715413771038605,-0.7422739638950385,-0.14262150985806532,0.10356077469927852,0.03898041882759343,1.3828125
0.1262705655821634,-0.48233180332294484,-0.1311934209761029,1.7391209319980618,0.037893184809756175,0.04685501896592169,-0.6505870551795209,-0.014985594797152165,-1.1136152854400092,-0.48744974915827005,0.908516275972951,0.1309952358213535,-0.051324001262078124,-0.05824389870085199,1.390625
0.12346515242019433,-1.0651558416328977,-1.3518552037913847,2.224926542578177,0.05754201939967814,0.4898627137837581,0.6732256018325287,-0.1220123268775116,-1.8866699691336768,0.22875095901534906,0.8248240594310182,0.1288054964838977,-0.034182532067410794,-0.29157193910827267,1.3984375
-0.01707603584152664,-0.00268911232931752,-0.7564569619838795,0.6614700426094179,-0.022248082175788737,0.0504540313965379,0.45286642264480426,-0.058051079812575346,-0.8381664240419152,0.2982646684420799,0.33966548976234495,0.026297973142887898,-0.008858284857539143,-0.12558066070276447,1.40625
-0.234342443640977,1.4740190553035344,0.630278077350192,-1.3828675287324401,-0.2397270533935225,-0.6766803211185485,0.18649911839913463,0.0727506580779652,0.5074285385066253,-0.9949146058519626,0.35560063125566577,0.08865482362968773,-0.06383708984986944,0.27607950683884597,1.4140625
-0.2995708172452134,1.7308683561522071,0.39842352278007703,-1.8915560740361617,-0.24227569484368242,-0.6993962254581656,0.536367734870133,0.06704856050960405,1.0890081426534899,-0.9131800422692771,-0.118468496340396,0.07102207871182417,-0.03473908626092397,0.30396007663704633,1.421875
-0.09711875722169332,0.8530965637268327,0.1770119848824001,-1.0715100221323326,0.0007820252171065214,-0.3202574773940347,-0.3247291752820763,0.0372349942893284,1.0805697477617824,0.354379233877208,-0.7276073405713275,-0.11982538577733348,0.05929812364767094,0.0959337235277407,1.4296875
0.08812104047749124,0.2554981661431483,1.3002093973404925,-0.10946891586446143,0.07381872664931514,-0.3376705262173852,-1.8339146788830913,0.11052130286588699,0.883155005277086,-0.5128981033494702,-0.09078630148524429,-0.037010173409865794,0.00975810720460834,0.19939591979258506,1.4375
-0.07109917424418997,0.8807435095973262,0.7838594147328278,0.49796472185396556,-0.11576921734483168,-0.6355382551927511,-0.9978864445016477,0.10405221977699239,0.6777896282686723,-2.502397873483127,0.7372653024334255,0.3397124922203206,-0.09794377198784472,0.39939369738740277,1.4453125
-0.3495870487463019,1.7621790546441738,-1.9576962091971852,0.3113960036265943,-0.19764894693417231,-0.5705805628218282,1.5220346495860035,-0.06660940383703579,0.4951977572162626,-1.4075050090678496,-0.022336205558322723,0.33838872163214395,-0.023552353653727338,0.16632511137344172,1.453125
-0.21320215606516513,0.6711743588770217,-2.0175393417457945,-0.6588113633486823,-0.0419736190065082,0.10152319930216784,1.9679781657900102,-0.13388285322929105,-0.04686571195705448,1.5228818870870562,-0.8781928399340471,-0.12654308777777876,0.08929025003247487,-0.23598125067868314,1.4609375
0.3062202980897953,-2.4276843897000475,1.7037129436811478,-0.8488543064707521,0.09410883687032022,1.0088437270891253,0.1723943528242051,0.008842389816391516,-1.2289768467091309,1.5148372884331485,0.2983841961056847,-0.29847110071613536,-0.026852271172045677,-0.2747062689638321,1.46875
0.5533780281421692,-3.9808809590324747,3.1543796516456992,0.4929412579216323,0.10668339956639501,1.358928436264005,-0.6379046508540636,0.07511676285183498,-2.089692338761194,-0.32202716944982307,1.6478679432972834,-0.03169566038768491,-0.16917376757369157,-0.15375097575583085,1.4765625
0.2565565098692537,-1.9227215604320802,0.03683869140994298,1.1615804273566286,0.13986390135432988,0.8055333878070554,0.1745862290066528,-0.05690274987551765,-1.2609595252731742,0.5842929215372862,0.39477988988004314,-0.03141890429749941,-0.017368489283239596,-0.26111691980264984,1.484375
-0.04211740349418312,0.343893653623573,-1.8555733037895894,-0.3027899883435981,0.21523125203094637,0.19873223871112441,0.4490159634442633,-0.11516445073658452,0.7309793514788477,2.6916024334175224,-1.8346210696675422,-0.3616028458979148,0.21095123708355523,-0.32821065476264777,1.4921875
0.072493435838857,-0.4637467194437426,0.47055892915109376,-1.5349483308099425,0.2024783594158447,0.345472677493345,-0.27899120961611507,0.025067508425220854,1.763153603408525,1.3598647524062077,-1.7550735923910945,-0.3089138375751975,0.141066345237711,-0.04030918671454929,1.5
0.20183499593697957,-1.5240889387586694,2.098646424095137,-0.5429117990056135,0.06904478428007897,0.4603413947386061,-0.6223725000821804,0.11708615378421017,1.0310524774481133,-1.6044629420911605,0.0041571267911262675,0.12964819106787095,-0.06873762631340774,0.2493508953811143,1.5078125
-0.0687832441390154,0.6864338864492737,-0.18014105697505636,0.9191417579512066,-0.0846684893822916,-0.42332652337170273,-0.3726191675450942,0.022632026950490346,-0.08838373185049903,-1.4460322859594845,0.6731505345467053,0.25118208785434737,-0.06339131302786548,0.17474214723286555,1.515625
-0.3754945792416045,3.369638804699048,-2.5795311630308064,1.2074555327075402,-0.14503394979471632,-1.3723119970404345,-0.3633988499145476,-0.07350739889216365,-0.3141052165092078,0.3331222330639051,0.17202644485804755,0.06629803729458147,0.06342056876069244,0.012023242547527745,1.5234375
-0.25274022072511365,2.420306540116816,-1.8610257020939722,1.227778143659983,-0.07966781174594,-1.0264876548422326,-0.526151873132905,-0.04241313890457819,-0.004018990869138091,-0.20291343912073181,0.1243571919989185,0.11746403470070228,0.04205629571191215,0.0635310634070021,1.53125
0.03827159852843062,-0.1717705617451094,-0.0642870639917199,1.085466288207055,0.0019802759826934666,-0.03522181377580086,-0.28234154346531454,0.00925097394113497,-0.10245405248507714,-1.2317481705159388,0.47950376261020894,0.222754451185356,-0.05083140307525234,0.1000995470878449,1.5390625
0.04083350826745377,-0.38635922093158487,0.4527741658044068,-0.1997501315332584,-0.03842305842978194,0.1345995012328273,0.12531029217412623,0.004133699687256694,-0.6359166887101119,0.2149852248614055,0.4150635601919797,-0.04223233509946719,-0.03496087026298005,-0.05211107152882715,1.546875
-0.1373015845864496,1.0246243417410101,0.1772732787890165,-1.211382212420864,-0.14983448872225552,-0.39733365016566613,0.1656714378834357,0.002287430394369729,-0.7331253007176132,1.2679115822200702,0.2973242652745973,-0.22819997225222052,0.002188576269445153,-0.08103072027870356,1.5546875
-0.17403119640520712,1.1733213602092403,-0.14577393084726617,-0.19984449413187477,-0.16086521253154776,-0.5352991583663486,0.1420044110832901,0.02188929323080254,0.0652894403648056,-0.8673594103224809,0.42627913667891826,0.13771414526862627,-0.04726800875042253,0.1645649494335667,1.5625
-0.07444036773617359,-0.002025823253344849,-0.3777100330512918,0.796795058645372,-0.05843724385122161,-0.02725293670520759,0.6118859196897276,0.011684857619131756,0.8898727950101559,-2.597577825526394,0.1658644315475428,0.45297178531644605,-0.07643496797621968,0.2853125465816609,1.5703125
0.04175786267228886,-1.166040171039654,0.07534466006047472,-0.35632110687799756,0.026225677942190412,0.6125935244869285,1.1993734163739251,-0.018047111667185183,0.5725029044895424,-0.7533905719885473,-0.381482250766937,0.13564122691057873,-0.023162369730747662,0.03409320323648689,1.578125
0.17223672207517082,-1.9409605430896304,0.9465885187020048,-1.4002392689335466,0.06588701150986806,0.9682002076914759,1.0489799939510458,-0.023828060634154557,-0.5139396684110642,1.5244422492380225,-0.3358849992627015,-0.2740325662742001,0.010207350662692433,-0.24961902842117814,1.5859375
0.26271598499812115,-1.9831817379120273,0.9054908772313793,-0.31296927832204136,0.14102019855079387,0.8628553349996252,0.07766235498512113,-0.017690365182968515,-0.8582961889863367,1.4896388988894769,-0.050878123057815375,-0.2584225941737853,0.015124000078768105,-0.27472911275708767,1.59375
0.23283971102563347,-1.0353202213241244,0.38640862277508164,0.4085187856031659,0.22692486099513598,0.3990910421538437,-1.0629865542234629,-0.002586378435580733,-0.1296357074299882,1.416117585608176,-0.46672131068991457,-0.2516988099834078,0.07938387916020527,-0.1997759202805,1.6015625
0.12182999727455696,0.10743550610041923,0.9758422460144424,-1.03484428920237,0.16678751791281532,-0.09349626152025745,-1.6390612436104897,0.053593558312222005,0.44661921965158047,2.2068538539500953,-0.8339126365168935,-0.4681107409926861,0.12239661776019277,-0.12813304845847795,1.609375
-0.06336610955642193,0.9492521775615436,1.5490797846700088,-1.9607946215172716,-0.09869197911993159,-0.503080523431923,-0.9569898226225375,0.10006692565683424,0.22220820203044303,0.9531890944480772,0.015621723963159202,-0.2979926963245104,0.010010333933810563,0.08619573868059933,1.6171875
-0.3245624618847583,1.833037800938663,-0.13131621874701851,-0.4715419724258475,-0.3440524723100675,-0.8338343901335988,0.7820670811002542,0.038935399824893066,0.004163416480923972,-2.1039458114626193,1.0037406439272816,0.34223422308933027,-0.12828510805703683,0.3350438362025701,1.625
-0.3833253181518573,1.9471153653748694,-2.4011993933911477,1.3882632276523135,-0.23890050843657823,-0.7168577637575706,1.5745215821587684,-0.0710880624374013,0.4676720866124772,-2.8393931061650544,0.444564933958343,0.6138544474492802,-0.07779372292442886,0.29092845672785145,1.6328125
0.001777082158445873,0.07189245083913774,-1.8355822588809865,2.002010672942837,0.17948691239776127,0.04896101909358972,-0.030952881907776172,-0.06799015142005721,1.0541691037638266,-1.0330653553444595,-0.7767363379099398,0.2746142753596916,0.06824181679926464,0.0415461576141928,1.640625
0.42531302764939216,-2.157135116500836,0.512505007272847,2.0924682720482792,0.414472960734389,0.7366182627517824,-1.8603220457234833,0.025261171510863892,0.7872609232538054,-0.4184032072215721,-0.6296235711311154,0.04747577041028088,0.06436823928165136,-0.0405149691462936,1.6484375
0.296536101554512,-1.7886339753303002,0.7486725572314935,1.6583372398814205,0.1560895559685198,0.5566892233942439,-0.8625372231096525,0.021247134353635268,-0.5188948007799187,-0.9596004732849773,0.6020758026218599,0.15819973199262694,-0.05685301059769196,-0.012019233649965346,1.65625
-0.1698885045925005,0.5350793090727027,-1.0922997406969146,0.10366641827115752,-0.22101496497971915,-0.09611342325822025,1.5998117833242143,-0.09437568946996151,-1.8319313742685426,0.4819605776920115,0.9888120880481526,0.04020085764382922,-0.06684957818769556,-0.1785601142975676,1.6640625
-0.25889113208070974,1.3676784371982982,-1.462819796885715,-1.242061946593498,-0.1928366459115594,-0.2800712688044735,1.6040504757357446,-0.12237051798294263,-1.6714271754902688,2.8348811387330928,0.10169265533416945,-0.36006887497141193,0.052694261731755135,-0.3708736605291042,1.671875
0.08740912694600736,-0.0289847437271024,0.4531899787771063,-0.9360699075331994,0.13073912218992814,0.05135862609961867,-0.8670162236797605,0.008047176343812669,0.02325710720352256,2.3387438270922556,-0.7270609889697272,-0.4380433217442655,0.111591170232981,-0.20672869598368768,1.6796875
0.2643381844951002,-0.9528406339243262,1.9049315170049352,-0.16270380658325492,0.22505145353763809,0.1670494184878726,-2.136355001691789,0.12509911951529282,1.2706652116662416,-0.22133603614127165,-0.5518095352886041,-0.11901539454180775,0.03964722425760176,0.14596775367125445,1.6875
0.020265534559836915,0.022691095803058232,1.4452409989152526,-0.6661818036255203,-0.055885618994366386,-0.1827964303201102,-0.712219687866294,0.10253232033281108,0.6067012978173458,-1.119231120634109,0.27762373961197173,0.07431171715430285,-0.05855507020386616,0.24290652324779757,1.6953125
-0.28675384021091727,1.173504342679628,0.4944766439701482,-2.022122430638159,-0.3618491112770044,-0.4311099977627418,1.4843401547239008,0.023534012961389652,-0.5598580732489767,-0.3523621287027123,0.7889060653946119,0.027879320069914466,-0.10552657459578138,0.127628446554517,1.703125
-0.3420130634561781,0.9056498093853756,0.10703518325574699,-2.620170531183854,-0.37387251804446625,-0.1547148393450343,2.596348252233348,-0.010380711594789519,-0.12092869955023447,-0.35167366160236857,0.3005369291988481,0.05134037739108941,-0.09198269592571973,0.1104466616171683,1.7109375
-0.17944347963459079,-0.005887739235692486,-0.4910480500477062,-1.415827576670557,-0.09522593023608253,0.2654285193594641,2.0359835559158777,-0.02989850845759437,1.19843260279359,-0.7182881237409658,-0.802150187953217,0.13320824875745754,-0.002467125135323875,0.112098399022567,1.71875
0.06936243298026903,-0.3784684963463378,-1.6261731870873604,1.4146802533902163,0.25968837588649585,0.30832188975521835,-0.05444183843015217,-0.07783812840780532,1.0867220774599142,0.16620848519720033,-1.2590655286769703,0.06040595681712202,0.12263439870164201,-0.09408398485064767,1.7265625
0.27746858654787127,-0.4521529478167046,-2.004598597910902,3.9233444443832877,0.4222909317913389,0.10189244692900432,-2.1167481902025584,-0.09871714211981525,-0.4349343230549417,1.0025056344212602,-0.4524082649801666,-0.022160624128430104,0.1475748782856485,-0.30046157447478067,1.734375
0.27224010340353316,-0.5177838309521063,-0.8809194814851337,3.7864132958943015,0.2478409910395547,-0.05018456380182749,-2.1682086523848487,-0.03822521004527603,-1.2272939878365934,-0.21251123273647696,0.7859930780707403,0.1331711526198911,0.0160668084112416,-0.15134198389439552,1.7421875
0.03086211376005693,0.05914929035492847,0.5032334864091063,1.4275984969374393,-0.09694747133371627,-0.29397070663708313,-0.6979093113890122,0.05311579873639931,-0.5649013498085628,-2.2177119449566294,1.3426871316139566,0.36072784466554125,-0.13169565717040677,0.22623369051376294,1.75
-0.1634455455061946,0.9344748385197853,0.9385252791153132,-0.5275546028300444,-0.24944940630247445,-0.5666032694431608,0.049611544315362376,0.09261766702629023,0.31222494910026805,-2.3178857451533017,0.9454710916976397,0.3106083384037616,-0.13573203610490606,0.37930294701348544,1.7578125
-0.049937855664631575,0.4141881272360322,1.0133860333175844,-1.205852351734497,-0.06882347158426508,-0.2348108537653659,-0.32738186066083924,0.07239504360221269,0.6031284556902275,-0.22436279456816094,-0.07224105439197699,-0.05630131547047305,-0.014648079333698095,0.15283354062226784,1.765625
0.19894936237947852,-1.299754358311962,1.4619451812402442,-1.7850280146626,0.16709844659424983,0.6128372249726105,-0.4080531412723403,0.03739296323072128,0.40756840487738394,2.119319415804141,-0.958226543881643,-0.45577403178057446,0.08802106878327967,-0.18369091832709838,1.7734375
0.18676547035660018,-1.5236084115814852,1.547413135472333,-2.3336097150824067,0.10347844066652341,0.772382296981651,0.22814782899426655,0.012146906764305685,-0.3503459248869219,2.869004886862564,-0.7090466752085823,-0.5631340345632843,0.07179173895857109,-0.30780331325068727,1.78125
-0.1050364522404901,0.3813240468320176,0.6673995275885962,-1.8896744419499123,-0.19487504230990732,-0.08333046003570596,0.8020013787063323,-0.0024263389559667885,-1.2125312400614254,1.6204509543658316,0.4938613281506768,-0.2947421428893844,-0.028684209799768694,-0.15253942283065142,1.7890625
-0.24314809457610034,1.3757310643951883,-0.20919651335813796,-0.7887810411273212,-0.27083466955570557,-0.558552987507729,0.8048967507660241,-0.004510352097022933,-0.7823524440021177,-0.15188738530474336,0.7949107832273073,0.041586298036115354,-0.06933018136751455,0.059356858750109584,1.796875
0.01565119861010799,-0.26921510413537436,-0.24872549163700403,0.11439451327894426,0.07738341064861178,0.16760984370688023,0.1451915766648378,-0.00517042526787289,0.8333680596746755,-0.41754921251059146,-0.5686399207971278,0.07203849170555918,0.029196245473181802,0.0525105794172658,1.8046875
0.2858365268428801,-1.8510265004797417,-0.2779098534498873,0.8900187048978111,0.38472323813531456,0.8712811534206345,-0.5123197012604807,-0.031578234819476456,1.2814998657197267,0.5373382728232836,-1.4917272640755808,-0.07707623651562294,0.12699053451633022,-0.13537310276170006,1.8125
0.05321719683121451,-0.5069015723307309,-1.267144248174534,1.2389077553138468,0.12187644823520093,0.3251049948427172,0.4232971600300905,-0.08363943060048551,-0.15472966642702812,0.22124623876365346,-0.3280615265238699,0.06525947859235388,0.04421686634838174,-0.1508814123702202,1.8203125
-0.48576071965581036,2.1679668385070854,-2.4874895577468292,0.5568362308488748,-0.4172307454932276,-0.7175512346333531,2.6933855435634038,-0.11263546668599306,-0.8935587798225754,-1.918420687685922,1.1015078187290734,0.4993639475337046,-0.12424340084866516,0.13840242107141013,1.828125
-0.532563434602166,2.2833877992068228,-2.227632002647033,0.12343070628016502,-0.4190795434633607,-0.7629895768847815,2.7859978323623817,-0.07138914020996122,0.35248205672739275,-3.035812668111633,0.6496129115809884,0.637444613545183,-0.1285366771557672,0.34482760775895316,1.8359375
0.15659784249315742,-0.7605720953668107,-0.09084910758303115,1.382790697527682,0.20746971364225847,0.23255704195071378,-0.885609198229072,0.01981624070321446,1.1221004565169885,-1.2181682514714065,-0.5122496602346157,0.19624814927618836,0.02857477978648845,0.11987834049785957,1.84375
0.7180259630699201,-2.981639875190968,1.8704838857798416,2.424159368165806,0.6111197336501466,0.8660623794390553,-4.042382496936271,0.07952925319381528,0.01584732649118333,1.3464196547143037,-0.4695182541442799,-0.32224484851205903,0.11652699750234623,-0.23425325791807183,1.8515625
0.34860780709175015,-0.9565625626926181,1.2807839967209296,0.8853974496392099,0.2717703705420395,0.1436094565134309,-2.664905943052463,0.05813681278317204,-0.564052157595598,1.6088257965651567,0.04133952938034838,-0.34266459041993264,0.06985614552381286,-0.18291273518517814,1.859375
-0.4213499155491095,3.017730789058933,-0.9540800336386036,-1.2236564608709024,-0.25764439489027785,-1.1851232970656687,0.3321031867320465,0.007298260509599815,0.5648055582215638,0.05832809808867659,-0.1282795667973197,-0.013898167043084188,0.02359067560064273,0.176724389446744,1.8671875
-0.5135190935698257,3.680806689804972,-1.3763358315930476,-0.9692718623501865,-0.3140855694758457,-1.4712907745282564,0.39083254563568615,0.004418263010293228,0.6964472786615705,-0.48070665385579797,-0.010322486763668886,0.09299395874905347,0.011678185929181758,0.2564316610609431,1.875
0.014401816383205437,0.42778049384853445,0.7179478148668579,-0.015406501072368038,-0.09756185245350205,-0.34178026809964657,-0.7898453763073057,0.03255978658239494,-1.2838813169410594,0.5582819235712928,0.9981451501675708,-0.11990417281426809,-0.04840344298948005,-0.0501386938590771,1.8828125
0.24169481451658695,-2.14327731586778,2.194316480196568,-0.9781577508728965,-0.08981558560963192,0.7918021751200703,0.44952105738527165,0.03144752901985061,-2.1717627141931057,0.8239057112902469,1.379220503344713,-0.1908151905048203,-0.1299160732711775,-0.20313588086385784,1.890625
0.0414399109246102,-1.720520956388593,1.6685991028169165,-2.0768524532644097,-0.16106722266352497,0.8133669409534974,1.9272545803315504,0.030476375666465102,-0.31756341579037245,-0.5638902873077606,0.41593823421382714,0.030941604451652817,-0.12319946521354028,0.03793668745383329,1.8984375
0.07207210221126385,-0.8557691890424591,1.3398203027426954,-1.0931689605174424,0.03230057877942124,0.3290699630753566,0.030669129197858108,0.0778970567393404,1.269439286900082,-0.974471609086823,-0.46112948360379713,0.0568558212215584,-0.022963180438875803,0.19814704165618477,1.90625
0.3292400707048352,-1.2142119429365628,1.6360936577135288,-0.04149074752494218,0.2902608639433414,0.327915310655194,-2.2375740852117687,0.08356493932742687,0.5459686360719952,1.2181638392558538,-0.6252884491416335,-0.32423211725619366,0.08569777437431021,-0.07516875907871015,1.9140625
0.1963225211532348,-1.2151054877067062,0.0892330602697988,-0.7664823945592515,0.23226184700882385,0.6849581163556093,-0.1153320466623832,-0.05322798449928669,-0.2808740467343886,3.0637313808233184,-1.065030376773442,-0.5050333829845797,0.13979101298876126,-0.4022396952185463,1.921875
-0.2256644993361026,-0.2800183638387027,-2.652196725714699,-1.148118696963008,-0.010767238869350196,0.7472365435515211,3.6911215046590606,-0.20019260575724118,0.42800093019767005,1.5068978263068682,-1.5763435701759172,-0.06933355458714016,0.10675532677447722,-0.312651207114156,1.9296875
-0.2723032672160049,0.18720419910605857,-2.4799591649484896,0.19803996729014375,-0.10101406354897616,0.3208339388657416,3.1396958154869186,-0.1367967241175528,0.9177843287834657,-1.5002851232362475,-0.7356727120251043,0.4138524312968314,-0.00702649670212023,0.05770089276483868,1.9375
0.020084263727002793,0.219028438888956,0.6102703405404711,1.2949523813555042,-0.06538158944045111,-0.3738956323483255,-0.9595743907301183,0.07771590862052885,0.16885489819957616,-2.5826116476459826,0.989568076257157,0.3921541075724485,-0.11348404181325451,0.32097797596284044,1.9453125
0.08221014703646108,0.8552058147349537,1.5358769344589176,1.538047508887974,-0.050025176092379185,-0.8837364776126488,-2.8178180114064486,0.1541711158379599,-0.11262885027208497,-2.301134915070817,1.4636301443355348,0.26869288914492967,-0.11346504775162158,0.3781585789031145,1.953125
-0.11079780824508824,1.4744183753235298,-1.455743625263172,2.5949009832807963,0.005888562087820504,-0.7924301608897024,-1.0556729219741023,-0.0015591911459043337,0.5634456895784675,-2.324776820038915,0.3992912063689823,0.4556848966111718,-0.02102772850513776,0.26518195611323303,1.9609375
-0.20065978031391285,1.469624401863,-3.90198016056442,3.4467802782099763,0.06961422312957666,-0.4645448678655996,0.5855291735352842,-0.16336691719972674,0.20207738456968966,-1.2777449496535882,-0.27047929195509945,0.4599924010241764,0.061139775005056116,-0.019526969413163283,1.96875
-0.17000352823705206,1.7982522391159468,-2.3854006472342992,1.497727607107164,-0.030019471746387125,-0.6633099460625214,-0.12088469926762133,-0.12236857278802005,-1.4096989436820004,1.63316831760336,0.27944109913006365,-0.11121543346954944,0.07570627762669625,-0.27524361065438896,1.9765625
-0.09404475413910568,1.9146416216805586,0.8125008757601107,-1.5110921627821254,-0.12614905486072756,-0.9180211803645772,-1.589020668111415,0.04045731543928971,-1.6206913090529373,3.3179582204882494,0.5701901158717805,-0.6245483570884178,0.05987009292150012,-0.2351371074369851,1.984375
0.14646284883104016,-0.32422993306142567,1.9878734205138495,-1.8560188579851646,0.09224439390341567,0.04093354335946419,-1.4323481359673587,0.09529996636252805,0.2670459870228258,1.9561842144588115,-0.4843468744884544,-0.48128883774067877,0.0666067209225574,-0.0738991909848821,1.9921875
0.3730973229461069,-3.46014596678757,1.1056218605737005,-0.840585424457596,0.3397759179141849,1.640022815942909,0.7603252099931013,-0.006410819490273188,1.3450269136645863,0.5392381335583719,-1.5738845372048,-0.13989389571553282,0.0709245784622031,-0.14747569260417975,2.0
0.17974616443191652,-3.1048769844438064,0.9454803109451207,-2.1847951956077227,0.06352106816739762,1.6478295254931428,2.71122723011559,-0.05408767423012966,0.06466192663240608,0.9903627403252113,-0.8318882224116202,-0.1699555652838284,-0.010011160059566034,-0.24088721799672635,2.0078125
-0.22014583269281604,0.31534971150161417,2.665635688823137,-4.3452656107954315,-0.4835046766603943,-0.10470867319505696,1.8215586591015018,0.09742390365373943,-1.1540137348696498,0.5052219661562347,1.211682024547868,-0.2365713900456139,-0.16953825871108286,0.09744172772078001,2.015625
-0.17904718656755622,1.3558687426679776,3.6816031911001237,-2.7537768609962257,-0.47372323154387563,-0.9929331699141503,-0.8513496636356761,0.24301714801294452,-0.26316593011938294,-2.1619381868144254,1.9846571864676403,0.09976832529072376,-0.23878500829191707,0.5455418429861051,2.0234375
0.24880744136543792,-1.2045222386639487,1.265327612689027,1.8705581756327117,0.15704701750499434,0.15459479136570214,-1.7110093961453257,0.11439726527221289,1.1898977480743804,-3.2107710702240304,0.37819212600997826,0.4499882431776553,-0.08501002772493774,0.3802359877375629,2.03125
0.3584820715651457,-2.2758949593514775,-2.466871759186417,4.119086787877671,0.5565980154845213,1.074657260440005,-0.4301034455210713,-0.1382555306547695,1.2005408472975034,-0.7615997214317222,-1.4989247127823029,0.30831634221879806,0.14442859284775356,-0.18909417014557575,2.0390625
-0.012806659258996798,0.501438527155249,-2.8804804521145915,2.078934300667784,0.251128508188646,0.007024767144695831,-0.05641310521435241,-0.14802439540868284,0.27687604002937466,1.3028132746522518,-1.1729095081788588,-0.042850121440265884,0.17130666604405334,-0.2753699910784813,2.046875
-0.2982475445352581,2.9183025327194847,-0.30862929601026756,-0.48590853385960575,-0.23220176291388245,-1.3429878068465775,-0.9471709953435822,0.03852286521977291,-0.44902627412853696,0.45515990129464884,0.6406747956766653,-0.10076617725234066,-0.0006798745598933717,0.11264383653421056,2.0546875
-0.20320410476701936,1.8329591407046215,0.21952220963518027,-0.273137856393294,-0.25611915430314325,-0.9226000969562734,-0.4517658933745965,0.04130457929546567,-0.9558420077433052,-0.2720315757485965,1.1774646481560325,0.02399959116711462,-0.07586243468370313,0.11806472842157965,2.0625
-0.06539250837163692,0.032294860856699005,-2.3328709255041833,1.28972636257485,0.033224900074183696,0.2351270964169755,1.3512745526218481,-0.15989429027593807,-1.0470389911786548,1.0299330535885274,-0.11829562899231653,0.017073071825185148,0.05073504258785711,-0.31145451050887757,2.0703125
-0.13262224116958343,0.36914537532955416,-3.0922593154615683,1.128584090366097,0.08719207046145953,0.2229732503791288,1.68043322893745,-0.19022387208491784,-0.25554422580760694,1.2980490998622454,-0.9078982311422057,-0.003790439223132487,0.11687490018695819,-0.3208530776216944,2.078125
-0.12747690494894465,0.6993892251454302,0.24637163935193837,-0.6869039006431211,-0.10955730616166301,-0.3074203749779538,0.20539519107473925,0.03857209003180665,0.6058432964589112,-0.8368329046503892,0.014388703441085591,0.09929701080080912,-0.030257800056621067,0.184696389808476,2.0859375
0.19300589703692858,-1.3904787519639887,3.5149079688499434,-1.6176234974634527,-0.07022627316544208,0.2717548771760767,-0.9297755778926126,0.18965270621377017,0.510324170395109,-1.6402611843402535,0.7275781439769746,0.04926119386633497,-0.14032930547051306,0.32896274644064294,2.09375
0.4497699041738666,-3.2282808041214865,2.8148291744992653,-1.072267132299565,0.2362674021499854,1.2467734421229977,-0.6946916116872706,0.08925208672039626,0.20755258768413112,0.6278481328740962,-0.3233021974320229,-0.2513530376077569,-0.010846877239113737,-0.0915387385203093,2.1015625
0.13962179151724427,-1.2899444194127876,-0.2729105384383615,-0.8340916243040956,0.23046464708531395,0.7984856500141758,0.5610601246419342,-0.06079282084015623,0.596719298628345,2.0941891903831684,-1.481808511859466,-0.3331581421328032,0.13624278869167405,-0.28374934111848354,2.109375
-0.41287152884796013,2.1960001516474974,-2.1384416043295613,-0.9257589102334802,-0.17884219770577003,-0.6016177028588118,1.75340563239496,-0.08747144951491222,0.7178459664311357,0.3203800413555205,-0.771100598655177,0.03939718148932518,0.06295192430163456,0.02564333969270785,2.1171875
-0.38191455216937126,2.420416010228346,-1.8201018091868268,0.7749757678229385,-0.27648471237709044,-0.9825496438347919,0.8851278466552723,-0.04525868409848493,-0.18650378137098686,-1.6167873178288594,0.7195888308371187,0.36979948214216163,-0.0638990423823185,0.2032495548746994,2.125
0.17309910915315355,-0.004101761795512603,-0.8019908925491769,3.5171968798773063,0.15243409345637443,-0.28828060712265857,-1.937486003708564,-0.01405599955402234,-0.8793310679455975,-1.1033511407671788,0.9436488893721975,0.2636186418338473,-0.021692909165811358,-0.0006585801476958913,2.1328125
0.2954859509047091,-0.4069358335235339,-0.30356444263419075,3.144892816950207,0.2989024861459327,-0.12684922873768462,-2.7682583706016155,0.005764885215765332,-0.53512952960735,0.09388089579557239,0.3281289326337943,0.016984456077685412,0.054422592031034424,-0.09934811978441017,2.140625
-0.19158075535773764,1.3771014393469203,0.29909279717920406,-1.082756321668751,-0.19947467498566473,-0.608410478968018,0.06967556363097284,0.03508845251163569,-0.22090980790421322,0.0800554019937827,0.4307724985896994,-0.0525684552918616,-0.03380641775365975,0.09843720564136894,2.1484375
-0.3065810938309005,0.7758734696817261,2.1730457669992616,-4.1572874789832595,-0.4974994285156606,-0.267406069474432,2.045759138012709,0.0968847857939085,-0.3825047807836549,-0.39675773052424007,0.9331634324638836,-0.0761594309967331,-0.1664607785790548,0.22980772885129347,2.15625
0.3060710300829129,-2.796384183350062,4.085337399830249,-2.6500233935441937,-0.035867152124842004,0.996074947789778,0.025469542445378034,0.16222185699939903,0.03207050288606037,-0.47933694574940217,0.5111214858232573,-0.1476772758180802,-0.1356826200788315,0.1291644768382008,2.1640625
0.691469832674314,-4.306307497478537,3.115684024728279,0.4651779965463642,0.47943328094789156,1.5462562466116971,-2.069718660658526,0.11991309220007602,0.889210796837802,-0.1415966895474187,-0.6260603164866307,-0.14358228071712426,0.01712957341416533,-0.038819204269398895,2.171875
0.2721872804018094,-1.5469683685157676,-0.43257615255645493,1.1784453202673628,0.3506351491540179,0.708107651802229,-0.7068087257775448,-0.043168580793203445,0.6221437965442352,0.8969278100077515,-1.1068649407108986,-0.11622178701544449,0.11856125354421532,-0.1970629542167059,2.1796875
-0.290590049513429,1.7916712777422792,-2.592239283150553,0.0067978833433448745,-0.09114607211874151,-0.4392392982906912,1.3248803774101239,-0.14663979567174232,-0.7079428648051825,1.9128769180299414,-0.43300880417753507,-0.15902898771885005,0.09806962989396627,-0.2734872400810414,2.1875
-0.4374162878944694,2.8703498981421567,-1.9799321065888724,-0.5276564387797894,-0.3167585832455214,-1.022106712044192,1.236487057022035,-0.09200597892569007,-1.194649160586295,1.1015587471132688,0.5286941052973284,-0.06758458675104127,0.005991943725583245,-0.10145917492992951,2.1953125
-0.4052271965394182,2.775881738982489,-1.5966249892628337,0.16195571386064983,-0.2833263749908236,-1.1228467454109021,0.6312284453221136,-0.03199258199038536,-0.14624238568299708,-0.8807308528937505,0.5441881513004465,0.21862050802471827,-0.03453203978967788,0.17125097120236749,2.203125
-0.2799875916721268,2.0270272514194727,-2.566376318447347,1.3852373595145968,-0.01472445098056947,-0.7220820418307208,0.3332428429768396,-0.07343611154070968,1.1195272216510201,-1.075057638122582,-0.6382014795605447,0.2962581801241447,0.06603634091686304,0.14017318848721005,2.2109375
0.12727316624069837,-0.2134855373660649,-2.125285755932165,2.319917299160739,0.3877090391279725,0.2063673050758055,-0.9101793808222289,-0.0905434182143409,1.2862171843008472,0.5276229847309373,-1.5789687627182816,0.020328669084000734,0.18344978955938698,-0.14478918134154495,2.21875
0.40768906313161596,-2.135025985328773,0.20225010192380818,1.7478971561992307,0.40693279370158464,0.8202220482451357,-1.4746071874409084,-0.013683719598393524,0.2620337522221426,0.7040823072624726,-0.7150332517704645,-0.10923904090784538,0.09324718090514661,-0.19932767889737218,2.2265625
0.05600706497850622,-1.120042348446651,1.1536885087110684,-0.4259658677460429,-0.14600374580724246,0.4028300025558711,0.8978278914713482,0.028165401034870304,-0.8673488435102464,-1.1148874911966693,1.0498199234908636,0.16163775983328363,-0.1406219291402629,0.06637832711441131,2.234375
-0.3849207720729377,0.8571556664935149,0.2744321691648237,-2.139527210192869,-0.5174610328343946,-0.22167736787066436,3.076306011186751,0.001066157513027678,-0.6868595112430383,-1.8859481062066026,1.2708548010681324,0.322961944519396,-0.2051088205183007,0.24262780154622268,2.2421875
-0.13114295608296803,0.04932253981205458,0.9345413900278638,-2.152152560279667,-0.17112553877900347,0.0738849892294686,1.2131948656873264,0.04371726070744414,0.5999591831144157,-0.41098122133920656,-0.13672722817766358,-0.005612476296465339,-0.05019848788141424,0.1461525292919684,2.25
0.40543053050362177,-2.2756131404040176,3.3464395159444895,-1.7817452509286655,0.2515140611753222,0.767928099126937,-1.8137784037071296,0.1519411853076504,0.947452599202687,1.0823186487730692,-0.715395012126595,-0.40887463773406885,0.04025650075970329,0.0029116501374590203,2.2578125
0.39329579097254996,-2.2039870547480183,3.5383913881497127,-1.5234708922329463,0.13160750608263394,0.6613634116165239,-1.6854490957376207,0.1467969377817258,-0.3174301869483995,1.0315397073322703,0.2821036611590081,-0.37884149352662444,-0.03289395709755122,-0.042887961972603465,2.265625
0.05624847201430906,-0.1991209498094318,0.4789564825521066,0.25800047128874976,-0.05571293308302499,-0.021528150867914587,-0.29628798806620255,0.007291442574525458,-1.178119152408288,0.2728360198301811,0.8471772893250691,-0.04389703918358363,-0.052033482107829127,-0.07448284545733566,2.2734375
0.02945674798463038,0.5365484221976669,-2.2064598893223137,3.1615057028297553,0.1503721101317909,-0.2660540847018362,-0.7942000055989774,-0.09633877667017757,-0.5674684817715211,-0.2523153393482547,0.1715851363942653,0.19970720091388666,0.05136746984917748,-0.12076515830103011,2.28125
0.10280747862970838,0.2885208123577303,-2.378486030807019,3.950029314566976,0.25564989920467457,-0.2062973780356664,-1.3271321793963258,-0.09343432908513323,-0.154692615647395,-0.6393593341101727,-0.054406661314151596,0.26932374036368595,0.07369355470977045,-0.09082644532007757,2.2890625
-0.16577773835403678,1.4182728842121122,-1.5649559781339637,1.760039690212886,-0.10736660602486352,-0.6499940392585447,-0.036918363656446816,-0.05093446980262911,-0.6724183845898842,-0.999252998962407,0.7716084133925327,0.27396764835351406,-0.0368907661187488,0.05742994193809416,2.296875
-0.4549324417272228,3.0432681448253636,-0.8216292583204985,-0.6633187823306649,-0.4024476706467149,-1.2949472522279515,0.6686133024374135,0.010983660847685279,-0.37372041608052264,-1.046552291321172,0.9758646305928131,0.1952758336177172,-0.08427618624135119,0.2474073824216218,2.3046875
-0.31130632927163976,2.3923325848454384,0.4621622505054536,-1.792541663392289,-0.22526271507518453,-1.0502460628276207,-0.3358031075846598,0.08931822539721565,1.1055482305354303,-0.4951877143251566,-0.12091369719511352,-0.02197428128842736,-0.005005770310581881,0.3106355778301672,2.3125
0.03871173903231872,-0.3235046075856078,1.5507498727702203,-2.3808916177167343,0.06774946587338325,0.18749559839106658,-0.3059509502970597,0.08606828446726929,1.5535238179701267,0.8298295969798015,-1.1635033253700187,-0.28859695184646006,0.06749459215831419,0.0839609378719311,2.3203125
0.19782590831406274,-2.263731343887789,0.677058594735986,-2.0914466945661823,0.1863177775887312,1.2678217268574312,1.3375088838636466,-0.05009274772204445,0.24479055771054903,2.6104958480909226,-1.4027975773620205,-0.45731487271901655,0.10326982507640074,-0.35663862647531736,2.328125
0.16641012018047038,-1.8925913991706793,-1.2783373492120762,-0.42674161703686186,0.24137435597229664,1.2202947633693824,1.6491845376311314,-0.1684028285877497,-0.7683379394947647,3.4698948930607636,-1.3127610442070647,-0.44809370016135835,0.1530604795860884,-0.6035036820936562,2.3359375
0.06148192056169548,-0.35074530700798406,-1.2483185048907706,0.3891221796266662,0.17662108315875896,0.34942276225140473,0.2533164955187772,-0.09855280319184528,-0.2357843889098478,2.0254995038816133,-0.8722357438821785,-0.24925994828147655,0.12459065031711987,-0.3238955409927296,2.34375
-0.06330782157247775,0.3153063642080836,1.0942613746147332,-1.1364268859992257,-0.10203812463553236,-0.20749985333589255,-0.09915774915178811,0.08078076895739766,0.7191137402730288,-0.9104901555084208,0.0773620692407151,0.056010163976640576,-0.04755511696550063,0.22710433579290312,2.3515625
-0.07616556374733006,-0.3882478664961263,2.2297255557296696,-1.8244077497712512,-0.2615164142037998,0.023915621469525434,0.7960253749336987,0.13457995855880087,0.7501531195009773,-2.7337985722728364,0.7839483804829306,0.30824344521700164,-0.18191796654703907,0.4418910645646845,2.359375
0.04044944696302412,-0.8231260575806235,0.21206347909689488,1.1429421802541835,-0.08049803863806164,0.22942257269316638,0.5623144126744113,0.013050705322227553,-0.25260349428704637,-2.511083504991745,0.9602850046431909,0.4442025949254543,-0.1379489163997295,0.19572879215860026,2.3671875
0.08370464875921507,0.023078280430267863,-1.9098015999996922,4.340915241401776,0.07325476610889084,-0.2114860584939128,-0.7744801464297695,-0.08013891646033396,-1.3009590708534406,-1.995686993750607,1.3040038844039943,0.5101885273540179,-0.06905026314618445,-0.0029065110906704578,2.375
0.018382445388278747,0.5896560914307518,-0.9875726004660065,3.199985680747787,-0.02443730776304475,-0.5151630107920568,-1.0742188933353376,-0.015866096480995847,-1.0470447674051602,-2.037585192045265,1.4308566096359423,0.4350821298962185,-0.09130715391230539,0.11661152222961675,2.3828125
0.018603568192241297,-0.09831424092426497,0.774566187458525,-0.18403603923581086,-0.029412117329163198,-0.0629705800122279,-0.32776575991881,0.05667842327779192,0.3972188968918336,-0.9638277454372192,0.20564532896375115,0.10314239529969868,-0.04443067618403142,0.16233632701361878,2.390625
0.044237101764981204,-0.11825496844130466,-0.28128847102419424,-0.7062491274132259,0.18516174923716316,0.20125386123759723,-0.25410431608965967,-0.018272671917139827,1.0576899170467515,1.5667978743775912,-1.4038561149137805,-0.2789093321383917,0.13938101491851695,-0.12693870896276813,2.3984375
-0.046433115939644796,1.1801132217091632,-2.386757968952954,1.01497976848737,0.23791158679193794,-0.28787271670328396,-0.6896028530496906,-0.1184668998811893,0.23278032704875193,2.710133137989746,-1.3994689683114596,-0.3335214066173182,0.22255000208690653,-0.33877686751594754,2.40625
-0.1033922652061762,1.0210291526738056,-1.2230263707777251,0.39803221586841886,0.014073405428850851,-0.3426298858170727,-0.07883192784153448,-0.05664330042681936,-0.20412153121680193,1.003670987122305,-0.2806047507095008,-0.10142557522056153,0.07043682721007227,-0.12188690821964143,2.4140625
0.016993912794481838,-1.0545751263700358,2.220415079262689,-2.386242750918628,-0.15821081078820906,0.4246673619034055,0.9587240370702531,0.09413820770789766,0.3630495785728879,-0.8273415525402973,0.2702667867077126,0.0037375665819866385,-0.10874010406259202,0.1829343288103969,2.421875
0.11032671685906358,-1.2639646939781064,3.2682465913507244,-2.7700186426937288,-0.15077079930841736,0.3902261751290473,0.11119090896493684,0.14190315115469818,-0.12146017219898275,-0.1859996941933995,0.6106189002857821,-0.1651844901367129,-0.11885943714214044,0.14514727521988058,2.4296875
0.03850358142169485,1.0773267540936229,1.4960605713399107,-0.3731354623281692,-0.11380564881243747,-0.7603029088091395,-2.0942428074998185,0.08295900134385677,-1.8363650982175774,1.612048032393371,1.349773057466549,-0.3575303531770289,-0.03282085233396179,-0.09166157912577083,2.4375
-0.0381599387804822,1.7816868971752764,0.3105258746619639,0.3102155959557625,-0.09063135692447945,-0.9842912691514875,-2.048797844261546,0.03042282124383253,-1.8889678206074296,1.9798304314861987,1.1316412857879647,-0.3512992195845802,0.014911896975374442,-0.16162832973395758,2.4453125
-0.08580535644216268,0.03113792867796465,0.2869357089186993,-1.6594071720680648,-0.06829894521434256,0.13969947429837726,0.9491615436146077,-0.00019378445008953743,0.3619680324429182,0.661111965537802,-0.47153713134664693,-0.14135950666622024,0.01655235385117717,-0.020160356225674397,2.453125
-0.19989890881006714,-0.3392909367433337,-0.503930037666421,-2.161199404208769,-0.07459471131919222,0.5287559658491738,2.7388185070325166,-0.03659298058960533,1.9295393101919798,-0.7346540605445567,-1.422186101761534,0.12460166036201932,0.02060814728020061,0.1324538491030963,2.4609375
-0.19742484090203224,0.7532025336135361,-1.5448296297643227,0.06571303499323251,-0.011449969601813256,-0.10528454420591962,1.1871718356536944,-0.05364775027431537,1.386968048314718,-0.9555477416218351,-0.9156422690360031,0.22410868950744,0.04341549217936488,0.1251818157818471,2.46875
0.07551522646078974,-0.427906078543948,-1.2625700182164679,1.678858866403947,0.17480857602059854,0.234613606551077,-0.08308227715166663,-0.06212292277027147,0.4021439733588221,-0.38327354167506567,-0.4905435376710564,0.1502046838463581,0.053093657371912954,-0.05621791923129361,2.4765625
0.285744045111858,-2.871808772190384,-0.8321437302245746,1.685381754166481,0.266648039645047,1.3725700807302041,1.234632584223461,-0.1036775395569559,0.06401263187638154,-0.5761087779846467,-0.5491530914960815,0.21351521949093064,0.010754218036274988,-0.19484363628958198,2.484375
0.1485263793901712,-2.025812152684117,-1.5372115440148286,2.2703137354880045,0.17286086279140644,1.0016527185782684,1.5085181363929736,-0.11228353349580537,0.2628631215660762,-1.7864161807288843,-0.27702880842119826,0.4516973036978851,-0.025420525647094662,-0.04958701107189934,2.4921875
-0.04444924916070843,1.2718773430245165,-1.658361368626269,2.794327712341846,0.148045994717197,-0.6781763764162162,-1.5237769196132538,-0.0066549624448611145,1.226909709128303,-1.8769529791949662,-0.3077855677206376,0.3764987434402143,0.05073724413353491,0.22672761201041366,2.5
-0.007727983202766987,2.146619344237829,-0.05869384498861849,0.9805760150403843,0.21016079770545978,-1.1677050305044754,-3.5017447809376714,0.10162665950593837,1.8338105098252424,0.13131251010980807,-0.9165733154246699,-0.12195964644936241,0.14846560714225907,0.22254740590409627,2.5078125
0.05276219507733048,0.1195715377741855,1.2176490784945089,-1.2749772888561484,0.002940611150879308,-0.11760839970151495,-0.8697320169176941,0.055408422009971835,-0.25918605979967235,1.4970476377252817,-0.035601563342939145,-0.3402150197568947,0.03073164652199099,-0.07583717856598016,2.515625
-0.030573180724810512,-1.3576165827292321,1.0167843142261914,-1.018469552791971,-0.4202986585967981,0.6020282416507406,2.7308269021707767,-0.05359240320601785,-3.678536289859527,0.05084646055860161,2.574050639511507,0.06034700435353753,-0.25382113741888396,-0.22346879554753796,2.5234375
-0.053104409110134504,-1.1261075801723792,1.1411610758519668,-0.13787800682650667,-0.4940052325593239,0.35601899876679693,2.448958981763908,-0.02064984122252059,-3.7135903665751204,-1.676309524996445,3.2865401453625935,0.34551538002944376,-0.33544373373008973,-0.028649679638683187,2.53125
0.08294398992769102,-0.3908093963653737,2.140618558639105,-1.0702792635261242,-0.09333457974988082,-0.05212945041891816,-0.770651718795591,0.11436261157396764,-0.23749140104213368,-0.4927894636868038,0.7512983341257098,-0.05183521568538046,-0.08868858590645722,0.1517179971712476,2.5390625
0.14895417030322775,0.5155304829189732,1.849703296799084,-1.590937599297624,0.2219185688496382,-0.3774187645145424,-2.8604526690361163,0.1327256638569396,1.368563440823746,2.2190035291431,-1.2240129669690767,-0.5700954727369182,0.15828126454618244,0.00502914956651818,2.546875
-0.018750247029861535,1.7394939688726856,-0.2909440334072653,-0.1517430977816093,0.10190615685161776,-0.7950843031192681,-2.14811742567236,0.003957160784833795,-0.5258876709907518,3.1207623832303146,-0.4050825566996187,-0.5442752926900348,0.1564620354160149,-0.24522735389111402,2.5546875
-0.29173425851866497,2.6385347975926026,-1.905524682965251,0.22263973209448285,-0.14418017601334662,-1.0103829681455516,-0.08136321169300618,-0.08398333955932977,-1.183946959728107,1.9350319976878667,0.24695480784420845,-0.21761111033090907,0.07325928600073434,-0.20041128012149043,2.5625
-0.3936988527814301,2.410373886714034,-1.5436500784276124,-1.547401568635119,-0.12049955304897918,-0.7333359928812478,1.0116422084542473,-0.03558947817935491,1.5780007222990904,0.5208672860207245,-1.2901811839152222,-0.06721555048563674,0.10595423643150348,0.10566677891877198,2.5703125
-0.1612191458126019,0.6958743501542352,-0.24995425864284834,-1.8833039825414994,0.11371868558610283,-0.05643927215537208,0.43441378250259105,0.041600705150013476,3.546570185698097,-0.5080699533077798,-2.3808508057946813,-0.004642388751462238,0.13788035882813565,0.28024789007641115,2.578125
0.20363608151963683,-1.8117091849213405,0.6539133628830857,0.22169039475465646,0.2140354934732806,0.7687949212267478,0.014059929690746247,0.03649975214988744,1.7338375851764165,-1.4480031250635574,-0.9387446260394146,0.1908219660427907,0.01267450157683787,0.15565079971442478,2.5859375
0.3054619088068798,-3.1216890983960046,0.6152513860908801,1.443805421133218,0.0775355875314345,1.265768390394861,1.134836103151052,-0.031376487576449376,-0.9166732260986622,-1.8158866180572217,0.8722700372844006,0.3598203492366466,-0.1392999638399708,-0.04463349451290623,2.59375
0.1410637433285464,-2.2810911165537955,-0.3070017534878487,1.0242172402907577,-0.005642422508717082,1.0595819237012525,1.9672173690751498,-0.07965283875736412,-0.955800226160687,-1.3355649310130697,0.6541503687531405,0.3291216983910112,-0.11377152686355696,-0.09419849723543282,2.6015625
0.0812598080139886,-1.008040081207606,-0.8175994206964906,1.2274894479122198,0.1331538831435359,0.4989409102540069,0.5752753774885422,-0.0458494291264954,0.7070363169735785,-1.1991398159526627,-0.45695095214488934,0.26520713745897906,0.0059693462933798885,0.03396897291957039,2.609375
0.16120346090124563,-0.6269312644318985,0.3436363698676475,1.5774173581641049,0.18783353969710645,0.06578840201214108,-1.3583379571974095,0.0646656248126588,1.440861339149438,-2.1417906693734405,-0.2885590375971753,0.31294904035462456,-0.005870105338202868,0.2669084930274267,2.6171875
0.06339501743049034,0.07265459414933051,1.532243654262537,0.3692175603906842,-0.039591478260360836,-0.34898545536562764,-1.4223147126018614,0.12890986007619096,0.6082780682004233,-2.1756378010322064,0.704657711151275,0.2470183525401423,-0.09537329941046854,0.3548819081613383,2.625
-0.15892815110262662,1.4595010274204967,-0.1174891080245141,-0.5360600623070859,-0.16252735948650857,-0.6443393144363758,-0.22444093511307406,0.0017918643422337353,-0.9208646020372687,0.9278200506907929,0.5837525349572156,-0.15366422507995967,-0.007938280705986256,-0.04809702004010511,2.6328125
-0.1543666267944841,1.5325339381552716,-3.4190571921997694,0.7840674169870921,0.061957997021497846,-0.2631741946918796,0.7190766992311787,-0.2387631932827306,-2.3766879059025925,4.942979814992103,-0.47207104008884954,-0.5768510809391619,0.20324976357062874,-0.7450134189693247,2.640625
-0.002641419830146356,0.0811896316840707,-3.7152777243099453,1.7283010798170138,0.15382224821470025,0.3943099754365907,1.3194185196123085,-0.29353126754463804,-2.96327713807305,4.812163578241828,-0.3246369941854458,-0.48837213871612006,0.1826267674452168,-0.8852946425947626,2.6484375
-0.04424333203862297,-0.31433274218274737,0.19693127382410022,-0.3123682232144051,-0.20986649255905424,0.15056511542616202,1.2178952846945803,-0.0377407620045623,-1.925024812800638,0.22763230766245218,1.2818938433762197,0.011992260911635997,-0.11089144843961815,-0.1326310051675126,2.65625
-0.18489359662295593,0.9355169446991648,3.9562784576312895,-3.0678378703244467,-0.5081064482755028,-0.792974514071765,-0.269265488142787,0.2546566749841689,0.08804005103071393,-2.971485640965843,1.9776092430798153,0.22067243358485825,-0.2768328429709511,0.6365805081593461,2.6640625
-0.1278535390866999,1.5163357123111132,3.8005815331590393,-3.231994751228586,-0.2906618790739335,-1.0279389873720655,-1.814847339446496,0.27245907361301214,1.1623689619466422,-1.3284554257285175,0.7242716155983009,-0.09904488738199257,-0.11765790123919209,0.5565190088347695,2.671875
0.03961627696373582,0.6721820507538225,1.073245837602307,-1.146628692739799,0.09575658295464873,-0.3790032378703859,-1.7108680272933414,0.08403890648994133,0.8423732074118782,1.3591666945834417,-0.706270666965123,-0.3505290957585985,0.0941925974419799,0.025519082907254215,2.6796875
0.10754338181897788,-0.16257966776801386,-0.8242789834046235,0.9350497970633822,0.26265375590634105,0.11890590919287823,-0.9255427891733687,-0.02965779653974189,0.966986932749613,0.7558534053518634,-1.146595727460293,-0.10083802073669665,0.13207494384990381,-0.09297558480497091,2.6875
0.13675075494218059,-0.6991110442649239,-0.8226679280745766,1.739612505929382,0.3059283806767271,0.29319270973323486,-0.7647686281660637,-0.0005951261885992264,2.1983774515864,-1.6203403308765663,-1.3074569079830747,0.28537364383203984,0.08424298928892383,0.17417905690420452,2.6953125
0.1699541214985345,-1.4838377710763295,-0.06009609678463233,1.071383512192217,0.25472376146027736,0.6313323003644177,-0.10916894279661128,0.02332106626618781,2.2799647626719004,-2.2489907123085366,-1.144800072869168,0.3561601074662476,0.026445964505893038,0.23994151108023312,2.703125
0.08994839725414282,-1.750253547965319,0.43807239431861145,-0.28348482986487683,-0.006236865706332245,0.8304026464915257,1.5071453276384619,-0.014521787007908784,0.1640117412327045,-1.1669677327712378,0.0302393881676429,0.20551757305627094,-0.07492016263492483,0.037029599472914794,2.7109375
-0.02287613816322351,-1.0167752423763565,0.4438338982895786,-0.7879676887169541,-0.20187487732526485,0.5171160803146315,1.9363264148050943,-0.03550213379589342,-1.4185904457031853,-0.270721533503267,0.9906659314234089,0.08287711442162207,-0.12683694940730236,-0.08518028329466373,2.71875
0.005406531997588544,-0.3540212670462575,-0.2328096396303657,0.08276596117523297,-0.026300387284670466,0.20502937135100832,0.6135927503333707,-0.03546273302475817,-0.5579404608398608,0.1859903321082655,0.2156961559145611,0.009178804216204938,-0.019168517118540767,-0.08780712123728879,2.7265625
-0.01284835752425166,0.2509139817002091,-1.8628210651377473,1.1575598309045523,0.17707562276870453,0.06557994017727477,0.09537144325678562,-0.09458785616813206,0.4930139179477881,0.7811798831952143,-0.9847036535723672,-0.023804628515202417,0.12088867755547539,-0.1595508634105165,2.734375
-0.2902422760709666,2.0371975767159487,-3.5995929535654922,1.299287973496901,0.0013982627739301955,-0.5407602971266082,1.009938071464918,-0.17931919006563754,-0.3190631987384133,1.4245800048355748,-0.6997882459030267,-0.021697429255241436,0.1339815895199667,-0.2558521258280992,2.7421875
-0.4449919061159092,3.507008433343631,-3.1160476711658642,0.5605133199699419,-0.22062094232061819,-1.2739855496846466,0.596441586998166,-0.14152263200471352,-1.4089403504533744,1.949119265740191,0.28405377684570093,-0.1437895184050989,0.08178325415555766,-0.23215271546387997,2.75
-0.03764524954280352,1.5453160183241337,0.5554011316429388,-0.34780905400782247,-0.062397695879622586,-0.8299352826164997,-1.8071088987607007,0.043509889282878494,-1.1985185102960434,1.974660801991977,0.6277673704800518,-0.38058674852750585,0.036111752008350706,-0.12225098794775222,2.7578125
0.49599281077176754,-2.2710707144974,4.2840588039374055,-0.7478321399870225,0.15128696723617974,0.46638849375370633,-2.947671128133083,0.20127090000598216,-0.7035730519735087,0.503193635223948,0.9415298082254633,-0.3316084929584705,-0.07386502304359636,0.029740543866741447,2.765625
0.38258555438602726,-2.780244804925484,4.07788067761724,-0.6577828133203544,-0.036378876012150806,0.7432505502979646,-1.0042413884520267,0.18629755067069323,-0.5610931401844045,-2.093082854839137,1.558086844498066,0.14408496293862727,-0.21537573247193428,0.25444534648904393,2.7734375
-0.19458573425979991,0.14367251516642907,0.8380813823626002,-0.8177771092136179,-0.3400851014267275,-0.12242744268612589,1.6267566893351617,0.06022022997613403,0.14046333917132986,-3.1949944085379443,1.1693562976641827,0.49461003035447115,-0.20620371488573744,0.40115339196246735,2.78125
-0.3334740566983162,1.0614539985874185,-1.0865203902502958,-1.0904790165142533,-0.21130586900064033,-0.20039463039465846,2.200940733016936,-0.03356030717504412,1.224004240248507,-1.5647562000611608,-0.46936292198743207,0.30048425959798997,-0.03378396181623321,0.234627982626737,2.7890625
0.12921893713211338,-1.590751933221688,-0.5901193842742861,-0.17249904992230458,0.2462157196870452,0.92662098075374,0.9665614242947551,-0.058344559620380314,1.4316147292350327,0.3470875108488196,-1.609166255045162,-0.02623453533380529,0.10188473944172176,-0.10462623018938644,2.796875
0.4091689855787367,-2.9473725515747082,-0.175066368856861,1.4416958742362282,0.43331039936727156,1.3308459553111538,-0.20885396531200287,-0.0552099373581159,0.7337674849401724,0.4061431073151927,-1.2198428050097108,-0.025356500330750514,0.09690733296915585,-0.22202452726388766,2.8046875
0.09343420481307965,-0.4042791685004629,-0.6008967898838148,1.0728382502908087,0.1295936099307917,0.17830236615750075,-0.3319353332702731,-0.03816431958163821,-0.11622316741217782,0.26596732447936694,-0.18980987070094646,0.005090547765508179,0.03994857338249891,-0.10378574493950328,2.8125
-0.2861966886300057,2.3385002827418884,-0.6626578883188766,-1.1309087314564772,-0.20856808200302424,-0.9132771827616207,0.05330697588597737,-0.02127872798987837,-0.8063336259911064,1.7182725170969824,0.24808031320433266,-0.2705301477463099,0.03729566324118887,-0.09465978596350665,2.8203125
-0.21904453407904598,2.079700857163039,-0.7467804026212859,-1.2132109196859604,-0.10712657088019872,-0.758565536268232,-0.22811234933154154,-0.03800275453270623,-0.78655933728288,2.7903223251498495,-0.19856311396987508,-0.4465974510072642,0.09913008671739267,-0.22586893015201998,2.828125
0.05276692763222689,0.6283722539663777,-1.3495930929937214,1.5270420859605724,0.21716997278465133,-0.25738608902778176,-1.3054148685320142,-0.051525615846611424,0.18792208735092694,1.2107762700161804,-0.691189145527345,-0.1372693456627351,0.1339548908886887,-0.16308563849339788,2.8359375
0.08191655812359,0.44781192255959773,-0.7879884343262931,2.442695943267653,0.18254716026242712,-0.3763545564925893,-1.7555530658726402,0.014503884276393176,0.7719750144708599,-1.3264652552213307,-0.119938339422955,0.2473792993882491,0.03749672082460088,0.14583267306737,2.84375
-0.09553593302570083,0.9081074728257402,1.1924660504020157,-0.11755071079093142,-0.2025053581308251,-0.6493222525000625,-0.7221881557582139,0.11046439208884466,0.0954863553197616,-2.118724109108296,1.1103605556928047,0.26255909325519494,-0.12895266967675545,0.3596283793774376,2.8515625
-0.1476178653731609,0.559115486360386,1.8677659131276296,-1.7031783365050857,-0.33765003341026806,-0.40602081541664536,0.42207504110567196,0.11208806981582746,-0.37267064556367957,-1.579261597197985,1.3010172496490837,0.14717198738273407,-0.17179904717012004,0.30655199291028945,2.859375
0.00800481972144942,-0.4685955085823641,0.7706490620485961,-0.42921643770779416,-0.06923284127693886,0.14742299917934829,0.36739604989986774,0.04047799232819528,0.22051189808352525,-1.0994625494539683,0.2917437675507126,0.1419625144109927,-0.07021051828036882,0.14376723142516853,2.8671875
0.11923526416015424,-1.2274038128450584,0.467510892888981,-0.15487680016077907,0.07758498316903999,0.5479331020125535,0.375925413819649,0.003309770810007933,0.3174331237224115,-0.2771324590549956,-0.2629408710311386,0.03176394042359612,-0.008932946367992259,-0.008170336277441181,2.875
-0.003374371409142512,-1.0630976203854785,0.5787696252073586,-1.8227469748112517,-0.08700631999041011,0.6469808478173835,1.7632209271261197,-0.029039871291059456,-0.45986631763992086,0.9340362977359933,-0.11611829241030616,-0.1613588784603374,-0.02627749517458066,-0.14787030698180947,2.8828125
-0.17867862548634084,-0.1170507015074168,-1.3477362169958673,-1.2967380992697382,-0.09957105786738377,0.45254117474126493,2.687172150925698,-0.12233896741903552,-0.2558895383453276,1.186636267367217,-0.625190734161515,-0.09207805676292002,0.03311450488884738,-0.2219457902655839,2.890625
-0.10476590247299633,0.46463097518611607,-3.141301632921816,1.5511679109582255,0.17617694928792274,0.13802276290999793,1.049794160844054,-0.16561335639157787,0.635994059979756,0.7152938985013689,-1.3294899721114501,0.0707151287724373,0.14704773106811395,-0.21255350712136603,2.8984375
0.15364364236624597,-0.149634394906018,-1.0028411023110326,1.9027048392121162,0.24154062893065667,0.02235253470436258,-1.311841734244112,-0.050384000829467715,-0.238987829717989,0.9722056044410767,-0.3553652516899397,-0.09439037549639515,0.0992059335744683,-0.19395994061478905,2.90625
0.25531356930984617,-1.0389683459433354,2.4390502577583737,-0.2874613723367211,-0.03455170874785817,0.11693648463207185,-1.5330243181094771,0.09174013208557887,-1.94589947577182,0.8980434868735834,1.4966422909152195,-0.2553248328300081,-0.09336386645287789,-0.11068522868074714,2.9140625
0.15238381955325286,-0.9556673931861294,2.1696501095076863,-0.24600770874398487,-0.1031196872560777,0.12029904724203919,-0.6837843031016541,0.10247585832675317,-0.9151313584923745,-1.0702451344775485,1.363769810632991,0.07628883255429869,-0.14429497235914582,0.13370013819927468,2.921875
0.10822806761559899,-0.338630951395611,-0.21061982048040015,1.7015600678989873,0.2116398387604488,0.008749064748913548,-1.1614626102719827,0.04858184057640689,2.0153986658378185,-2.3909089016755347,-0.6979331926070186,0.37330159617034897,0.02307112175695095,0.30725241684895904,2.9296875
0.12772995950017174,-0.05452411658937155,-0.2601626181454422,0.9156056117720535,0.31315649527943196,-0.025722440249752232,-1.669939772571813,0.03774376907479192,2.1959616237317614,-0.3711345322816836,-1.4919423475188769,0.015716831758204153,0.13400266966515786,0.13033817084102384,2.9375
-0.04991427979049687,0.38777752567172163,0.8583920206942298,-1.8171954680344489,-0.09617414679970819,-0.12423419444713331,0.051121917223203014,0.022907631777017552,-0.5956454304286383,1.7698399757365686,0.0524408446375463,-0.3542905897302279,0.017131171739717108,-0.12300446960121313,2.9453125
-0.3402561698307412,1.3370867678971055,-0.2721654690337775,-1.675869702037086,-0.4279691087757214,-0.42333269751676184,2.1682633517843772,-0.03992019229142795,-1.596106853886104,0.1975505150925206,1.2028711992513215,0.014112675920442186,-0.11881817149966466,-0.022306328978258565,2.953125
-0.3324972416308284,1.552768974383022,-2.1849656932022956,0.8904369928753529,-0.18718071792752494,-0.4975340035553498,1.6389476517045658,-0.07693532014713929,0.48812459101591105,-2.016278734864173,0.11324417206669876,0.46394441612319753,-0.04384360923214531,0.1965425734151378,2.9609375
0.0012704885525449449,0.3181377365944763,-1.5037535557007324,1.4402162832277863,0.20968488905228166,-0.062198744912555344,-0.4713990415934555,-0.04138115745841722,1.470506982986376,-0.5300080002878222,-1.1343454330160716,0.1471970269807394,0.1061913478444177,0.0524575379698431,2.96875
0.22065329008473486,-0.8264879120326399,0.9083924043174098,-0.2693729375466894,0.16881617147982075,0.2830416590228245,-1.227113091991419,0.016350540980651685,-0.6131321928415406,2.1295261395397787,-0.21332700837079555,-0.40196336049340936,0.07188949036197341,-0.24800257285503638,2.9765625
0.10942348726194952,-0.3943356616465951,1.6729640986865606,-0.950307118749558,-0.12700442822882654,0.006629068300994099,-0.5666992930924363,0.037181972826929505,-2.322163992519197,1.825919498820933,1.3628927694620894,-0.35967395674744634,-0.06978039356526365,-0.2264096846974857,2.984375
-0.07784995770608624,0.6561763822038323,0.07348201348260262,-0.08245639752579562,-0.14324813376073284,-0.3356152409191634,0.010640070052503395,-0.001448798686899968,-1.1099569912836904,0.29124951724992515,0.8430100351460237,-0.03543428078394746,-0.04946055539222297,-0.03837198068296373,2.9921875
-0.10185284257433305,0.6460376429439483,-1.3511959205506268,0.17778406039616373,0.07489761922099164,-0.10067316025575339,0.3649241520027837,-0.05620576736233755,0.8663431580358076,0.3939349581770981,-0.9592297252282029,-0.009015309017740517,0.09255136021891543,-0.03609219306591925,3.0
-0.023585857993316788,-0.15600500606234355,-0.36192747837089745,-0.7868427104045221,0.10051946762730632,0.2445877601589047,0.4975176662080812,-0.01819861168685363,1.2632275537999922,0.47189242346714894,-1.2173861143575668,-0.08679325849677261,0.08569292654944662,-0.011108759929356083,3.0078125
0.02538225850984462,-0.3881287693898801,1.7960011761077737,-1.4860887211258083,-0.048697311017110105,0.06375829907702979,-0.22782661392886838,0.11247925148075455,1.122901376838386,-1.1014405730662586,-0.12360939939504857,0.04151331106598698,-0.05160145417275713,0.26579413833055643,3.015625
0.014936045986609161,-0.007277696593505632,1.6982721023840375,-0.6488109033623634,-0.02868222001432266,-0.2085246361950987,-0.8804711494301717,0.14476974227924327,1.7454068327425147,-2.404593051310879,-0.05195941653418392,0.24648759566979395,-0.06813125179949805,0.44811334669895947,3.0234375
-0.0534641192309621,0.02198375694530471,-1.0393365991760157,1.1538290298735678,0.07853359888618597,0.03836045959301566,0.3805789650134639,-0.012294653031711693,1.6963363606982764,-2.277654544480337,-0.667018294882673,0.419208361257974,0.004986322170330921,0.25382308794058206,3.03125
-0.13623952945472667,-0.2991131097722813,-2.6103085671542665,1.9414982387219275,-0.07747965805796227,0.3665496542949155,2.47203660135199,-0.16197541873211332,-0.6790834781675205,-1.5312226270833165,0.36474917318901084,0.47924464009991014,-0.06014974264212576,-0.07263498047089766,3.0390625
-0.08589527509359562,-0.3175074315201205,-0.9939737127195385,0.9960876648555839,-0.3148558579388326,0.19276888507583625,2.1325361010020476,-0.1342253818747051,-3.821298211620055,0.36253230610823656,2.35220709411265,0.12769887132588936,-0.1729402686012122,-0.3275493317715116,3.046875
0.17482232280519458,-0.44473084518085787,1.107537073743835,0.13888585974231585,-0.12136340892822077,-0.0062931128776255365,-0.8509744796020303,-0.024099038122804648,-4.131743529962815,3.0632839457644114,2.1414975762833204,-0.48431204365179437,-0.0722302137245996,-0.4927065394705656,3.0546875
0.4359309322574507,-1.3968948365887712,1.5393391034058852,0.44739765640958484,0.37187103243361164,0.3739170941089718,-2.935296254408799,0.054256117273031396,-0.5081781476702028,2.8006320003639438,-0.4361553148930953,-0.5607868019996038,0.1288524585529931,-0.31391760306276273,3.0625
0.3998671574354644,-2.2203220783208737,1.5292720703841398,0.21239053900553917,0.4969901963559003,0.8300009411479659,-1.969056977658405,0.11526363319286029,3.4173444895628617,-1.0240649719929704,-2.1496970710536036,0.009528145860203188,0.12882918830874443,0.22864259582022395,3.0703125
0.10188805221345854,-1.374695442504715,1.3654273930781795,-1.1520699740535014,0.15674897906016133,0.599790848849767,0.1648331050773122,0.10682134294576216,3.2440781145460367,-2.3656954230980376,-1.5099408587243508,0.25013078716319664,0.009181717813034852,0.4104861807953069,3.078125
-0.1552655316725132,0.7742350364428368,-0.47491199479319357,-1.3146462369357552,-0.08401518874519556,-0.1417334548031751,0.8419465516140509,-0.03817533078556693,-0.09609072434170918,1.394661365236945,-0.41828402181737934,-0.21583229225041217,0.04969399627537149,-0.11854075199801874,3.0859375
-0.28775607122432684,2.7039124679499884,-2.6284134849120853,-0.01020517417965821,-0.06403225959082814,-0.8886187348345268,0.1006842224767676,-0.14685151857092726,-1.5191512138214356,3.8328386042255027,-0.32350159413633495,-0.4868367404855799,0.16533216167278977,-0.4522176859439005,3.09375
-0.4385680803092814,3.7548589642785437,-1.8933352410451971,-0.17854100566276157,-0.19530587765322757,-1.5155020473857226,-0.38541124364108237,-0.028262427335624153,0.25683788938777985,0.6866533437647235,-0.16769826665890736,-0.06484244040412995,0.07870131537181993,0.082876517865198,3.1015625
-0.48385630812410335,3.3815897312968253,0.7031141418822375,-1.6547811591253108,-0.46015900399552395,-1.6050269076289772,-0.09900759047594314,0.14034101948365074,1.0779152530991631,-2.7110296257949362,0.8956281737440914,0.3279869535882971,-0.13241274822190938,0.6184452391968245,3.109375
-0.13978892340992133,0.7864451262806145,1.2298744179825933,-0.6666005396318926,-0.3101591954961711,-0.5315955936785653,0.13085154270546961,0.08386025784014924,-0.7534241048917616,-1.662538408829365,1.5305504884763201,0.21030086867776157,-0.16712123406201834,0.2647546464905829,3.1171875
0.34754156037079115,-2.5662304098118125,-0.554166149540136,2.488078921734888,0.226597325174623,1.0669244004437322,0.1997092023911629,-0.09725751736252315,-1.5369167508505233,0.14414158245753264,0.5216984593235467,0.10498359607263988,-0.023334156777612906,-0.31826741632603206,3.125
0.3897445457951545,-3.469366708147144,-1.6071511543296961,3.082696734722324,0.43080737999914914,1.6369899314208236,0.9915113209862074,-0.14199154597399397,0.4150601217826189,-0.9454192719293018,-0.9316454288396894,0.33072768202970443,0.04969923551978648,-0.2343386445342066,3.1328125
0.050050247815167655,-1.768426348014319,-0.7920012879558831,0.37760228677755897,0.11418473635231315,0.9789767786507112,1.9910479693254153,-0.058902365836680085,1.5371925751890443,-1.9249170566024645,-0.9874133894501468,0.3847717723576844,-0.010844505918507386,0.1057129244583949,3.140625
-0.0604435639632587,-0.325646812209357,0.8436762400156199,-1.6034693161781348,-0.14326749989011492,0.20833581431987097,1.0978691036037276,0.021299145387335263,-0.11455983615441076,-0.04383211646986929,0.17993512953182675,-0.03670672883367785,-0.057581648452204225,0.03688437298572846,3.1484375
0.08129494592298173,0.3319987817316976,2.2328522530240993,-1.5276206905623833,-0.11479447852237301,-0.37677286128076065,-1.5285827850775475,0.09806750231771783,-1.609958525017319,1.9678674031444805,1.0621041985564312,-0.46021721836562385,-0.03604544963530815,-0.11576226689146904,3.15625
-0.015026875695011564,1.527243053179987,1.968242218490032,-1.2467960721879392,-0.12281122750206168,-0.9570382238188957,-2.3685086092396213,0.1318837295354344,-0.876461173033422,1.4321051671447733,0.8909829434800007,-0.3950617100394185,-0.011061247906534394,0.04204255431603781,3.1640625
-0.19669238643096817,1.48219124169429,-0.39313093171439734,-0.5422842358736776,-0.10624448554302349,-0.60030516319161,-0.020985270141469597,0.014787227527577539,0.5264168501271215,-0.16703844147534597,-0.1564399596927958,0.014518126162426525,0.01590420667525583,0.12493026499507338,3.171875
0.0895208696052518,-1.6550536923524823,-1.8861233895341536,1.3250615198888542,0.23906653289615487,1.0017725345276352,1.6851377894775466,-0.12528990608773427,1.1922692446686192,-0.7685338615099343,-1.3412082262623213,0.266843211840173,0.07021313131989404,-0.09615203027764872,3.1796875
0.5061640272575695,-3.8340547115354267,0.09653455765067992,1.8188674337667594,0.5011382754348309,1.6796014753591946,-0.13111412066197883,-0.04437051010186559,1.1337640600460537,-0.4311885907171894,-1.3153135424977305,0.10655902688791277,0.07552061128808368,-0.16077559513365297,3.1875
0.2411464361305748,-0.70453500770969,2.542836121214107,-0.565116872327701,0.08335193465900692,-0.026160098347709722,-2.1950237295868495,0.14328735754592964,0.028877117813428516,0.18753825109032177,0.3966948445003776,-0.20352180043532905,-0.024939510472137667,0.09698336374052197,3.1953125
-0.4414935420334653,3.881672340412052,1.2086589624311517,-2.2858520263974174,-0.5367423347381162,-1.8766331958683515,-0.8944384123370108,0.1173660155386604,-1.5341713203810023,0.632374599300857,1.8550816532803343,-0.2239558912385173,-0.10960109746745851,0.20707371355876278,3.203125
-0.5580259970465198,3.732101253005623,-2.0323210415413357,-0.5731768888885426,-0.45085636517313854,-1.4398253696453263,1.2786330874794893,-0.07588991524824829,-1.4271805141724487,0.5067162128093881,1.047165989710886,0.029435701938941336,-0.04053377468209228,0.003197116028569084,3.2109375
-0.06779149726726164,0.3332542394614508,-2.620521350254961,1.6864201131482741,0.14098212474802593,0.0920274851121864,0.7381492094053118,-0.1384716788650578,0.25188837424744587,0.38590424249939337,-0.8327529692047788,0.1045718898436892,0.10342782164959712,-0.17619105372261173,3.21875
0.22643664229952995,-1.207965153654425,-0.9484171516692601,1.3406782965333497,0.35381448861189174,0.6106853152528551,-0.5991957523903726,-0.06654554951762498,0.659766272133855,1.0886497618694997,-1.2537946154256385,-0.1201617115277056,0.14127429270039385,-0.22507033817962957,3.2265625
0.08839481633502372,-0.7021680788070327,-0.27918230774493036,-0.0729060173909049,0.10163702366270436,0.4067470786331495,0.2684386202875701,-0.05066764956072558,-0.3941816756216834,1.3862792132540116,-0.3891794039424789,-0.19433680443945928,0.056564252627110685,-0.2275418705512916,3.234375
-0.05769106633464202,-0.42637194879427165,-0.5266429046829687,-0.22091281757141382,-0.03747921939780428,0.3321836278761201,1.3698725004414922,-0.04345868516427524,0.2628919839019173,-0.5558045282616295,-0.22816498836835017,0.13876955977979372,-0.019195581103589043,0.01001360866204198,3.2421875
