AF3,AF4,F3,F4,F7,F8,FC5,FC6,O1,O2,P7,P8,T7,T8,time
0.0013945244850010773,0.03031080434436311,0.0400180168539711,-0.15662683602644675,-0.01292499544065654,-0.0056273627945066275,-0.015823465076012948,0.029653340715567755,-0.1219771310176967,0.01499479838532456,0.22134355961540925,-0.0009490099360859235,-0.018517562768400962,-0.0034326492984735686,0.0
0.006178362882278519,0.11425707024939137,0.15068283411463745,-0.5895075943722081,-0.0482985773686995,-0.021295145213903594,-0.059651609631051414,0.11242664264632575,-0.45950564671396477,0.05456388051598342,0.8274279333363116,-0.0036323221505059513,-0.0683929672639696,-0.01328553906077436,0.0078125
0.007779942607708227,0.14217695380412962,0.18787021487114886,-0.7342025401637021,-0.0602303300943749,-0.026556525366898738,-0.07436314982658575,0.14013799385571754,-0.5722073626624079,0.06779195613535978,1.0286969272131878,-0.004532023647379721,-0.08510187789754883,-0.01658227895561383,0.015625
0.00700653573764404,0.12856845106498674,0.17019200474132817,-0.6645776218822261,-0.05459128837291081,-0.024047017252273248,-0.06734935203565594,0.12681049625422652,-0.5176496009947815,0.061389930847017896,0.9297201958425831,-0.004102931121228473,-0.0770749538301654,-0.015012178989277253,0.0234375
0.0028616117794583898,0.05587000931916973,0.07420168668124005,-0.2895728449486619,-0.023951114734788743,-0.010481614027303746,-0.029350973050166262,0.05501682413158898,-0.22525508348395465,0.027113373036988117,0.40464193784817853,-0.0017786347113539957,-0.0339488772097199,-0.006472943158780318,0.03125
0.0002508728814060533,0.01001018399604766,0.013678955605597096,-0.05292498701595376,-0.0045829021865954915,-0.0019388653663366844,-0.005354474929140118,0.009728201836486212,-0.04126162283106729,0.0055273165367053165,0.07410922797598195,-0.000310678432876439,-0.00677990434766833,-0.001077432038328643,0.0390625
0.0016390325984361356,0.034345984885874814,0.0459785791089371,-0.17854488648321912,-0.014766597581620489,-0.006487650971087282,-0.01805126885237058,0.03378893509153223,-0.13969839495209044,0.01699983243150377,0.24995668424212283,-0.0010892572777828986,-0.021204055491346404,-0.003948395988141076,0.046875
-0.003791423552498913,-0.060933527684465826,-0.07994766743151936,0.31328373235554047,0.025422720400303658,0.0113443330349449,0.031808922758000194,-0.060261038170476455,0.24371076428462785,-0.0279658393353366,-0.4383289924986886,0.001958894926302575,0.03542281435154345,0.007263359793127661,0.0546875
-0.016119288325482168,-0.2772552994446143,-0.36616434275779786,1.4301574981417244,0.11655681283628706,0.05178711639246197,0.14496456116354817,-0.2739108374329678,1.1147833798286415,-0.12997292678263225,-1.9999440138937057,0.008883165781504438,0.16385971443600097,0.03275255084643146,0.0625
-0.011627270539880432,-0.1982062176962096,-0.26226961656782516,1.022982797504894,0.0832802178927006,0.037052766103719756,0.10369401491077383,-0.19609143091374348,0.7980786932234101,-0.09275018152168271,-1.4290554517899903,0.0063613879635731245,0.11703951721832355,0.02349197987892634,0.0703125
0.01227131125527784,0.22155079848388984,0.2921911561090425,-1.1430488027048753,-0.09351193374644794,-0.04132019298086865,-0.11575239229519058,0.21815033331155828,-0.8897395721228522,0.10505348182798999,1.6004468157887253,-0.007064976967278524,-0.13194485058186237,-0.025909518064227893,0.078125
0.017738281476217057,0.31736444481825404,0.41935291824255283,-1.6385181790750163,-0.13396190026966584,-0.05924373427291888,-0.16594812172161327,0.3129511864985313,-1.2763161248391854,0.15027021936902368,2.291525500404398,-0.010137766613627253,-0.18888559689713286,-0.03723300358065201,0.0859375
-0.007249086268003396,-0.12183202905445283,-0.16023038355214078,0.6269059971086849,0.05088987368511279,0.022686932714711342,0.06353049450224484,-0.12021380389475698,0.4881278041220955,-0.05657621719562459,-0.8777469388031027,0.0039044289064630202,0.07148602128704201,0.014427188047728925,0.09375
-0.018660922713895686,-0.32236840508116865,-0.42524798741412295,1.662249893381382,0.13538472229479692,0.06009098497282081,0.16838858814989305,-0.318132392863967,1.2943675736780764,-0.15107065578818124,-2.323798834526533,0.010322285775799633,0.19045932698184373,0.03805501431915534,0.1015625
0.0035792832024202996,0.06849336306018033,0.09050358658788625,-0.3534811479071211,-0.029068218498726015,-0.012829356704390824,-0.035791834123290546,0.06735830670016583,-0.275865604262579,0.03296029164675217,0.4971461536718225,-0.002174065723646679,-0.04120868586119817,-0.007912141967659056,0.109375
0.01650169782098987,0.2956616993001913,0.3904349538392418,-1.5257974726278092,-0.12470038951811785,-0.05515928611063011,-0.1544856248640633,0.29145500413323566,-1.1883504667059208,0.1399141531316726,2.1351156630172654,-0.009442139986687094,-0.17590697428540414,-0.03466261102047146,0.1171875
-0.001965102625222132,-0.028792528575335468,-0.03775020756260518,0.14724709035811803,0.011827321704956152,0.005426966703759012,0.015023572761689644,-0.02856210369580373,0.11569273075720148,-0.012884050726263231,-0.20756193801000752,0.0009297845544600305,0.01640505412977279,0.0034847405312737247,0.125
-0.013819881547634775,-0.23712912067414957,-0.31271502903486526,1.2220036921962736,0.09952478818611227,0.04427238082914468,0.12383808000346241,-0.23403998246783225,0.9526067438464726,-0.11095995724655239,-1.7104552329446432,0.007593442950699786,0.13992061238956327,0.02800024051313488,0.1328125
-0.002432926498042352,-0.037009768195248476,-0.04858014629624952,0.1902721858182479,0.015352075768334566,0.006876919974507573,0.019256061694781862,-0.03666343177849665,0.1478428277985159,-0.016688679179067203,-0.264781488368379,0.001198069011947693,0.02131111662372034,0.004471035191743971,0.140625
-0.0006156501184887552,-0.00500951430727908,-0.006446992815382179,0.025533620877239153,0.00193490278983296,0.0009049043005404853,0.0025930752987244963,-0.005194588031709739,0.019013692476499477,-0.0016259931530274426,-0.03318492606152082,0.00017746242647735381,0.0023289395474187314,0.000710075511791922,0.1484375
-0.012115660282969313,-0.2071667923751288,-0.2733445608765905,1.0681724581643302,0.08698388766305655,0.03864855379872296,0.10829057936798872,-0.20465058929028887,0.8317219905266173,-0.09682046605398498,-1.4925429132907475,0.006641478391534266,0.12211443435415573,0.02449947788819077,0.15625
-0.00259707775086445,-0.040082739155679975,-0.052672263074958266,0.2060561517195869,0.01653481295417814,0.007440729385976142,0.020973689066997474,-0.03977529282170064,0.1608898255342108,-0.01809654896190103,-0.2875234848070645,0.0012950958799183099,0.023029874795578567,0.004864377690203866,0.1640625
0.020489554724985093,0.3656273615023809,0.48296168236045467,-1.8866586800474496,-0.1542917986332843,-0.0683132850949595,-0.19107305892424545,0.36043504395771087,-1.4690771399365643,0.17296665821643306,2.6398682375892624,-0.01168134606582487,-0.21743421072588295,-0.04284787444580144,0.171875
0.016441153257082394,0.2947548546542585,0.3892924520105171,-1.5209350664142685,-0.12438322430306097,-0.055062562804802165,-0.15405706671249358,0.2904171419383999,-1.1843178115376558,0.13954130167241174,2.128163731073084,-0.009413598112404194,-0.17534081896047551,-0.034521166891188164,0.1796875
-0.006465809428245031,-0.10759917816233806,-0.14199989493809592,0.5543676321793926,0.04505960755335434,0.020100844485585485,0.05618705513641047,-0.10653649763675303,0.4324339278061001,-0.049966176994792916,-0.7756594274088047,0.003456293987191347,0.06319779061958684,0.012784790261932449,0.1875
-0.00891915236493539,-0.15079419556765195,-0.19905598642066175,0.7769068030871654,0.06320766024571917,0.028187171045230896,0.07871848853215523,-0.1490639581456322,0.6061104695907337,-0.0702900350471711,-1.0871698864852943,0.004838039180924148,0.08874867941808985,0.01784867852798559,0.1953125
0.0027501900747915146,0.05406989787022775,0.07150866180484894,-0.28001108222152077,-0.023125959504143964,-0.010102547982996755,-0.028410745228907915,0.05317226193668401,-0.2174979641587895,0.026215415485776928,0.3921347840416144,-0.0017165708962194215,-0.03279500667569985,-0.00626226752921292,0.203125
0.00036599395776365935,0.01195468496017707,0.016187084702739673,-0.06314982129362075,-0.005466223017940296,-0.002290360858097273,-0.006459614452642884,0.011798783469629391,-0.04952545976355102,0.006434930150702459,0.0888833167681794,-0.0003734417619851677,-0.007964408747044457,-0.001329562097433603,0.2109375
-0.004369340321777734,-0.07147526413819559,-0.09374896758480586,0.36674314184566,0.02964886689723128,0.01331041062757941,0.03718857676218103,-0.0703874545697317,0.28491311073834863,-0.032795056843313686,-0.5138237079375241,0.0022939066374245147,0.04139408306806503,0.008473053255362292,0.21875
0.006346990028178946,0.11683642290512648,0.15463124095210531,-0.6041465356199225,-0.049538388565029026,-0.021790045374243026,-0.06104857520463355,0.11526222544249853,-0.470816277749795,0.0558346087666042,0.8440998284722127,-0.0037252916601299337,-0.07014427661910039,-0.013644973816626388,0.2265625
0.01013171012548257,0.18366508879676605,0.2423856379705689,-0.9473973964764124,-0.07752127732786208,-0.03428182332109756,-0.09584278850514603,0.18090900322269504,-0.7377994908679865,0.08713829143974854,1.3268931608746743,-0.005858168552326385,-0.10948670489608676,-0.02144945240094248,0.234375
-0.008958111416661991,-0.15149835824739777,-0.20016774785372413,0.7821647693642626,0.06364927488252836,0.028240283931018424,0.07924504395204097,-0.14982794497757965,0.6090755899305116,-0.07076827751921197,-1.0902876664848047,0.00486266565836327,0.08937906737609863,0.017990326744668945,0.2421875
-0.02167690632600805,-0.3750521104161484,-0.49488744333559803,1.9342743105990614,0.1576804440592592,0.0700000389982104,0.19592294724108283,-0.37021819703103664,1.506501032489553,-0.17591713416210034,-2.7036860345697695,0.012010680234212402,0.2218258587355494,0.044249725677392146,0.25
-0.0071142130804682235,-0.119290392309182,-0.15699610247904822,0.6139434745117441,0.04991280567589432,0.022310597068868388,0.06224244600528312,-0.11784651759451632,0.4789164558156781,-0.05537257211665495,-0.8597787224483395,0.0038284889203799924,0.07009292639536654,0.014141156900398945,0.2578125
0.009654595341175753,0.17550259223563056,0.2318936901402854,-0.9059855189577087,-0.07414133181853795,-0.03274889425425914,-0.09172096832240986,0.1728126874160538,-0.7046400698928758,0.08335012139747211,1.2671923355268309,-0.005599533973288875,-0.10458156244968479,-0.02050847885622236,0.265625
0.006696668933922721,0.1237077841925933,0.1631917515857311,-0.63764144316977,-0.05222466976450464,-0.023145604664192077,-0.06460928620733733,0.1216181989374841,-0.4964727812905592,0.058846348426903526,0.8950039976376175,-0.003940232966762119,-0.07375207100011055,-0.014386487856907822,0.2734375
-0.0008159141803679123,-0.00844743322586923,-0.011125527968913324,0.043578303788465264,0.0033939762979516906,0.0015438014577001402,0.004425017059465007,-0.008619251214304737,0.03347466253594409,-0.0032975964248210185,-0.05832551837573922,0.0002878734032166639,0.004494292561767449,0.0011403619287681749,0.28125
0.00025635834903323465,0.010082591224157413,0.01368800305424467,-0.053396736125864444,-0.004522013491286456,-0.0018568209139260261,-0.005264266035737154,0.009824761672824811,-0.04166043144234295,0.005568939900121282,0.07358813333241852,-0.0003073373627526351,-0.006702969297965436,-0.0010803817674596282,0.2890625
-0.002309670705527299,-0.03504414101867678,-0.04590746356093215,0.17935189776862875,0.014455661156258098,0.006533274636770302,0.01834646736010997,-0.034729395974086426,0.13993328541314723,-0.015734699634662508,-0.2527797605165976,0.0011326914478374157,0.020015035379001584,0.004221564900696518,0.296875
-0.011406954540692458,-0.19467340541441996,-0.25697169306061546,1.0038529638595914,0.08172037803611884,0.03624335807770045,0.10175327781489754,-0.1923608617907445,0.7816694636405677,-0.09104524264655914,-1.4031956046922471,0.006237606089105799,0.11474090565559436,0.02302640065868381,0.3046875
-0.008054670462546874,-0.1356903833148452,-0.17913709707375278,0.6994987045758246,0.056818410403954044,0.025233857414390444,0.07084547380299801,-0.13420228756578467,0.5445464605335318,-0.06322123858948324,-0.9770054734613106,0.004350530212308286,0.07970540861197095,0.016095855451319533,0.3125
0.009272424880406943,0.1685876669733901,0.22295770509375212,-0.8714731291273876,-0.07148390952103495,-0.03148384682774275,-0.08827177757835517,0.16613174997165597,-0.6782315673770277,0.08026593227257536,1.2172325478322594,-0.005384184150188794,-0.10088200520070771,-0.01972514425952279,0.3203125
0.014612662780641461,0.26227993667306204,0.34686798102234956,-1.3551304912144493,-0.11098000625028183,-0.048943315438696774,-0.137278976054966,0.2587050130423337,-1.054607442931493,0.12444960730950337,1.893164664647379,-0.008380984799247988,-0.15644206566532537,-0.030761727785934025,0.328125
0.000942453769144723,0.022139329488100493,0.029529471043336086,-0.11508091181002637,-0.00969168381237732,-0.004158561072228828,-0.011723377298544658,0.021760944755728637,-0.08953691466900116,0.011225086676761666,0.1626236722273907,-0.0006951619113405444,-0.013876153487073887,-0.002487321983350448,0.3359375
-0.005008406927087741,-0.08234640257252186,-0.10873167856356941,0.4247492120692859,0.034445436580215885,0.015337756993484391,0.04297682786262117,-0.08141844750736334,0.33046038720492327,-0.038081792841243425,-0.5900815885562724,0.0026507392074967347,0.048176850634948344,0.009826664599445414,0.34375
0.007394977724062469,0.13555508406144265,0.17913167007597472,-0.7000131565851467,-0.05736246154767833,-0.02527887760329606,-0.07088483513182155,0.1335876995052153,-0.5449188829429997,0.06460138710154052,0.980779221668651,-0.004320565297897326,-0.08108749717758537,-0.015826182597436393,0.3515625
0.012796973523168864,0.23043974126368078,0.30473443344656015,-1.1902159332418398,-0.09738621850468861,-0.04295365364169222,-0.1205260776062553,0.22729881722996237,-0.9262094627806127,0.1093643428559644,1.6641486925631825,-0.007357740631110331,-0.13737708867341072,-0.02701664623562032,0.359375
0.00029857036493028186,0.010886475463699863,0.014744938923913596,-0.057107136452586145,-0.004841138283613475,-0.002005237098672015,-0.005760676284482657,0.010642272862076854,-0.044247618053183405,0.00589309904823811,0.0805062743015966,-0.0003331793791668672,-0.0070912772578770895,-0.0011792111363494973,0.3671875
-0.005959113613611779,-0.09900071991556003,-0.13075716442862817,0.5106710012245982,0.04156053933259119,0.018459793571522123,0.051798057467285635,-0.09796174127300551,0.3973834293222879,-0.046008616797937066,-0.7121733187566411,0.00318407031772248,0.058178466079555825,0.011779175579055796,0.375
0.001242891441224676,0.027599694223590272,0.0362792334200107,-0.14230892010833834,-0.011771794197383258,-0.005172182889169424,-0.014298144659685324,0.026839875058433105,-0.11078615698573677,0.013561632024968026,0.19990082117163147,-0.0008672796614763766,-0.016860830646274964,-0.003101523389112021,0.3828125
-0.003842902193626476,-0.061662423995213225,-0.08132062437828912,0.31770988289070584,0.025715344841737917,0.011510984824765586,0.032275403885935576,-0.061162888850945035,0.24805621971958142,-0.028409587521068504,-0.44511584264200327,0.0019845869135026615,0.036047305093700695,0.007395136139766578,0.390625
-0.022367023031672106,-0.3870537596153496,-0.5108170447275726,1.9961361670989772,0.16273743129777055,0.07224487562830625,0.20226983314772962,-0.38214348907883394,1.5549424651522517,-0.1815894625209796,-2.792029161356429,0.01239358201594231,0.2289676566834197,0.045676536937104974,0.3984375
-0.020906707961791986,-0.3614068342795921,-0.4771146757284992,1.8640232614144085,0.152015291736567,0.06743091444861554,0.18892326535622775,-0.35689914531008804,1.4513701216916992,-0.1695087149850308,-2.6058099082025463,0.01157703474998411,0.21373646322649045,0.04266212335515954,0.40625
0.0024103332737789,0.04818863146850653,0.06368112451575897,-0.24902706628855095,-0.0204902612702819,-0.009053279550020225,-0.025130152563783897,0.04720464386367489,-0.19436412090282876,0.023400362004853122,0.34957304556722124,-0.0015250540733926443,-0.02919277998101381,-0.005538178407021196,0.4140625
0.010005927033128597,0.18151707638807266,0.24005991922726633,-0.9373456792610213,-0.07678238878961652,-0.033969189415295406,-0.09496722356763179,0.1789224192282744,-0.7301552615139015,0.08625339547650998,1.3115470897207993,-0.00579602741569101,-0.10835388930134361,-0.021245763051572136,0.421875
-0.004492054808556909,-0.07331486222570179,-0.09621472409766677,0.37695111330445635,0.030460298451070286,0.013595899940339384,0.038104329600291816,-0.07234668418244804,0.2933427697975107,-0.03371512149765082,-0.5262706032709491,0.002352431233268244,0.04268955298204794,0.008731556858920589,0.4296875
-0.007578119521843658,-0.12749188099416292,-0.16804383263259043,0.6567450470543151,0.05338024182543649,0.023773379774075613,0.0665547629747948,-0.12592707699197486,0.511289745140126,-0.05926061629983727,-0.9169442222526878,0.004091218613609417,0.07488656107097082,0.01512821072110655,0.4375
0.007627677560600739,0.13979303711475752,0.1845957000524853,-0.7219211587450866,-0.059114551091262624,-0.02604013022993081,-0.07297493112860977,0.13755420561351372,-0.5615851919255773,0.06658363701008808,1.0098758755130819,-0.004454538644173255,-0.08353635688455076,-0.01630107807109895,0.4453125
0.014701520182948988,0.2639690591279464,0.3487927433443409,-1.3631183916030563,-0.1115791972314423,-0.04924179879468259,-0.13797785782282124,0.26013913742976036,-1.0602148373903428,0.1251119905758612,1.9041589594854198,-0.008434141342389193,-0.15733085447096154,-0.03092792683656972,0.453125
0.009840071910817698,0.17824928285352085,0.2358337507090988,-0.9213751155683947,-0.07565909254301206,-0.03333683630453834,-0.09336233168347058,0.17582250219894616,-0.7166193062803304,0.08479801480782406,1.2864740139676287,-0.005699553457774347,-0.10675151653647229,-0.020868577848284157,0.4609375
0.011364198204702388,0.2050342422755187,0.2707766083605019,-1.0587728038632598,-0.08678964789234661,-0.03833677372034662,-0.10727626028434456,0.2022023951733066,-0.8244097976311011,0.09735730517935613,1.4817543341754227,-0.006548126518589433,-0.12258045229297262,-0.024013020493784527,0.46875
0.014927498641031947,0.26804632207677875,0.3535137503113618,-1.3828129624166925,-0.11300516388731982,-0.04997969286410695,-0.14001255308796526,0.26409308665167636,-1.076773444162732,0.12693078490076604,1.9368651545893862,-0.008549767228422638,-0.1596071143784397,-0.0314125577557576,0.4765625
0.003499329268577191,0.06743963563989132,0.08906472748073288,-0.34832051034339445,-0.028469678376965603,-0.012479945823482089,-0.03526774240171508,0.06626362721924571,-0.2711159111580589,0.03246141215250632,0.4887682573931474,-0.0021337005830153175,-0.0404691588227681,-0.007844584876036266,0.484375
-0.014968937178277818,-0.2573337544844855,-0.33893154377338847,1.3260040053418427,0.1080966630275082,0.04805201093033464,0.13419330567961446,-0.2537105359210775,1.0319537239267973,-0.12041287773522091,-1.8542651160528167,0.008242867032231899,0.15202105532278545,0.030315809894595664,0.4921875
-0.021378817093388545,-0.37013850391536685,-0.487863043085757,1.908147639137897,0.15553744445795536,0.06902160240255772,0.19316771334702348,-0.36493283286837597,1.4847576767345851,-0.17355932463541549,-2.667328264549312,0.011847939674861054,0.21887957758146853,0.04361371511469853,0.5
-0.015450866309924368,-0.2657563561207296,-0.35075721353408534,1.3710663106770706,0.1117236220399865,0.049551424772143596,0.13892118741019538,-0.2624300440427418,1.067294528162605,-0.12450003856785255,-1.9142461112351816,0.008516937313361969,0.15712283876041722,0.03143144016459842,0.5078125
-0.0053886219357766755,-0.08879830291928466,-0.11742972213491713,0.4587011066114922,0.03723090607044686,0.01654313601852874,0.046580951570397516,-0.08817236748161572,0.3576658811929579,-0.04115804400159242,-0.6381367712310977,0.002860026001905389,0.052207248459182426,0.010669959922965705,0.515625
0.006223044551679316,0.11508933302621206,0.15208294108575746,-0.594093013893974,-0.04878272821762197,-0.021531986074958917,-0.06008700606927905,0.1131203680643242,-0.46229426132012863,0.05495642070256503,0.8317972099562173,-0.0036680404292537805,-0.06888321434028742,-0.013352113397729695,0.5234375
0.012417192556688963,0.22392904718695797,0.2959253041683046,-1.1564691703600605,-0.09465559193017341,-0.04182640638635083,-0.11698952196808542,0.2205892134804923,-0.9001374951840048,0.10619024797436062,1.6146101140966216,-0.007155584110231837,-0.13351246341548398,-0.026207708090794982,0.53125
0.005302227986406845,0.0991785365619987,0.1308847536525929,-0.5125593051109547,-0.041979012451031854,-0.018484000836089583,-0.051642988400781915,0.09730506127077461,-0.3977159608943281,0.04728492143963167,0.7123630045890154,-0.00316437885756853,-0.0594089855880148,-0.011528573054682389,0.5390625
-0.006492273506418073,-0.1080098487679177,-0.1429213653697087,0.5571177602853842,0.04531253805357504,0.020175650548281188,0.056655858255898583,-0.10716502174474317,0.4356305738841401,-0.050333079923970944,-0.7810578042758013,0.003467572951731171,0.06352296360425745,0.012869994419716016,0.546875
-0.008008918744919973,-0.1349370891765247,-0.17832215983635416,0.6960965213810109,0.05650031706015189,0.025138940138351315,0.07052932534654263,-0.1334399761907669,0.542822799651148,-0.06284762619678959,-0.9714078664013505,0.004332909026460224,0.07934411181869608,0.016025439488100666,0.5546875
-0.0007674372923938706,-0.007896948182518446,-0.010232179939185397,0.03987104552991845,0.0029074997919763517,0.001435146648535662,0.003969562276515332,-0.007801156102373325,0.030681611877515655,-0.002834696061093291,-0.052950660910778796,0.00027049778675686454,0.0038309875203554433,0.001029418251862444,0.5625
0.0034156630518730902,0.06557009158460124,0.08714578492383003,-0.3400673228078631,-0.027942878889463597,-0.01222583508900481,-0.03445743277950953,0.06482333130725866,-0.2658093413339445,0.03179788083691146,0.4766303669282805,-0.0020820833464180824,-0.03978681054198781,-0.007671945984745375,0.5703125
0.0003014070348909127,0.010731212907495017,0.014998216372302938,-0.0574056907669854,-0.0047709437304361835,-0.002022942516243318,-0.0058441595189703864,0.010833479133282501,-0.04644392445976841,0.005910852608624459,0.08163242445540779,-0.00033221151432864164,-0.0072599944764082085,-0.0012544327273414564,0.578125
-0.006228002356898238,-0.10409486062506323,-0.13673138942176352,0.5355001237095729,0.04352130368476301,0.019331715181397795,0.05409114048415613,-0.1024464761024816,0.41505861719758586,-0.048217699952023754,-0.7453663275207445,0.0033395371486157196,0.06085755230265851,0.012277850788174938,0.5859375
-0.008113331892969184,-0.1370450695406172,-0.18069181821513647,0.7062774509481637,0.05732896771441707,0.025510436041910275,0.07138131785985297,-0.1352181523899878,0.5494997881320386,-0.06376935148405548,-0.9843904803290743,0.004396823399625268,0.08052121339309148,0.016232498033877333,0.59375
0.0016518130367150336,0.034784212575598966,0.04588166714925429,-0.17973340015320846,-0.01498062634821517,-0.006446017328001281,-0.01820102128740151,0.03397497949366606,-0.13859838819567116,0.017121919533143633,0.2516659389884591,-0.001096100808717805,-0.02118778259899827,-0.003911787720626845,0.6015625
0.014724389001453208,0.2644982741125004,0.3492837855077179,-1.3649046364205981,-0.11163920140929658,-0.04928086915600845,-0.1381082384820989,0.26049216076180676,-1.0611983113477408,0.1252775929596274,1.906736530426177,-0.00844556561777857,-0.15733601730557187,-0.030925464796173,0.609375
0.013087493092226015,0.23569985470207427,0.3114291187211847,-1.2165944934157562,-0.0995124836664942,-0.04397235494471378,-0.12309676192051597,0.23209896292026358,-0.9463226153628063,0.11167573631706525,1.6991675877078158,-0.0075296989218960105,-0.14031894089216324,-0.02756085362885192,0.6171875
0.0007369415062046282,0.01883117774055286,0.025030181456070996,-0.09773800854479993,-0.00820720039377376,-0.0035529693730736635,-0.009843674190791032,0.018109703775284317,-0.07508706857945051,0.00950503346683796,0.1356287992757466,-0.0005946573751944494,-0.011738908123428565,-0.0020541207147694606,0.625
0.0011298169741173476,0.025835298294298013,0.03415825870871591,-0.13365040271126213,-0.011137303537260654,-0.004855751583038034,-0.013503090848110124,0.025016187548056866,-0.10297788973862622,0.012833585420866635,0.18745308005205075,-0.0008141762931900903,-0.0158484709797819,-0.0028720690020947984,0.6328125
0.012693860709658679,0.2288401029697078,0.3022457557724505,-1.1811520438795304,-0.09664331646447223,-0.04273298645774367,-0.11957120228704043,0.22544563011899535,-0.9193991062125704,0.1085340331228174,1.6531760643058948,-0.007303507240120905,-0.13629993999521597,-0.026773912724607205,0.640625
0.007213216694890602,0.13226744821368022,0.1748808538396836,-0.6835936189287749,-0.05607387105868805,-0.024720656148814087,-0.06915897704115967,0.13039053922311872,-0.5327181898468076,0.06311102178058899,0.9566308881296818,-0.0042167865965967236,-0.07924674193866833,-0.015457572153084324,0.6484375
-0.017534293696400922,-0.30261153766023524,-0.3992901764236901,1.5597349940916687,0.12701818543478172,0.056439402264678855,0.15803438871605943,-0.2985214076211454,1.2141238081874042,-0.1417298545947945,-2.180907093406352,0.009690849408196997,0.17853077349389165,0.03567611138753091,0.65625
-0.029866797223061146,-0.5191159763574025,-0.6853059306132133,2.67741503463032,0.218318678708673,0.09686468746642353,0.27121795832043843,-0.5121638524023904,2.0845529517636083,-0.24375540565361806,-3.7421464805461224,0.01662109949338633,0.3070761982041355,0.06116054440552703,0.6640625
-0.016642416097807877,-0.28653057062653625,-0.378366531902285,1.4783449194579608,0.12055172492753527,0.053473301914117866,0.14979043873049164,-0.28288481620812606,1.1505940292555985,-0.1342562082021262,-2.0638317812016647,0.00918835802005424,0.16937726446388846,0.033824590886494796,0.671875
0.0014935916828166525,0.03223205847346737,0.04255877038750223,-0.16613640463721313,-0.013625544541990973,-0.006018852360719178,-0.016744921186713786,0.03143667241835238,-0.13016127816923723,0.0158309760032815,0.23452674126774384,-0.0010100160355992433,-0.019602343601222445,-0.003675280393868109,0.6796875
0.008963945572079853,0.16338665818603482,0.2159589581916324,-0.8433349378701426,-0.06891907829442841,-0.03050530299883959,-0.08534534876625151,0.16086085467537115,-0.6574499279022983,0.0775743633974632,1.1794765131141234,-0.005214054363027089,-0.09747655380697978,-0.0191210694650128,0.6875
0.00908423453044915,0.16523758221992976,0.21861758674105627,-0.8534774308374132,-0.06982067849903051,-0.030850735319243313,-0.0863860845839398,0.16288012285713702,-0.6650234105128454,0.07850019369515025,1.1931671347012112,-0.005278332707292236,-0.09867775412166298,-0.019337240346637707,0.6953125
0.004714073048967457,0.08825726454911066,0.11705958976224631,-0.4569114702368534,-0.03757101861229273,-0.01647288264602419,-0.046217173239228394,0.08708763517145009,-0.3553947795309222,0.042366888488643895,0.6380377047757081,-0.0028161142087228834,-0.0531092836841094,-0.010263832774512536,0.703125
-0.0019035685632304614,-0.02793033381319984,-0.0364267472936906,0.142261789811497,0.011254314629337805,0.005216191985108998,0.01443290961849654,-0.027580719383041706,0.11200938852549203,-0.012297458586878522,-0.20094152739210705,0.0009012911167163303,0.015760093950552587,0.003411037611518398,0.7109375
-0.002333491449417453,-0.03520896479674078,-0.04633470963092986,0.1805729209850467,0.014438568322978906,0.00656339701923894,0.01824765243441097,-0.03498909645151048,0.14175149240788615,-0.015806374050479882,-0.25305248441851486,0.001138409892243167,0.02018377002244451,0.004274135665683073,0.71875
0.003195231035761525,0.06204162234739373,0.08171544732771728,-0.31999534813405944,-0.02631552027601305,-0.011599867955599774,-0.03243662937456899,0.06073299149591163,-0.24857596983486988,0.029905190950851705,0.45038037306977763,-0.00196498617655326,-0.037336276875936755,-0.0071346924319007545,0.7265625
0.0037518310769887224,0.07159767815406605,0.0943861947075129,-0.3694017548564152,-0.03040310293726377,-0.013389552853096329,-0.037362613677219915,0.07020755218808124,-0.28682432640929023,0.034462676790592256,0.5195568833318315,-0.0022703574116912212,-0.04306167209549747,-0.008237668391377765,0.734375
-0.0002459654379462747,0.001099361993926719,0.0018386710884527983,-0.00698094926243717,-0.0009855101951304394,-0.00024411483598164526,-0.0006764213584672586,0.0009664909357299774,-0.0042390372613275275,0.0013920432992114713,0.009288159509541627,-2.4853691662066235e-05,-0.001488539489161609,1.6054623539652297e-05,0.7421875
0.0003758290321895238,0.012111208317453333,0.016725028850050807,-0.06421759233429496,-0.005642497529784136,-0.002313405901491811,-0.006583331767471111,0.012015693447967815,-0.049738190670552095,0.006569535989422946,0.0885699458255733,-0.0003828576436359173,-0.008073202661613337,-0.001341206540759898,0.75
0.0008866186332533313,0.021392471053618384,0.028693842735893902,-0.11110596798995234,-0.009247389242590992,-0.004034560464697492,-0.011324483678782731,0.020994492247439173,-0.08756982267062542,0.010780953033298596,0.1572234366245449,-0.0006740339479607615,-0.013368233680552257,-0.0024368666851763148,0.7578125
-0.006203526000691836,-0.10309992333962427,-0.13608432641964266,0.5317087622326657,0.04331764256587836,0.019231495651355908,0.0539219121171008,-0.1020526552679926,0.4133212658718471,-0.047926872915224905,-0.7408699601948701,0.0033141498165872277,0.06058007821186818,0.01225050763776092,0.765625
-0.008655026021234913,-0.14637669161283065,-0.19319449389476834,0.7542407090945209,0.061328221886408484,0.027317684690002685,0.07650764006728844,-0.14468220932484785,0.5878642984880191,-0.06820164249805698,-1.0549698042026783,0.004696717247207204,0.08611278525193648,0.017350985088868166,0.7734375
0.004893220176305433,0.09155784220356417,0.12112672328664827,-0.4736927144190787,-0.03898000723652919,-0.017107569227426154,-0.04795102539842904,0.09021336769971569,-0.36865806711441146,0.043942810185079194,0.6613120529724277,-0.002914998699940689,-0.05507216970772506,-0.01067161387955696,0.78125
0.019671105977548738,0.35136432516305965,0.46404567339681085,-1.8132069444257604,-0.14812487986097175,-0.06559439051776511,-0.18363332951471878,0.3464472993688343,-1.4134267187700704,0.16620395044958383,2.5371429719321474,-0.011220297152970743,-0.2089734807663946,-0.041246259514725984,0.7890625
0.017644134306428,0.31593220064571065,0.4171100907198191,-1.6296349343102006,-0.13296235126871533,-0.05894239646551321,-0.16491351976539512,0.3112927193862987,-1.2707131192823387,0.14937219515675532,2.2811314265905667,-0.010085216948824022,-0.18776754229218495,-0.037046690793782706,0.796875
0.0033251540211783224,0.0643623366256241,0.08501430217045909,-0.3320261487164139,-0.02714551208027266,-0.011966194411248719,-0.03341120638050643,0.06306597258390147,-0.2583579126395423,0.030879894590329183,0.46387501261511044,-0.0020443135710301484,-0.03860030743440075,-0.007416506849557178,0.8046875
-0.011674306899410155,-0.19926576405264196,-0.26302988131332555,1.027561785329791,0.08362667321124935,0.03720559660787976,0.10422682258204556,-0.19692870640561938,0.8019281787661026,-0.0932049329945824,-1.438363951699647,0.006384046831785119,0.11758922405518966,0.023607385252133004,0.8125
-0.02326475213742281,-0.4030445678568044,-0.532136821014217,2.0786366993207848,0.16935690451763333,0.07518705871233097,0.2105864526531011,-0.39786357354716034,1.6201090007807004,-0.18911516381512603,-2.9061941901111448,0.012903842184180284,0.23830130885546388,0.047564289370116315,0.8203125
-0.02527702999235345,-0.4385657060977879,-0.5788379044865357,2.26134795073118,0.18428704834124726,0.08180503900925357,0.22903807927520703,-0.4327417733056272,1.7615453511064942,-0.20576927852207616,-3.1611662960611624,0.014040060272550453,0.25926182542003723,0.051709161827439135,0.828125
-0.013691548979490488,-0.23505421038295127,-0.30981210245027324,1.2108831374214655,0.09853381350754409,0.04385272797971466,0.12261228149668833,-0.23182050668554352,0.9433561569869161,-0.10984524670770011,-1.693686221302721,0.007528368344194008,0.13855266158353685,0.02774071489272061,0.8359375
-2.62795686085008e-05,0.0052101817948353914,0.007294223267475595,-0.02805800233546745,-0.002552061823393369,-0.0009702401234056865,-0.0028742149065419543,0.005112885307562497,-0.02172167545738888,0.003278392862915209,0.039941827463511284,-0.00015280925411988066,-0.0038047976678322946,-0.0005181338666868425,0.84375
0.004780588246138868,0.08981110160752474,0.11852957512909304,-0.4633070795057205,-0.037989195062295505,-0.016780983636113685,-0.046932503237621256,0.0883260109295135,-0.3614957325626648,0.043008365899362154,0.6522336055653257,-0.0028516435608392427,-0.05385321857850691,-0.010443762983639523,0.8515625
0.007502562927836855,0.13748967810705084,0.1814528277189313,-0.7093476078404011,-0.05811836868435339,-0.025705248914732377,-0.07185207992876783,0.13534406816318528,-0.5531386988540906,0.06546786790749047,0.9964498216049611,-0.0043791388004475245,-0.08222013950735764,-0.016040254166987584,0.859375
0.013086197866949536,0.23530244040176065,0.31115213511923867,-1.2154186607954465,-0.09960085581375208,-0.04395167703514865,-0.1231239298479166,0.23207342867496153,-0.9459932171242373,0.11168422271316157,1.699321570176351,-0.007519361583349955,-0.14042622614605038,-0.02755285246199525,0.8671875
0.01216419324253942,0.21907819843804155,0.29009115955159365,-1.1324610160222952,-0.09285203776642646,-0.04090181837027865,-0.11468767473248401,0.21614502563427623,-0.8806897427839032,0.10409793934683224,1.57991046500699,-0.007005734906024693,-0.13080118469063556,-0.025646965376243256,0.875
0.00459018990332963,0.08635429873774453,0.11455780682992933,-0.446744604536739,-0.036672826205624134,-0.016136023373339217,-0.04519313788135725,0.08496890254888285,-0.3476142391556963,0.0414342926262795,0.623172765441469,-0.002753858391336842,-0.05185409793490605,-0.010029871461397256,0.8828125
0.004189499164883938,0.07966636651425885,0.10525950011969937,-0.4110734999617445,-0.03362008089031235,-0.014905046132742468,-0.04161362173393287,0.07813699052548975,-0.32066931756903594,0.03813547353278744,0.576670055146695,-0.002532896480138407,-0.04773058492203458,-0.009244562088321672,0.890625
0.00931261419772325,0.16965006994749257,0.22399074524803614,-0.8755139481915678,-0.07164079168612351,-0.031690734208338296,-0.08869663814407926,0.16694720585583517,-0.6816550080191506,0.0805646217820111,1.2254530346889119,-0.0054120336141107095,-0.10120216995332676,-0.019835544755486274,0.8984375
0.0042490906510080795,0.08039862361700839,0.10632237755053096,-0.41588543201482076,-0.03426224553049629,-0.015012874519794299,-0.042087788839332306,0.079068439072632,-0.3229471644158582,0.03864399555958119,0.5800641093877752,-0.002559997292702806,-0.048437437196509565,-0.009340562786875155,0.90625
-0.006710223941166205,-0.1122615557813877,-0.14807785624000488,0.5782388753518607,0.04695455182395923,0.02093867350774166,0.05867819699741047,-0.11094425182263852,0.4503720005752999,-0.05212268749715937,-0.8094105859799957,0.0036057410988736675,0.0658578493700667,0.013318065747811542,0.9140625
-0.005632012225123235,-0.09317210411377182,-0.12309357313602345,0.48075158796344825,0.03915622344085788,0.017355663425535614,0.048781171686697426,-0.09218080430820913,0.37305270430282506,-0.043242371375765115,-0.6695154478714519,0.0030013366770705084,0.05470237165937916,0.011070234062222576,0.921875
0.0019115251912851011,0.039405500557331996,0.05190948785278598,-0.20298582769218423,-0.016639381820643437,-0.007381653122160382,-0.020516333571564883,0.03858593825756296,-0.15930344989345482,0.019191434812256148,0.28774560022411133,-0.0012385020298704104,-0.02388048944282094,-0.004515342291920003,0.9296875
-0.0036470270853930986,-0.05841840837795809,-0.07706155911290018,0.30086182099591785,0.024381764365089532,0.01091050571368488,0.03056664743449052,-0.05785618278988168,0.23456686939283947,-0.026809811373849794,-0.419622144784701,0.0018852672706092765,0.034051334130851166,0.007008936871753309,0.9375
-0.016763739889586876,-0.28889006186960453,-0.3812817795761491,1.489311349322556,0.12133096892527356,0.05395453278427396,0.1510011429431734,-0.2851870514545124,1.1612071081054591,-0.13535937464681608,-2.0839969891537105,0.009252836548752752,0.17071758132924092,0.03412654005424837,0.9453125
-0.016254439236234382,-0.27974341278127746,-0.3693134698725335,1.4424159302125636,0.11751292445999834,0.052253635579902064,0.14620048070521377,-0.27619801281644346,1.1245517592572527,-0.13110524716617553,-2.01769648980291,0.008960257112649625,0.16534230730726734,0.03304377264010904,0.953125
-0.004261687759236538,-0.06903426897517292,-0.09105970155942544,0.3555672444111122,0.028786861124245514,0.012913116583370628,0.03603058328676391,-0.06831465289731087,0.27740302516695964,-0.03182976765993724,-0.4961719997013018,0.0022207892799530043,0.040321697092041975,0.008251313371656055,0.9609375
0.00045343794966104013,0.013529259179060216,0.018230280238564937,-0.0707215415904132,-0.006046915034225003,-0.002525019581960027,-0.0071504763315599915,0.013237963176903681,-0.05501283275032851,0.007157895357924905,0.10017699429626414,-0.00042211299391259344,-0.008788864700906876,-0.0014601848426062918,0.96875
-0.002157427721093596,-0.03244914410883947,-0.042330052953736555,0.1663082712010227,0.013299922601293127,0.006025298755160456,0.01687464731301213,-0.03205844137036093,0.12951309374338293,-0.01446247702565095,-0.23149493092900525,0.0010475217373302089,0.01841878709917462,0.003941414936303785,0.9765625
0.001953291190750194,0.03994928673817708,0.05319478271603855,-0.2070983736254671,-0.01714725745608953,-0.007505303521016946,-0.021009526923015574,0.03935449971399515,-0.16157274662006868,0.019623631770205326,0.29125104288285364,-0.0012667929461127243,-0.02451440240867704,-0.004602866576655638,0.984375
0.010023736846484874,0.1817622144238039,0.24047072950736184,-0.9390677281213459,-0.07688965814160896,-0.03397802887660541,-0.09521564904669756,0.17927896851210845,-0.7320485443551807,0.08645939496600241,1.3149803788665895,-0.005802776559994991,-0.10868528198346925,-0.021311351464010454,0.9921875
0.0072746028472534235,0.13326514168029352,0.17652412708340118,-0.6893144874036301,-0.056540803775519545,-0.02492810672365149,-0.06986274319511718,0.13142011493790134,-0.5371959550092418,0.06365702225230561,0.9644263526984963,-0.00425348438840675,-0.07996838187073901,-0.015588666796906245,1.0
-0.0019761263619945645,-0.02920338732701543,-0.03821042435321428,0.14942870156225682,0.011887803700033464,0.005396093012931756,0.015222056948318624,-0.02908212206019349,0.11712868149938094,-0.012946409346210242,-0.21001017767794952,0.000944211928187361,0.016536345934751125,0.003579644949124838,1.0078125
0.001986445891196768,0.04076171361286149,0.053824477843226734,-0.2104876210643092,-0.017483167576073547,-0.007652945279057322,-0.021183467379496328,0.03969120745274838,-0.16275901307654295,0.01988819568790827,0.2928257986815552,-0.001289538889722189,-0.024730196972959743,-0.00462262310919152,1.015625
0.017335011313036264,0.31051819257556973,0.41002254487643225,-1.602166853294087,-0.13104060914534343,-0.05798669715168123,-0.1622143425133104,0.3058911268092019,-1.247426753027125,0.14694035869672406,2.2395310770487544,-0.00991637339491921,-0.1846505142295119,-0.036385921090456436,1.0234375
0.017551272990461126,0.31409939249128427,0.41494042070411447,-1.6212708422536604,-0.13255666148980907,-0.05864314924541338,-0.16423752819957393,0.309691705922215,-1.2629559582106515,0.14867729448186265,2.2677825769404447,-0.010031861777341547,-0.18682956953302815,-0.036837076528926795,1.03125
-0.004074608106828455,-0.06583837957310032,-0.08691646007296297,0.3391622569582873,0.027512839759584816,0.012282970002260685,0.034314571334682825,-0.06513207224256974,0.2641375863446173,-0.03032534353143769,-0.47159189620901043,0.0021232581935472857,0.038525406665019316,0.00787364391967832,1.0390625
-0.017311412251288683,-0.29808289134808147,-0.3939194304678966,1.5381535826604043,0.1254345544881728,0.05564851516651478,0.15579971803194315,-0.29449232419989785,1.1981309864468042,-0.13981091271313556,-2.1476837460158786,0.009555657422204567,0.17632944995253144,0.03521106416154439,1.046875
-0.0032643710819920684,-0.05123841640079471,-0.06783550802334169,0.2642757319107838,0.021461787832978963,0.009588530886560882,0.026807057137701512,-0.05099018106957424,0.20578925027356423,-0.02352215037236774,-0.3686623914443618,0.0016568029617777574,0.029861926005091823,0.006148608824053359,1.0546875
0.010953600608167172,0.19817912597047918,0.2620031003811968,-1.0237477432682538,-0.08374496645811462,-0.03697154741437257,-0.10364532698894605,0.19534157586402956,-0.7970327680463049,0.09407747533316373,1.4298006101485634,-0.006329445971110459,-0.1182307997562066,-0.02321494704811396,1.0625
-0.0027777913339033663,-0.04336782315484833,-0.056774082447236106,0.22217368551616504,0.017881153755187423,0.008093704878298101,0.022572540194071816,-0.042783638423865566,0.17391376567113798,-0.019639156411856745,-0.311940426342265,0.0013947091012155202,0.024941773263738417,0.005217336035861622,1.0703125
-0.024061609196877016,-0.417247389916413,-0.5506826828443292,2.151884929349096,0.17541076276023018,0.07786693051757632,0.21808485201565736,-0.41170134264438824,1.676348816629876,-0.19578735168862824,-3.007857165568702,0.013359256557964458,0.24670297485592513,0.049216510624562615,1.078125
-0.019616703087318513,-0.33903870000539754,-0.44752279059254235,1.7487598354174196,0.14255847395355917,0.06326759722611844,0.1772915005413254,-0.33462418448895637,1.3612926228356776,-0.15898553357749784,-2.4435084559788898,0.010860426023934893,0.20033293034805044,0.040001375207695776,1.0859375
-0.00024163865630107907,0.001337276146657416,0.002054437416389559,-0.00757882710041958,-0.0008127795605347032,-0.000269356969434787,-0.0006397371907748528,0.0011779087052837904,-0.006679117011743303,0.00135877761341129,0.011331424656180342,-2.977882066760399e-05,-0.001532407459120799,-4.6988549407415455e-05,1.09375
0.0036607654869210914,0.06990120695235429,0.09266094136057394,-0.3612883979897565,-0.02972660215557999,-0.013072525636111184,-0.03653693638259862,0.06879378818735464,-0.28146117901064116,0.033676556749542313,0.5061584340158691,-0.002223826522762791,-0.042139475374342206,-0.008090658164470943,1.1015625
-0.003024349160429631,-0.04745602622654522,-0.062370266545359807,0.24435266702611333,0.019703626981673238,0.008839798203298992,0.024776480091635862,-0.04704440139475898,0.1904028016382493,-0.021595578915551708,-0.3395662104838109,0.0015323722433718716,0.027499437546298407,0.005724039803768256,1.109375
0.0017381752499966757,0.03623107845889395,0.048100321512448196,-0.18790079619155195,-0.015592642572445393,-0.0067730837903773825,-0.019010522178827764,0.035524733422478125,-0.14636220274327427,0.017854630778618156,0.26397027967840336,-0.0011453043537330845,-0.02222519963450431,-0.004144039597783255,1.1171875
0.010743132376374549,0.19436190150432378,0.2569467277850025,-1.0044579471206037,-0.08230631902381688,-0.03630256416886184,-0.10176132841185882,0.19159668622735976,-0.7819397186549659,0.09239264803753863,1.4037027189460265,-0.006207312900138866,-0.11614086046401158,-0.02276440927811073,1.125
0.008192222268573822,0.1495585070012357,0.19781409364624397,-0.7732750246788149,-0.06345351851756888,-0.027958420764570856,-0.07840481597605811,0.14744038519180894,-0.6015905433989154,0.0712967759892403,1.0806243325229263,-0.0047746537870874805,-0.08955123819990833,-0.017490160259924874,1.1328125
0.007718653390804517,0.14136257483829454,0.1869502584115364,-0.7304018715406951,-0.05987468236972707,-0.02641904562469776,-0.07405887071852,0.13931899755162788,-0.5684368766147866,0.067368018283748,1.02240973517718,-0.004509487698342886,-0.08452509757178632,-0.016520210692011098,1.140625
0.021295388412410413,0.3799697317514762,0.5018941205484657,-1.9610517300559638,-0.16027192301944893,-0.07093125833326615,-0.1986513251131895,0.37458266320334765,-1.5268020659335084,0.17967846042281171,2.7430729225824853,-0.012140816224059306,-0.225904169468375,-0.044576594395735504,1.1484375
0.023055202788379765,0.410892605043385,0.5425717961290705,-2.120349030063101,-0.17332230623216574,-0.07670253111636617,-0.21475445106277327,0.404939505217458,-1.6502830287833214,0.19422061201504126,2.9643810019585635,-0.013130161016041333,-0.24421868061821547,-0.0481813453051714,1.15625
-0.006390143816165475,-0.10638637622040255,-0.14051641912554444,0.5488227473534625,0.044523157606511286,0.01983136813197876,0.05560011462536948,-0.10539002323464013,0.42836545234515266,-0.04941876511334495,-0.7674333540012113,0.0034191375273840588,0.0625690584977464,0.012687529341663837,1.1640625
-0.03471730470616638,-0.6039992917281878,-0.7974876656857458,3.116265645256019,0.2541814462659238,0.11271125833967402,0.3156848459100574,-0.5961733673366307,2.4268802304719896,-0.2838167364663288,-4.355864690140771,0.019339647755494023,0.35769655169861114,0.07119275574190145,1.171875
-0.02675406799086714,-0.4641740421395947,-0.612731639655275,2.3943812463473084,0.19534057239899832,0.08662190680336528,0.2426348586622166,-0.4581211738171704,1.8640434678413687,-0.21797430020037806,-3.3467966514719727,0.014864475280217048,0.27469344180167143,0.05470040041951152,1.1796875
-0.0021996733652429254,-0.03301663941046288,-0.043358406362801596,0.16940357735182515,0.01367800872420204,0.006133590405870669,0.01729333559919408,-0.03273979275749114,0.13134946439248446,-0.014859977982062051,-0.2369454219200035,0.001067793657769846,0.018845513249497327,0.003979907821687135,1.1875
0.0037686790215724435,0.07168839037075429,0.0948957539506796,-0.3707080811577856,-0.03049543536258213,-0.01342517506880459,-0.03746408177744506,0.07058818173172038,-0.2892379994447954,0.03451524090583795,0.5190382458013941,-0.002281060654332141,-0.043285505542711086,-0.008310305132633866,1.1953125
-0.0006986489823295457,-0.006702262973717122,-0.008675584724131123,0.03411725101475345,0.0025561053307534697,0.001232640278947054,0.003494822685439555,-0.006743979641140387,0.026094126895777753,-0.0024060323199683164,-0.04537979812668317,0.0002308688391830693,0.0033266377523888846,0.0009230227881077839,1.203125
0.006799902356946905,0.12520538710508497,0.16540733724038956,-0.6464440374876179,-0.052946114470130985,-0.02333760510082891,-0.06541142634169968,0.12327194867505542,-0.503204717811472,0.05967152434946105,0.9053921975628162,-0.003988899355850081,-0.07482389860157437,-0.01459441656602523,1.2109375
0.013409262458939333,0.24130857324946775,0.3187442631646315,-1.2459081565154209,-0.1018985415276177,-0.04499836875272853,-0.12607340186493124,0.23772154659513187,-0.9693251970555594,0.11434063744224676,1.741062306085944,-0.007708945209697349,-0.14378207160574133,-0.028249443015280932,1.21875
0.0004084385609809525,0.012762432748216982,0.01718910730325285,-0.06718934165504103,-0.00573782106475692,-0.0023776155505077223,-0.0066832881562691295,0.012386179784367637,-0.0516547869750969,0.006745983931665039,0.092180970210142,-0.0004020841481069397,-0.00837794867022106,-0.0013762794467717004,1.2265625
-0.01278524297549828,-0.21905035016043878,-0.28871047368689284,1.1287067317979576,0.09188939707319434,0.04086699452674108,0.11437577366647798,-0.21608863779897994,0.8788674552610106,-0.10238356781196858,-1.5784409009570755,0.0070159337292642785,0.12910965203373986,0.02585981422876159,1.234375
-0.0025103520688210825,-0.03840836183753256,-0.05029631928294945,0.19697217652379398,0.01588797639593808,0.007166123137294312,0.019928342496253772,-0.037876766749766796,0.1530164269409087,-0.017296139432808118,-0.2739203932675146,0.0012430513933144752,0.022076980684510056,0.004593857492248964,1.2421875
0.012664270524931218,0.2282770018481082,0.3015086161975635,-1.1783816865052217,-0.09636717683948497,-0.04260405666427041,-0.11940108366309278,0.2250235178571605,-0.9178638003957834,0.10827964246966845,1.650409889814037,-0.007283890291426453,-0.13604120730934233,-0.026753659133229035,1.25
0.005192206167269893,0.09698881773401491,0.12797692210048583,-0.5005595928049976,-0.04107968295695742,-0.018133082358776427,-0.050732944450729005,0.09538192657965658,-0.38987223136788673,0.046411734093975816,0.7033035071933911,-0.003083673586156302,-0.058197431970625296,-0.01127925292363264,1.2578125
-0.011015167586798262,-0.18780790516817916,-0.24787427744322946,0.968498703295763,0.0787774737656556,0.034990938002570755,0.0980773657718011,-0.18552955652154618,0.7545364779421407,-0.08771245018569081,-1.3522469275644946,0.006022602046957008,0.11068428599704097,0.022227438332951002,1.265625
-0.007711402227389967,-0.12984728429877693,-0.17101049839403826,0.6685394886067876,0.054226972103861626,0.0241833808365054,0.06771022281096097,-0.12827001517034417,0.5216612833959424,-0.06033810169232468,-0.9361425254518289,0.004162615237926525,0.07627767319074377,0.015407850470477326,1.2734375
0.007109580787086053,0.13047454746304354,0.17275051864370367,-0.674882104896639,-0.055475090180910444,-0.024370990025462145,-0.06832612477930548,0.1285250824858985,-0.5242498941398632,0.06233039823756884,0.9407485874416457,-0.004165770391803862,-0.07814131300453266,-0.015198267511964214,1.28125
0.0086249839261452,0.15719379305484713,0.20771101557632443,-0.8118989015625226,-0.06661066493173906,-0.0293403884613714,-0.08216724046683892,0.15477459237198082,-0.6314546858936326,0.07484603143561763,1.1342855624845012,-0.005015414123173267,-0.09393505069356266,-0.018327736410830228,1.2890625
0.0001762458688184763,0.009007417332643116,0.011800560178805626,-0.04637721250830027,-0.003988466901116199,-0.0016840501558787941,-0.004632395042408085,0.0084834265619554,-0.035923896866721663,0.004885600183832793,0.06624920809036328,-0.00027175943062551045,-0.005908412349122375,-0.000912431520049544,1.296875
-0.0011908521961983521,-0.014864446389016782,-0.019612479131316772,0.07687650317349026,0.006184578367121268,0.0027616529544334362,0.007812631142936073,-0.015064616099965103,0.059667141265799487,-0.006452389087472325,-0.10582291531482478,0.0004896624560004288,0.008355412274516255,0.0018689238186048015,1.3046875
-6.681882132027891e-07,0.005913988314314958,0.008039060183466598,-0.03074654796164415,-0.0025925080986813225,-0.0011357598236834132,-0.0031010363348138105,0.0055419667350631455,-0.024621533735049772,0.0033907988360098377,0.04432482521154302,-0.00017667597461248344,-0.004002336265815767,-0.000579659253720596,1.3125
-0.006579302046512092,-0.10994355845098333,-0.14489664792741555,0.5666951402941027,0.046113304126673006,0.02046908913453107,0.05746445490618417,-0.10862431503287039,0.44028611926367717,-0.05107077133706484,-0.7909593818471021,0.0035314449529447577,0.06456514067370323,0.013054119681244269,1.3203125
-0.010245426695378234,-0.17452905952136002,-0.2301724623151127,0.8994983968651926,0.07322912364277959,0.032532994359147006,0.09122900382804497,-0.17224107422152565,0.699797525977314,-0.08144251525190342,-1.2571153299582551,0.0055974883892529834,0.10274367694215364,0.020633238811847605,1.328125
-0.0008334337532709021,-0.0091407089805013,-0.011660791151721132,0.04564319935233771,0.003519321212267438,0.0017037666165193826,0.00471082780498009,-0.009014501895637976,0.03554602344762457,-0.0035423252648991215,-0.06445628380305617,0.00030353307232770143,0.004657217919957642,0.0011491656522533815,1.3359375
0.007679993391901035,0.140578005781049,0.18606790698157774,-0.7268081905662027,-0.059541304162286916,-0.02621433475313783,-0.07362034282900866,0.13867540442916548,-0.5657393810636382,0.06697736955177025,1.016146864633347,-0.004486093256561359,-0.08404786907414263,-0.016460301133789507,1.34375
0.002322913807033552,0.04656483411325412,0.06163337778464991,-0.24104248613413443,-0.019912884905948287,-0.008683354144404147,-0.024429326961706046,0.045774695685587105,-0.18750332857196206,0.022678276128931522,0.33853694046060934,-0.0014743829827862335,-0.028258993693676435,-0.0053643623038091785,1.3515625
-0.005350163850192243,-0.08823603517273791,-0.11676901292811454,0.4551164413524019,0.036907862557968615,0.016450291981563767,0.04617913640381097,-0.08742683696754641,0.3547426305299632,-0.040868927762111894,-0.6343702867869244,0.0028410171388849196,0.05164187832340883,0.010528711198045156,1.359375
-0.002490235583354958,-0.03800578524055022,-0.050520658075392536,0.19611952682804676,0.015803005613260045,0.007082811161237622,0.019997956104151667,-0.037946807214255265,0.15312306601899894,-0.017235145929951835,-0.2721912550150245,0.0012346745419805909,0.021864694264595114,0.004634379837169824,1.3671875
0.00313467106000469,0.06079978224289521,0.08028590098422121,-0.3139295846157245,-0.02581427193313219,-0.011328404321037848,-0.03173834474207193,0.05967834504804383,-0.24424215061650603,0.029376096405607163,0.4414450171029984,-0.0019263380288795514,-0.036666575051390406,-0.006994307068684041,1.375
0.0013265856962087269,0.028931866562140973,0.038633481047745694,-0.15026442974392226,-0.01252711850005956,-0.005374246017686121,-0.015232657873039948,0.028445592635379914,-0.11661290724760807,0.01448503999632384,0.21123465438338296,-0.0009105842112259864,-0.01784563980450299,-0.003268064617791324,1.3828125
-0.0022958126976144752,-0.034839176347842254,-0.04538970305470161,0.17779349132738897,0.01413926188281018,0.006500425734351216,0.01802808463556327,-0.03441691034994008,0.1396586763101642,-0.015506966624171524,-0.2510968845242091,0.0011209200201730857,0.01975224915773769,0.004210712662816352,1.390625
0.0009566647366371545,0.022363003298459413,0.030044471757733157,-0.11750333025658474,-0.009989209688079193,-0.004200300473878145,-0.011855087744586077,0.021907629121185386,-0.08983968949391202,0.01136891068743235,0.1604617149117593,-0.0007141761352250205,-0.014226443508572478,-0.0025180582081839654,1.3984375
0.007286530527040571,0.13383675938745565,0.17704336527415715,-0.6916583266336666,-0.05674652153306165,-0.025003805044255607,-0.07007844040527479,0.1317812129452057,-0.5377989277145493,0.06376323476084311,0.9664124714059565,-0.0042753080962667465,-0.08009559924477819,-0.01561946363534198,1.40625
0.00602577129956024,0.11186034112014831,0.1479403517893795,-0.5773392675596661,-0.04726445651749368,-0.020899219578955186,-0.058545368738809625,0.11011547319606377,-0.4503576759151536,0.05333592808596079,0.8095301145699058,-0.0035644042065152456,-0.06682418788165494,-0.013046202787912655,1.4140625
-0.005353101746843587,-0.08817844394083219,-0.11607641629216542,0.4545648740693875,0.037023336175471544,0.016410037407716405,0.04604194564862803,-0.08713737732373203,0.35239601669845105,-0.04088494312099915,-0.6342146790021026,0.0028352405628983873,0.051783414350266156,0.010458269613827188,1.421875
-0.015239380960823124,-0.26211305038510785,-0.3455944065195162,1.3514113525176394,0.1101530398216358,0.048839363135884856,0.13695409634888853,-0.2586798623579672,1.0513652858241795,-0.1227511588577242,-1.8898328932346764,0.008395369760596346,0.15479681690658598,0.03092663626897862,1.4296875
-0.010145664732312529,-0.1726589214233069,-0.22767910073466816,0.8902322423039958,0.0724121011934537,0.03215112290869368,0.09023948029184227,-0.17054742894307293,0.6933825996106022,-0.08059159925071996,-1.2438187517868093,0.005535959741530012,0.1017607379793279,0.02045320322867941,1.4375
0.006086164275025767,0.11272923315583384,0.14857229083513726,-0.5812169464959965,-0.047673682631300424,-0.021061924940737577,-0.05879414835301392,0.11075440674438584,-0.4519395398180211,0.05375983799164787,0.8156774604195027,-0.0035846036011923294,-0.0673469969329597,-0.013083902313734286,1.4453125
0.015002885896228748,0.2695260352575514,0.35528900162560484,-1.3899709076425302,-0.11358829271649312,-0.05028707081581164,-0.14067702799807694,0.26536814050225277,-1.0822253491723572,0.12755550620560613,1.9467005125195536,-0.008595369408115224,-0.1602998386395593,-0.031550515723085294,1.453125
0.007747341152142886,0.14184684673889605,0.18712952892700813,-0.7321550241713654,-0.059893502745515186,-0.02646791879104544,-0.07409104158376846,0.13969947409229574,-0.5708104762272129,0.06750995243757581,1.0260250939731719,-0.0045158309331578455,-0.08474595447667747,-0.016578088891740134,1.4609375
-0.006153821743884979,-0.10272546389424947,-0.13516050105114555,0.5286731083463487,0.042888401900031785,0.01915376088104219,0.05352520497802391,-0.1012426646058289,0.41095597214662805,-0.047531027141570106,-0.7377154066103655,0.0032987786403731664,0.06007987109049003,0.01217880816343153,1.46875
-0.013559164813478564,-0.23285188535532444,-0.3069491700656782,1.1998225455446485,0.09757145421278282,0.04345192388379505,0.12151508752147404,-0.22967249460704378,0.9346823305134097,-0.10880109585649349,-1.6775354732711056,0.007456801994445293,0.13717842850965978,0.027514515499882274,1.4765625
-0.007954466933900029,-0.1340527052843086,-0.17690449427277974,0.6903261749413018,0.05602364676233605,0.02504687228612392,0.06999190412977883,-0.1325212323560073,0.5390995784912542,-0.06236553687399676,-0.9668326870473395,0.004297655634918231,0.0786835883456393,0.015911606638578574,1.484375
0.007642051846804889,0.14021168477207144,0.1851800237503385,-0.7245883571326965,-0.05936575062685192,-0.026133163375859875,-0.07331633632445737,0.13793670380598946,-0.5628178769831067,0.06675446687993765,1.0111891255866319,-0.004473730245401989,-0.08382965952986808,-0.016373764923185728,1.4921875
0.01646890702714825,0.2952269021871773,0.3902441207092458,-1.5243855974769045,-0.124579549306569,-0.05508989359456325,-0.15436688381676636,0.2910049476271594,-1.1866677247737913,0.1397667907167266,2.130190472549101,-0.009434175407071668,-0.17569861225185662,-0.034637806841099135,1.5
0.003489668863113445,0.06701305782259048,0.08915083676934464,-0.34696637388734447,-0.028466891379167684,-0.012521878690456815,-0.03508435213116729,0.06597530180121138,-0.2702073380233895,0.03227635140206324,0.48419722465370996,-0.002137425977538512,-0.04039148582514977,-0.007783883744260331,1.5078125
-0.016500131173070736,-0.2842961069594516,-0.3748268546445221,1.4655579523993973,0.11941581620608098,0.05303312417473002,0.14851657465573914,-0.28056513920570647,1.141652029497777,-0.1331545163742583,-2.0493832804774352,0.009101299795684477,0.16787851622917807,0.033567950339618284,1.515625
-0.013434976781312785,-0.23044551093894858,-0.3039731161033655,1.188068713267167,0.09669256395835313,0.04297355682171506,0.12032700703877118,-0.22741232816755444,0.9254728118509103,-0.10772955263797736,-1.6590274517242765,0.0073858843958640435,0.13594155219171872,0.027237060898344313,1.5234375
0.009050814356081335,0.16475939591124594,0.21754158530805703,-0.8500589766939378,-0.06963860772826086,-0.030788194340422872,-0.08615272215236307,0.1623316322608693,-0.6624995261652444,0.07835360515299794,1.1924595164139475,-0.0052492918557419995,-0.09831537331202408,-0.01925838979458834,1.53125
0.015667840505824246,0.2812193292905982,0.37105757147620866,-1.4503852933548316,-0.11854226983928258,-0.05251073559598768,-0.14685831255600915,0.27694918153328135,-1.1302016934977905,0.13305864742533352,2.0304205477198467,-0.00897539699836791,-0.1672887023978936,-0.03294576610699187,1.5390625
-0.0031936736003133196,-0.050220378490938834,-0.06645034185215454,0.25892217071325585,0.020960146442168037,0.009361804122954842,0.02633717668602444,-0.05000102247245048,0.20164761128625702,-0.02302647096629881,-0.3620269065428208,0.001621250668625044,0.029168006036311984,0.006052399758007017,1.546875
-0.017771023844301917,-0.30668548416423863,-0.4046408459897187,1.5809513781817426,0.12871993426847556,0.05722361220635127,0.16014105274704465,-0.3025963660231513,1.2315844077354015,-0.14360739953251442,-2.210646420429379,0.009822550256964773,0.1810745280589123,0.036204373441216756,1.5546875
-0.009834111038410339,-0.1674249065334556,-0.22057472201618486,0.8623568575029877,0.0700057394561283,0.031216725162368144,0.08728451194684173,-0.1650029045637282,0.6715697858522623,-0.07794005482092656,-1.204735991199044,0.005368921947217781,0.09847844666095293,0.019811624833506833,1.5625
0.004111366736935674,0.07783609670819436,0.10298090086535329,-0.40211812681167225,-0.033077840067557006,-0.014568028608488746,-0.040670107052646454,0.07661087464059836,-0.31342295906736745,0.03738463029371976,0.5630541765503331,-0.0024766384182075335,-0.04679188411193642,-0.009015467024712518,1.5703125
0.007886727799474236,0.14449161584839332,0.19072606828803082,-0.7454926168568526,-0.06097111427021801,-0.027006875967192243,-0.0753180784284857,0.14198484038476283,-0.5805794228468292,0.06860465115811748,1.0422934439868246,-0.0046104205283130275,-0.08620699928151472,-0.0168398766812231,1.578125
0.006512900754602821,0.12035293616419297,0.1589891471291947,-0.621408602203565,-0.05085501035695892,-0.02249445093584128,-0.06281300085222158,0.11828080826724093,-0.48380838933540965,0.05729201453157648,0.8690369353547563,-0.0038385176932583098,-0.07196362582574312,-0.014035606271631107,1.5859375
0.005564118402742199,0.1034439374607639,0.13698148569511515,-0.5349294256693106,-0.043881108903371886,-0.019332106580420644,-0.05419845263547119,0.10196655375679575,-0.41650129591776053,0.049478608530808876,0.7484807981547893,-0.0032975820042919746,-0.06207151258998012,-0.01209417004651224,1.59375
0.002007227897714353,0.04078163161911655,0.054413156609760385,-0.2120391592340553,-0.017568156648062546,-0.007629005952277278,-0.021525002382340643,0.040273173104105844,-0.16470106645325286,0.020046274034162103,0.2962941464571383,-0.0012943652205511505,-0.024983282938247593,-0.004719389723041231,1.6015625
-0.00010555739727247347,0.0036995109494124406,0.005396360887322833,-0.020610681080287185,-0.0019348301017435043,-0.0006891792287679576,-0.0020886175181886292,0.0035348699487769454,-0.015173264851172347,0.0025971246029860093,0.028272758772572314,-0.00010746296624697289,-0.0029694743019473267,-0.000317050210634395,1.609375
0.005967287458504625,0.11060070226967827,0.14627547261917476,-0.5714784083677928,-0.046856023275619545,-0.02061355390431878,-0.05787665989008706,0.10881782007401188,-0.444454266397995,0.05289570648751139,0.7998450750407133,-0.003521976417015479,-0.06624728930860627,-0.012873803835850942,1.6171875
0.008685279225635929,0.1585510223047062,0.2091998992111095,-0.817930582854539,-0.06690690068416612,-0.029547708452651148,-0.08284363532199207,0.1560459046574416,-0.6371143100218611,0.07535068755136633,1.1462812332151202,-0.005050562561630908,-0.09454435737552377,-0.018520046872421904,1.625
-0.00775595722852961,-0.13034879598286309,-0.1724091215563116,0.6729046078637393,0.05479726864912588,0.024362631160715367,0.06819687234927535,-0.1289144846153668,0.5238857785435087,-0.060788584681039294,-0.9377424320961105,0.004190886763485589,0.07679446919285399,0.01547164025442087,1.6328125
-0.028858685301606582,-0.5013781261959603,-0.6619901045767524,2.5862722245090204,0.21088551236503397,0.09358763480856681,0.26201645255689326,-0.4947568581295201,2.0147275800951348,-0.23543073595095843,-3.614438376962683,0.01605422488113512,0.29667488939627407,0.05912616837591185,1.640625
-0.024128943950103957,-0.4184628057711529,-0.5520964301882587,2.157261959682378,0.17576441322730427,0.07808686811919782,0.21853475416462953,-0.41277938299955524,1.680909049130045,-0.19623996533888405,-3.0170086997418433,0.013395914735263033,0.24734752047500472,0.04934674604238253,1.6484375
0.0025907594340925546,0.051116127258613815,0.06787627646278653,-0.26547212202194787,-0.021973959268972654,-0.009581280326781506,-0.026834370381059704,0.0503785673264864,-0.20666871810306386,0.02487921360764051,0.36907677954541124,-0.0016266730588665058,-0.03112165316759021,-0.005922064226744923,1.65625
0.01611837874128073,0.28904651316467406,0.38166398175046495,-1.4917875651529027,-0.12197284410735545,-0.05401109685554407,-0.15094903331704998,0.28478121311282484,-1.1626093323394773,0.13678562793775806,2.084866279138456,-0.009234188391273525,-0.1720864754883543,-0.03388780519307313,1.6640625
0.006599960471094866,0.12184288734917376,0.16088962145939312,-0.6283620704775852,-0.051479931244747174,-0.022815835772189957,-0.06349245070081115,0.11970277458650201,-0.4901461059169494,0.05801702167932731,0.8798323241196476,-0.0038835560696629636,-0.07285499191518104,-0.014173148655988977,1.671875
0.00011341060772145774,0.007639795144184723,0.010568258373842008,-0.03996838593172706,-0.0035514529812756815,-0.0014978654134996355,-0.004050947614086301,0.0072928418882231335,-0.03120258047280866,0.004366941329091048,0.05742197592743418,-0.00023463861931214357,-0.00522139171070703,-0.0007499184117195882,1.6796875
0.007815625865147557,0.14279235112851077,0.18924034449144564,-0.7383985857339203,-0.060616094835303065,-0.02669860394804426,-0.0748889708272835,0.14086884406069308,-0.5746325986387724,0.06809233664806524,1.0323231446168195,-0.004562390470173851,-0.08549342800524753,-0.01670146280633074,1.6875
0.01093976621744231,0.19779762946973792,0.26148902716711236,-1.021962817944992,-0.08367716133579897,-0.03692374841632422,-0.10348848215632547,0.1950087138310021,-0.7954322690024822,0.0939030994450458,1.428130986173985,-0.0063185140046323725,-0.11806754056659999,-0.02318078039236865,1.6953125
0.003408229614969724,0.06566377949566626,0.08668452860059803,-0.3391963064376226,-0.027838999894859866,-0.012235636796933017,-0.03419378751187059,0.0644180594681216,-0.2638722362613792,0.03157220354431169,0.4748558828226419,-0.0020850765444675556,-0.03954187215913694,-0.0075964020645672295,1.703125
0.0014172028360987766,0.03068378569288287,0.04069696393664874,-0.15851550133487302,-0.01309228856142793,-0.005713532930888797,-0.015968843810973625,0.02994281750755383,-0.12330440559931695,0.015144370063284182,0.22357375530949097,-0.0009651813946188611,-0.01873033370024647,-0.0034630068017611326,1.7109375
0.003925135404949904,0.07465914108239685,0.09899118985445839,-0.3860400871071138,-0.03172229190548281,-0.013932137627473482,-0.039170308209864134,0.07349719249230151,-0.30035247596291487,0.035959425071482747,0.5414834588108592,-0.002373915309836018,-0.04488063123749114,-0.008653873220816182,1.71875
-0.007226843583806989,-0.12126573941754225,-0.15993873712422355,0.6245623630637798,0.05075448157797473,0.022640599590192167,0.06319299744526591,-0.1197575477267136,0.4871052185157746,-0.056306859085289686,-0.8723230239822174,0.0038954907003070868,0.07124906052278641,0.01438620367594695,1.7265625
-0.022957828817788843,-0.3976236477297699,-0.5251028954352841,2.050786666994438,0.16718167022544347,0.0742154443703605,0.20773721865155134,-0.39240931521953804,1.597805843529478,-0.1865266886614189,-2.866394000395965,0.012738415189987855,0.23514135375458456,0.04690229034506089,1.734375
-0.01432514027267264,-0.24596400664572976,-0.3247446164968631,1.2686828476556482,0.10333870184215567,0.04589214489285725,0.1285093505281287,-0.24276354461735697,0.9879170612062823,-0.11513087447005017,-1.7721085816705542,0.007885196832620404,0.14520994828818232,0.029056197643844723,1.7421875
0.011267689108623176,0.20376986507640005,0.26913010081738525,-1.0514833680748075,-0.08602656332587576,-0.03803437474632273,-0.10651900145010708,0.20079790948413997,-0.8195372897959218,0.09667778948616867,1.472186603555992,-0.006502056452180856,-0.12147741645874413,-0.023851558020243687,1.75
0.015202337451400563,0.27297368899702745,0.3602781126536335,-1.4085354333207014,-0.11513541629433169,-0.05092368862794823,-0.1425896170079507,0.26887987339813657,-1.0970751889621966,0.12925871110526646,1.9705765986983688,-0.008712796414161436,-0.1624930039019718,-0.03197911665128004,1.7578125
-0.005319368137987357,-0.08778305353081273,-0.11594582418259529,0.4521639662544001,0.03672336808976721,0.016377941352479223,0.04596144361600814,-0.08690361045688222,0.3525599182839454,-0.04062984256602858,-0.6324064114256047,0.002825159043767004,0.05138159638542473,0.010452627062009449,1.765625
-0.011581604397632938,-0.19803805998845933,-0.2609316602631451,1.0201870512537359,0.08304126620317637,0.03688858623239522,0.10343533607043694,-0.19539081803947228,0.794406788537971,-0.092506457199092,-1.4275503973709343,0.00634247828100882,0.1166481176087154,0.023388726487629616,1.7734375
0.006998238572234663,0.1286253622938945,0.17054583761529957,-0.6651190183085185,-0.054492279007970344,-0.024078629895869248,-0.06733286757728255,0.12675841648980907,-0.5186434374205124,0.0613388750597902,0.9287120786301354,-0.004110510703138472,-0.07705587314952284,-0.015041725961184796,1.78125
0.01506445635327739,0.270725021814871,0.357612926679543,-1.3974230759073973,-0.11422245345010124,-0.05053447623560158,-0.14145284209268344,0.2665682386718698,-1.0882562758469871,0.1282034617527289,1.9530672690557804,-0.008648727499057079,-0.16119501238453746,-0.031713714402390465,1.7890625
-0.0039709629849316655,-0.06390255516786136,-0.08445234924644371,0.3291234073189304,0.026607349558287016,0.011928110898227482,0.03345671391323197,-0.06345829587027858,0.25739114141220026,-0.029397218849154753,-0.46035897891923605,0.0020583663544167323,0.03725046292584742,0.007672715563064373,1.796875
-0.020591439725817742,-0.3564405279927462,-0.4701627436438987,1.8375451305893906,0.1495505677609742,0.06646417383432324,0.18612997642108994,-0.3515444859710153,1.4321217746943833,-0.1671001567034927,-2.568984067219409,0.011407494075535535,0.2106011801088395,0.04205627762212373,1.8046875
-0.012570226149759604,-0.21550950689196532,-0.2837691373260195,1.110157750851551,0.09014515037693197,0.04015414225564441,0.11234624190736012,-0.2124026449079841,0.8651397750818753,-0.100693296919873,-1.5517439188657702,0.006895060076627616,0.12701142390449063,0.025457945099039272,1.8125
0.004254775224157588,0.08055972345527251,0.1066638941262382,-0.41652849327684616,-0.03431872169493418,-0.015025297833169976,-0.04225776418674472,0.0792796833258691,-0.32387333104765753,0.03871482649859648,0.5833001716944772,-0.0025654899506336293,-0.04843221673020856,-0.009350381497509795,1.8203125
0.012526860657450133,0.2259747973731346,0.2982460445147416,-1.1661118892128433,-0.09535645008802683,-0.04212698011501018,-0.1181065129003437,0.22255260828521284,-0.9078476230881705,0.10718678992122947,1.632367764790173,-0.007206557054549405,-0.1346128642140697,-0.026446762990676217,1.828125
0.01524004396754283,0.27331961030730373,0.3609375412210295,-1.410369573722718,-0.11524093730653925,-0.051012719588447365,-0.1428180089880129,0.2694381558487944,-1.0989553503797296,0.12947095519317242,1.9747951464431424,-0.008722309873656854,-0.16273426476055386,-0.03203364581277332,1.8359375
0.012756472314272238,0.22972107031291045,0.30346848084177064,-1.185218627493047,-0.09681947963224118,-0.04290319652740738,-0.11996326384881227,0.22638484650295296,-0.9240902934241548,0.10886042552493205,1.6597293722688775,-0.007331398338278242,-0.13683417070807066,-0.026898831478247762,1.84375
0.00022055599119926708,0.009890465216043608,0.012936507955807822,-0.05074201341876106,-0.0041672835967538294,-0.0018276757626708795,-0.0049805189703650225,0.009216002187439487,-0.03993591569122758,0.005280339188928712,0.07212411393228685,-0.00029670152070902333,-0.0063694617079519565,-0.0010066892085701573,1.8515625
-0.010015058369918851,-0.16989000951391395,-0.2244019044046474,0.8761653593205363,0.07144574965784123,0.031749631765370497,0.08886727819472601,-0.16809514668064032,0.6826323190181144,-0.0792907449020094,-1.225089553804597,0.005455246572427505,0.10018205405003769,0.020135297743346124,1.859375
-0.002914371730301145,-0.0455316156241284,-0.05976315396392939,0.23349468795353776,0.018839018993246748,0.008482098494798253,0.023622176425042066,-0.04499352439011475,0.18201781430307282,-0.020596370713321637,-0.32653212257655323,0.0014709695007825818,0.02624973456456492,0.00545551708047005,1.8671875
0.007168652107161841,0.1314541839777173,0.17394732709753705,-0.6795513611510979,-0.05579406426334571,-0.024603996090717204,-0.06892192620654645,0.12974597988517242,-0.5293229970606557,0.06271512465793123,0.9509487504340957,-0.004194797834731305,-0.07875550685134483,-0.015382417892980628,1.875
-0.0032642208477006436,-0.05162870597295585,-0.06823485487015157,0.26598256523711045,0.021408088184156515,0.00958140653730472,0.02695596896028014,-0.05113979562103149,0.20726905753264038,-0.023654301246395715,-0.37051528049309757,0.0016648444317176223,0.029938563907472,0.006192380750507149,1.8828125
-0.02464885990259174,-0.4272896274756378,-0.564225272368265,2.204111025767532,0.17967045192930586,0.07972291465957786,0.22336347722866012,-0.42182159948619496,1.7170009467665035,-0.20060168157072925,-3.081070099233194,0.013682623659650135,0.25278507565139413,0.050403853629854486,1.890625
-0.02760465630603151,-0.47947021093274417,-0.6324780442969277,2.47209001405175,0.2015361336300577,0.08945783955731797,0.2504551583063966,-0.47299846126972966,1.9258478956439573,-0.22506615267910426,-3.4575656510827253,0.01534485840116699,0.28365152814182026,0.05650549387827853,1.8984375
-0.00708091791560996,-0.1189634617654032,-0.15619474417493207,0.6114880313028537,0.0496057401793104,0.022178747136852195,0.061914821745252584,-0.1172134691855111,0.47699715030633755,-0.0552096295668918,-0.8574812239938566,0.0038077700461316,0.06976983412182428,0.014066817922382869,1.90625
0.015433178099849891,0.27684628787178184,0.3658900093017984,-1.4296544846052137,-0.11701912364969196,-0.05166116439072006,-0.14479049627422044,0.27292473087736874,-1.1125919358762264,0.13115875597179472,1.9973108139643079,-0.008848042204271605,-0.1649351164481345,-0.032458942232231225,1.9140625
0.02251883729044486,0.40155455122375877,0.5299672936190039,-2.0716565098792015,-0.16936708327065655,-0.07492972150930298,-0.2097237496509317,0.3955810819670058,-1.6130344496293267,0.1898164184978841,2.8978321972832686,-0.01282806901933253,-0.23878150470620352,-0.04706828962835659,1.921875
0.014186060425226596,0.2551112073196575,0.33664253091162677,-1.3157960352318538,-0.1076050534109496,-0.047631870361480935,-0.13316380832053018,0.2511559460309547,-1.0248729444135185,0.12082426021611263,1.8428724513084982,-0.008141639150012979,-0.1518609923000823,-0.029830318220112572,1.9296875
0.0019285062845450008,0.039588463218972865,0.05246754302740125,-0.20474245828121354,-0.01691121539928452,-0.0074245609307536506,-0.02070746387434086,0.038844607772377894,-0.15948996601591356,0.01937704589585277,0.28819585653868574,-0.001252024271296153,-0.024117348912305235,-0.004519892977222722,1.9375
-0.001031299681876924,-0.01255211503262357,-0.01613718902800413,0.06332909458222612,0.0049384522463785645,0.002319534707679506,0.006398693092447986,-0.01240347828777196,0.04942545559913366,-0.00508342435555762,-0.08872308454026888,0.0004130596156980675,0.0066452214361903674,0.0015718094310879444,1.9453125
0.006110420766303296,0.11292302329288757,0.14950002720618946,-0.5839107608621276,-0.04785810253975302,-0.021100559814749346,-0.059147277912083226,0.11132825648088156,-0.4552835210559833,0.054022401759316406,0.8167094530162369,-0.0035986533829349804,-0.06778688212886609,-0.01319385856245288,1.953125
0.00833350692333812,0.15222037223495574,0.20116296802128295,-0.7856592749144204,-0.06422188062259429,-0.028440585097447388,-0.07955261473289169,0.1498652428852131,-0.6129235089662559,0.07239397957938731,1.1008955664901532,-0.004852873788426664,-0.09088471176588786,-0.017787069720369163,1.9609375
-0.00418796267167144,-0.06751483016291704,-0.0892267093363065,0.3485345886868838,0.0283689361281608,0.01260905251409722,0.035372448586577475,-0.0671447284924975,0.2714481767998165,-0.03121152233567909,-0.4851226362093579,0.0021761504015877847,0.03959902393959075,0.008106045977943396,1.96875
-0.020307628984591975,-0.350887255194946,-0.4633460878223642,1.8097595301074583,0.14748275222101093,0.06554095034909149,0.18341208279877497,-0.34661456680680963,1.41102134659952,-0.16458132459080044,-2.5307190306703733,0.011238211897496091,0.20753070226385945,0.04145610432797353,1.9765625
-0.023200284653033226,-0.402216310246907,-0.5306490480948025,2.0734654968418247,0.16887315661728805,0.07508993812761632,0.21007026917741428,-0.3967518237615861,1.6158646433374524,-0.1885781655530521,-2.8999852039807767,0.012877067048622647,0.2377274547782127,0.04744047814111263,1.984375
-0.01032754833043195,-0.1762602851842783,-0.23192248682659483,0.9077138829986048,0.07380627272999046,0.03284983512092543,0.09188323482127966,-0.17344632116796646,0.7056754812043508,-0.08215318752099653,-1.2673924459172967,0.005648825598452696,0.10369408899175622,0.020780097493242482,1.9921875
0.00797499612762168,0.14565870068667924,0.19281262637300853,-0.7520452004363579,-0.061499794361753346,-0.027234925948007294,-0.07624246571202263,0.14386641414670476,-0.5876271600620051,0.06931638016114469,1.0548904918002324,-0.0046443102898396805,-0.0870438624192831,-0.017091359400721533,2.0
0.017791558592702775,0.3185560747597735,0.4204108400878878,-1.6433023100621418,-0.13427059603796862,-0.059460408848992244,-0.16640326382691945,0.3138079826761454,-1.2796163515677332,0.1506753868847102,2.298753124633045,-0.010170568366366825,-0.18946513498994766,-0.03734481671896361,2.0078125
0.0107518984567118,0.19492449992292535,0.2569904216440257,-1.0058241642214856,-0.08243275942451644,-0.036398468705867854,-0.10177096365591883,0.19163684996223038,-0.7810861955855599,0.09248697077645641,1.4041376749643462,-0.0062190516239805345,-0.1161792173301082,-0.022745060247196237,2.015625
-0.003544103197790326,-0.05640321790877165,-0.07447758517812339,0.2901649509271598,0.023269247737130332,0.010455388108218939,0.02944692263381763,-0.056032547687894396,0.22787082362696393,-0.025877063211135583,-0.4081746090182693,0.001813244154464573,0.032821606155719975,0.006785843254301721,2.0234375
-0.005099199350241832,-0.08378283892935139,-0.11047433105636022,0.43151426264017007,0.034964769330544675,0.015577107715533656,0.043762160259050616,-0.08292100373431972,0.33630241660347915,-0.03880918834874095,-0.6032693346751027,0.0026904413134808828,0.04906389050041665,0.009967444306221264,2.03125
0.004663850795892238,0.08771324364490864,0.11575723024219939,-0.4528366223607014,-0.03703250335792047,-0.01636312210867026,-0.04572050458529666,0.08611920117188429,-0.3533723461787782,0.0420072644376466,0.6353498309949782,-0.0027864517994193685,-0.05267204447729443,-0.010185263548569343,2.0390625
0.0025747181907552204,0.05080411495607742,0.06720182742977979,-0.2629300225414838,-0.021566742758343815,-0.009462223246420515,-0.026510528606270057,0.04984143172873995,-0.20541539653388816,0.024759728478794363,0.36958903271460586,-0.0016062940543879853,-0.03092478174465062,-0.005829301861880262,2.046875
-0.011567724026561928,-0.19789768912474115,-0.26050012073325474,1.0188205229480705,0.0828606971233632,0.036908260894441595,0.10312003081388063,-0.19505024809570556,0.7932731384545884,-0.09228449365182274,-1.4243012353586282,0.006335640067943022,0.11640951523757792,0.02337859445446143,2.0546875
-0.00873325708204511,-0.14801409773542518,-0.19440407450262992,0.7610715667520483,0.06176229841641787,0.027595714033287297,0.07693509511180303,-0.14575544324836262,0.5929748187282369,-0.06884625820420386,-1.0651280918850439,0.004732718393437079,0.08685346325374008,0.017472530314154543,2.0625
0.012206359792947218,0.2202421211301569,0.2912348973945111,-1.1375007380811406,-0.0930632712016312,-0.04108704489547487,-0.11519209649026445,0.21705633586916676,-0.8855345938000175,0.1044471514967428,1.5898236304195819,-0.0070378293946172345,-0.1312990750269864,-0.025807275859724664,2.0703125
0.013328258255177633,0.2401261380377605,0.3169841887943209,-1.2387400441990373,-0.10125537730895941,-0.04479724792214911,-0.125312964675007,0.23638730366388416,-0.9645184180030187,0.11373075986729825,1.7326029281989288,-0.007663943040912719,-0.14289008489311797,-0.028086601692636402,2.078125
-0.011338296500328042,-0.19345840447192728,-0.25528568540989893,0.9980580703181954,0.08119454082483729,0.036080104937153114,0.10113867168223584,-0.19104336352737764,0.7775533609123116,-0.09041540837169365,-1.3938903729615781,0.00620427341174703,0.11422669941093495,0.022919654866072524,2.0859375
-0.0173186614989779,-0.29868150513309644,-0.39398511811146913,1.5403859135809341,0.12542018726588153,0.05572550350053308,0.15598303139930053,-0.2946226676419899,1.2000131645540109,-0.13990488638088425,-2.1514625019578584,0.00956905118505906,0.17656711725223634,0.03526690563393069,2.09375
0.007636329930804243,0.14000305770683416,0.1847913750828095,-0.7222958045335945,-0.05906433510169769,-0.026095708593090686,-0.07305178569865424,0.13777201692510957,-0.5624487229679133,0.06662009993490356,1.012749473838275,-0.00445598671329542,-0.08351719917398494,-0.016338559452080997,2.1015625
0.016068541711868677,0.28839125706286256,0.3802148915516049,-1.4871517701610122,-0.12136367200627411,-0.05380151507853158,-0.15040308627302332,0.28377586528095533,-1.158409493796958,0.13638834482104498,2.0816854123691177,-0.009198801418774171,-0.1714943765774417,-0.03377662099723528,2.109375
-0.009698130636235515,-0.16451658120190701,-0.21750554006173545,0.8486563921191964,0.06911460970326869,0.030649568830220734,0.08603675957591857,-0.16277287196873677,0.660873295211365,-0.07684191277594725,-1.1860956853611395,0.005280169836282657,0.09688224140737034,0.019486825555259088,2.1171875
-0.022003173879481797,-0.38105998496542276,-0.5027696957378925,1.9643362876047858,0.1599746385217191,0.07103747358144101,0.19885904957300524,-0.3759122305399597,1.5298362181852754,-0.178634242728643,-2.7476062728049993,0.01219806582549417,0.22507320980353335,0.04491784314307998,2.125
0.0018945831957542208,0.03877228998781643,0.05167570803223607,-0.20180641349811676,-0.016789519119934215,-0.007270633084593201,-0.020499851644871524,0.038311526207034007,-0.15756938575385224,0.01912343771347807,0.2815612113649225,-0.0012302563051124916,-0.023874461497567893,-0.004487886052118485,2.1328125
0.019726138048391528,0.3521852086186218,0.4652059169218879,-1.8177950394937346,-0.14858977704923337,-0.06574066655000796,-0.18407505929185156,0.3472925718979502,-1.416264247631913,0.1666053929547105,2.5426147403628616,-0.011252291773122544,-0.20960033154938545,-0.04133582710874495,2.140625
0.007991323290434855,0.1459733298512392,0.19299198200206072,-0.7537343674886714,-0.0618039691269955,-0.027278690237245048,-0.07635368030182783,0.14388963831400736,-0.5868768686990564,0.06947124969992555,1.0551003305189803,-0.004658800446504169,-0.08729654714357038,-0.01705488656806419,2.1484375
-0.0017061070774971906,-0.024454419418707622,-0.031682928327483706,0.12470468757055671,0.009798158445013664,0.00453393762080914,0.012547703160557725,-0.024104119558225754,0.09827054975393305,-0.010676225694798118,-0.17460908513709528,0.000789003206638986,0.013749577325758192,0.003000177444789429,2.15625
0.0039510912364129225,0.07508631434923879,0.09973002680125315,-0.3890640871887728,-0.03209321907254086,-0.014001254146662305,-0.03939115816740308,0.07395760481547883,-0.30141252640809824,0.03620747489340539,0.5426267303609053,-0.0023942160181407153,-0.04518698838667723,-0.00869330454764538,2.1640625
-0.0013465962316602422,-0.0178406663519009,-0.023324788806612286,0.09124633608544123,0.007230454924762172,0.0033453065360546166,0.009407050843064582,-0.017982245825756464,0.0720353591227566,-0.007713710752533384,-0.1281996440245282,0.0005809537629217855,0.010023842329865354,0.0022653318208636923,2.171875
-0.016142403961722163,-0.2778113913281722,-0.3666675613340713,1.4331318783683944,0.11684428219404752,0.051824034012291416,0.14531041888444526,-0.27445392113539346,1.1157660952623738,-0.1302277945475586,-2.002811923124721,0.008898579897153529,0.16417240476801379,0.032837536769715944,2.1796875
-0.010228520820411018,-0.17392385997758197,-0.22930786916538073,0.8968001829186244,0.07309407253481061,0.03242597747787972,0.09086065131761101,-0.1717750890489967,0.6974548698961252,-0.08120867274462526,-1.252319859158491,0.005577781777437599,0.10250817631647736,0.02056710798412487,2.1875
0.006760601364364572,0.12463756005488974,0.1648113283262139,-0.6439953923533398,-0.05272401325641257,-0.023265368545786938,-0.06523586997681612,0.12278810389795612,-0.5014976314590237,0.05947739326257144,0.9011797006755934,-0.003970417439445993,-0.07454576503321714,-0.01456721892588586,2.1953125
0.001150288456206703,0.026050066131014193,0.034263274757832994,-0.13513249371683317,-0.011276680618182084,-0.004861291424705642,-0.013589989119919805,0.025358748526144295,-0.1041300872209352,0.012994957903608575,0.1887861213650157,-0.0008170848349713927,-0.01609748600721902,-0.0029220533124844216,2.203125
-0.013296646001056775,-0.22790452816625165,-0.30113759733793877,1.175458888849424,0.09571957918916264,0.04250962989875836,0.11922097392879583,-0.2252223062177424,0.9155875769993673,-0.10666305857874175,-1.6430838881646896,0.007306163716586659,0.13444012999509028,0.026966092165002748,2.2109375
-0.002370579302464306,-0.03596232401423661,-0.047419032504002916,0.1851053046479149,0.015011501783115994,0.006694355513861716,0.01880537880906032,-0.03568665566437306,0.14249351325994639,-0.016237187176671396,-0.2564887965869882,0.00116894516253488,0.02061757138361178,0.004318560828091225,2.21875
0.016539618503913854,0.2963810926263239,0.3915267685287261,-1.529742645203191,-0.12493650396683745,-0.05528896329083981,-0.15501871510748993,0.29229693463976225,-1.1927106655682178,0.14031402530449527,2.142111399516478,-0.009460413066376176,-0.17638133032486586,-0.034819111373879295,2.2265625
0.00869045015938834,0.15843924682273194,0.20923432973186445,-0.8180257117071484,-0.06701181624138265,-0.029538341316442715,-0.08288373273427317,0.15608621793138375,-0.6361888540878515,0.07534181725269087,1.1453750136536724,-0.005051829563338483,-0.09456981568313015,-0.018521394867961654,2.234375
-0.007497163638876774,-0.1261989238502175,-0.16658485798077255,0.6504917697452031,0.05268834352049636,0.023531719255636862,0.06598656078372941,-0.1248296394280115,0.5085198912952062,-0.05867617718736639,-0.9100339925228303,0.004047441441270881,0.07410456698415623,0.015046228002972424,2.2421875
0.0014730740401076024,0.03130337871884087,0.041678627860039105,-0.1622982569810811,-0.013622257844001145,-0.005903595309407106,-0.016372379631537606,0.03069061008296917,-0.12571789715170978,0.015560458971001815,0.22675239369396796,-0.0009917491994075886,-0.01935394262694335,-0.0035105179361130724,2.25
0.016707846419203802,0.29920325462528213,0.39556722489583734,-1.5445174134630393,-0.12627946707782578,-0.05587639038309514,-0.1564968229198947,0.29512951444661584,-1.2034161104484453,0.1416815402613263,2.160933814936221,-0.009559243072950726,-0.17809981460039026,-0.03510960608655495,2.2578125
0.005466425468488127,0.10195520498696502,0.1350118059195259,-0.5268862879445699,-0.043146566815434495,-0.019019861434388496,-0.05338526673186484,0.10043180591467016,-0.41036927615493335,0.048674195778474066,0.7369818207542568,-0.003251256367910912,-0.06102613799512847,-0.011916055901850853,2.265625
-0.01472409547597503,-0.2528850641673332,-0.33351158196740166,1.3033989599546194,0.10612767717267325,0.04718918682017919,0.13211095839671316,-0.24973324750175627,1.0161447533985275,-0.1183994939524257,-1.8250082154325737,0.008095050141197735,0.1492939175705282,0.029877294986813224,2.2734375
-0.011083913583547569,-0.18921228574344753,-0.24929012780677573,0.9746132964013392,0.07915961254798975,0.03524489107194962,0.09872898446509581,-0.18675890828851283,0.7598160166622551,-0.08824548124016882,-1.3646108212260768,0.006059915298831178,0.1114024737773698,0.022399344451800838,2.28125
0.003416857238684361,0.06558359956275431,0.08695937501992752,-0.3391561415336273,-0.027994554269804354,-0.012326606186142319,-0.03447958814991979,0.06470878881381036,-0.26481216432098725,0.03174947218709813,0.4769178679175279,-0.002081542950560695,-0.03960879049060005,-0.007602143182148631,2.2890625
-0.0026974862074213425,-0.0415625744234176,-0.05496931987914535,0.2146592462107287,0.01740652897813259,0.007727105507916901,0.02172472054878236,-0.04121263313311979,0.1657636989861334,-0.018909987772644996,-0.2954180804824076,0.0013511463363192948,0.02408088189165577,0.005002024968307613,2.296875
-0.02164463923914132,-0.3744614858654291,-0.4945130214099158,1.931671216216334,0.15757191385224112,0.06991816672122234,0.19584759820649092,-0.36974718100719994,1.5037892548878342,-0.1757342599729974,-2.6994125368784556,0.011994624455725645,0.2214119391176099,0.044184036606940896,2.3046875
-0.02116790088353812,-0.36641822572851457,-0.48334551987024194,1.8887482568359333,0.15391448074627107,0.06841257422389986,0.19145620098298904,-0.36153422533759066,1.4712492183199761,-0.17174683848203737,-2.6420943985067846,0.011730475478584692,0.2164527025732826,0.043226568807610714,2.3125
0.0025409792264950715,0.05010210223893329,0.06671556619165808,-0.26008859589428357,-0.021493408648877273,-0.009366412577236066,-0.026367085805147385,0.04948446921285431,-0.2025369490286895,0.02446944852940319,0.36423232194234123,-0.0015906948201021378,-0.030483582934669337,-0.005794434728397295,2.3203125
0.022583141173643656,0.40269660145789665,0.5315263129642955,-2.0775457742637244,-0.1696733910911641,-0.07517842753483547,-0.21039743629636107,0.39683383135349504,-1.61815362604591,0.19026898448302945,2.9070120871250875,-0.012862577730502986,-0.23931026585002785,-0.04725327714673966,2.328125
0.022325267233323717,0.39846696614838256,0.5254360534716106,-2.055281315892762,-0.16783058899565034,-0.07435296682144421,-0.207969198570547,0.39221859754644245,-1.5994920453224062,0.18811643467679012,2.872986136605695,-0.012728394539902883,-0.23674133048673687,-0.04672017741232048,2.3359375
0.011574258951663875,0.20928859447154413,0.2762364799427763,-1.0809353629447747,-0.08849500887840837,-0.039033565118734716,-0.10933274162090799,0.2058845146343069,-0.8393035435769104,0.09923183024118912,1.5073991844364585,-0.006685787354484382,-0.12477613756763999,-0.024474230815579142,2.34375
0.004331713543246643,0.08167657823283517,0.1085492607502279,-0.42365677228187504,-0.03493764858057637,-0.015254926725546313,-0.04293911782281119,0.08051212641422303,-0.32820581342868343,0.039365507920448746,0.5899760555619065,-0.002607659159738874,-0.04924231193695417,-0.00949616347578193,2.3515625
0.0013281137285599293,0.02900270321282254,0.03882340847465893,-0.15065205906940196,-0.01251022724019588,-0.005453907623499075,-0.015269200345303588,0.02850085254852446,-0.11764176003733853,0.014464280344535958,0.21231964522251823,-0.000915584269200433,-0.017884763338473775,-0.0032988557482887203,2.359375
-0.002512878947261977,-0.038246391947408954,-0.050729641352934604,0.19796813511706618,0.016047243736393088,0.007120346057399502,0.020186611188104615,-0.03816355473473982,0.15315634141630252,-0.017401455202279464,-0.27360258537736165,0.0012451455045658975,0.022142655478943868,0.004643523877275869,2.3671875
-0.007938284183364725,-0.13372133670066771,-0.17687541773012525,0.6904024250119932,0.05612670231656591,0.024965391442007673,0.07004348042974884,-0.13223029325221541,0.5374642298672055,-0.062319035023570536,-0.9629570913818628,0.004299649219887955,0.07871476418373327,0.015889127120913532,2.375
-0.01250817555670391,-0.21436701346996648,-0.2826695953488675,1.105259036975637,0.08986104478700084,0.039986669635363584,0.11190958658460555,-0.2113733235536329,0.8608519404416535,-0.10012784037522549,-1.5433156435032176,0.006870940982043846,0.12639403834239235,0.025360588779514682,2.3828125
-0.013296329140035633,-0.22829284355313453,-0.3005744789343398,1.17652094396953,0.09572220138177236,0.04254043089066239,0.11905569019376414,-0.2249711737539533,0.9154629148010368,-0.10665023416042681,-1.642604952854483,0.007310181579159822,0.1345753927130838,0.02696477939020059,2.390625
-0.0085821113388247,-0.14532478023701462,-0.19111251068116122,0.7484605855521865,0.06087935298841752,0.02706925875888903,0.07567985425491149,-0.14318272250313432,0.5812217218424126,-0.06761003561831677,-1.0440621751711028,0.004658856916437105,0.08536553105134288,0.017157491913095478,2.3984375
-0.002140420911088047,-0.032111474956166786,-0.04177206482611323,0.16427091040111694,0.013187063225232732,0.005992020550428348,0.016432771589178264,-0.031430320145312496,0.1263214964833475,-0.014248647186244037,-0.22688286047118691,0.0010426505480142152,0.01824173493037091,0.0038122233540717654,2.40625
-0.00013897464834428726,0.003069523772659415,0.004642714017279039,-0.017046512368167087,-0.0016651254563506018,-0.0005580155806240663,-0.0019308848703877106,0.003225706701234513,-0.013957437961485464,0.0023180678504312628,0.02704998634963848,-8.338741404780617e-05,-0.0025535887535672657,-0.00028775275160678826,2.4140625
-0.0005478546063597905,-0.003855134344160945,-0.004834939420439862,0.019333795248920246,0.0013243880624851535,0.0007100379973395887,0.0019822997400998407,-0.0040856564315348625,0.015877222975160303,-0.001116460068518817,-0.025916767369857107,0.00013354552886631372,0.0016711321006871035,0.000604102540355374,2.421875
0.0036649565545957947,0.0704999952679759,0.0927793927678421,-0.36418320892520456,-0.029929599575595007,-0.013179797806564253,-0.03657347288574604,0.06873780485099902,-0.2812966933587224,0.03373211876418652,0.5052150769445584,-0.0022469610570867195,-0.04235926324721677,-0.008109082655841258,2.4296875
0.010284022123066647,0.18684891653820843,0.24626477908475472,-0.9653343852509534,-0.07900143532661637,-0.03489252752081993,-0.09736870014095186,0.18346378461669155,-0.7490028058439904,0.08855438623497301,1.341755249731183,-0.00596891348497368,-0.11139664314048071,-0.021820921942899175,2.4375
0.011213827262223077,0.20299722411195292,0.2679644020647746,-1.049090892809739,-0.08583548916170188,-0.037923775584671915,-0.10595332364487133,0.19966012400006025,-0.8153743349035584,0.09626592612539603,1.4603544090056513,-0.006485798225572637,-0.12101426144469571,-0.023742698237170668,2.4453125
0.007331438955185606,0.13467163476462282,0.1779223605075523,-0.6953881699224037,-0.05687550991795562,-0.02519007891414398,-0.07027102039040307,0.13239201059617514,-0.5417748969816827,0.06408455131227835,0.9722853198335678,-0.004295265478834842,-0.08044603561613975,-0.015696541953040863,2.453125
0.004245594039026901,0.08045987120506384,0.10600400986983877,-0.4140252687463543,-0.03384631319441427,-0.01504177224888594,-0.04189728483478696,0.07892259536179048,-0.3234922773158897,0.03851518926524397,0.5851564428185129,-0.002549470849165234,-0.048235202942846125,-0.009308633262401137,2.4609375
0.0002998209132273669,0.011026109901834235,0.01418339586165363,-0.05584620909775594,-0.0047365062424451964,-0.0020227931447131795,-0.005711349219763537,0.010591871988108388,-0.04367036141561762,0.005916645592735633,0.08504192856415074,-0.0003232168698910661,-0.007131383744404857,-0.0011459613616629997,2.46875
-0.0059852247733164525,-0.09967972236238402,-0.13137986602098883,0.5133515845320127,0.04151386685844957,0.018652181074312595,0.051924675622518776,-0.09830211086913332,0.4007622957661188,-0.04603326047105113,-0.7157841660453066,0.003207026192570062,0.05831947251215831,0.011855124782882306,2.4765625
-0.00860680966718848,-0.1459515811152817,-0.191754153253539,0.7504735925013394,0.06084597715901135,0.02723712075637328,0.07597266308645655,-0.14372830595693814,0.5848988504486559,-0.06776510558613237,-1.05153203051434,0.004673361250596637,0.08561379832694616,0.017255112032159882,2.484375
-0.006598452915537775,-0.11060037155039411,-0.14517711367384836,0.5686943552855639,0.04617967767629542,0.020594773217361532,0.057538687453623574,-0.1088720450187503,0.44153593136351066,-0.051245655507293576,-0.7951739720499866,0.0035443293916265196,0.06470586613135906,0.01305979199437459,2.4921875
-0.006935081102418106,-0.11625986209187904,-0.15332184992861905,0.5996728300832533,0.04880387226892209,0.02166459646682554,0.060620440577025175,-0.11465943639851998,0.46511364788788834,-0.054069434334071825,-0.8334007351039383,0.0037364103122476625,0.06825109273073617,0.013748177071457694,2.5
-0.00784799070595368,-0.13211142586695684,-0.17443035906310866,0.6818898432590129,0.05543435486631685,0.02465757799094794,0.06898010291282242,-0.1305201509787288,0.5307062772317297,-0.061554786537915,-0.9485546285532576,0.004243497507731442,0.07776931564250661,0.015680310336505993,2.5078125
-0.0009439741111986591,-0.010810858263079835,-0.013732878268225638,0.05468534646927363,0.004173123552675359,0.002019916023764393,0.005559853868392892,-0.010914492570701595,0.04370693673690379,-0.004323578634277605,-0.07726650280123026,0.00035194042273650305,0.0057923444097194845,0.0014369758470336655,2.515625
0.00825667659336112,0.1507706609236469,0.19994726291492362,-0.7800311107918273,-0.06389750080843781,-0.028159407018074088,-0.07894831492318992,0.14860741248312434,-0.6068522379025965,0.07183984125294476,1.0869348317281864,-0.004820799397381197,-0.09010926104802876,-0.017617775327868554,2.5234375
0.007214154983434805,0.13248542609175382,0.17533270851213412,-0.6848954116065333,-0.056048974547947134,-0.02475564206906193,-0.06935160424370536,0.13063075686538322,-0.534011358634141,0.06313833778349878,0.9572434691215457,-0.004225982382192019,-0.07922051286554017,-0.015514224371401722,2.53125
0.0006524465733050845,0.017346765597835392,0.022560730036504002,-0.08923906613280677,-0.007404183703963794,-0.003258396483966727,-0.008978220873198451,0.016831904915907185,-0.0700941476435737,0.008739621127541237,0.12779520799617206,-0.0005326527110358003,-0.010788662520172274,-0.0019478668545159976,2.5390625
0.001243989689500507,0.02784972335760268,0.03619189714885268,-0.1429128229354576,-0.011796593233092094,-0.005207295542440772,-0.014266611129961786,0.026859038629270447,-0.11062544458235866,0.013620617817058547,0.20117550797818176,-0.0008694161963551851,-0.016947368145315226,-0.003114818304438203,2.546875
0.004147734922263425,0.07877355537795441,0.10380397409995261,-0.40664837033034673,-0.03340297031378472,-0.014703327690218825,-0.040918815091132654,0.07705484769832892,-0.31499206399349267,0.037734097496118786,0.5662807381519619,-0.002506503068675067,-0.047283867018688315,-0.009067531544825525,2.5546875
-0.0017671519329086082,-0.025415214178116655,-0.033239683830472544,0.12961689045117844,0.010225365382810016,0.004730620697677991,0.013257914123207225,-0.025364638100600738,0.10243779513594856,-0.0111378115457136,-0.18404386980567708,0.0008207692877883475,0.014278809748459591,0.003156052426942733,2.5625
-0.008599965948780717,-0.1456301106543205,-0.19179311859413564,0.7496968730845782,0.06080920915589156,0.027126102277836503,0.07588413951388359,-0.14362731816473792,0.5840130274027193,-0.06769407631404284,-1.0481779286445478,0.004668962305056532,0.0855023163420235,0.01723616821000611,2.5703125
-0.002851708162182524,-0.04449459540683094,-0.05857093041907802,0.22895143403860574,0.018466357507133466,0.008221962031309687,0.023120393043321266,-0.04397678684774152,0.17721563544807234,-0.020173733689527955,-0.3171118747252844,0.0014417287367999752,0.025659919014845853,0.0053218041051486835,2.578125
0.007015091244548454,0.12909446997551027,0.1702842129293193,-0.6659337231766554,-0.05448058411632786,-0.024143510117780535,-0.06741642779736645,0.126941003192843,-0.5193075512331119,0.06147821904115203,0.9342983797634874,-0.004108723064085589,-0.07718698083076468,-0.015061949496523324,2.5859375
0.003499345199013279,0.06726930663916322,0.08887381505923582,-0.34782523929574943,-0.02867789206956188,-0.012542704345273364,-0.035151147909087604,0.06595811429240273,-0.2697521219763002,0.03243410206500136,0.4867143605835104,-0.0021397410000469743,-0.040653606945145845,-0.007761725060592465,2.59375
-0.008387314204486317,-0.14186402464679534,-0.18663067722463242,0.7296688489923946,0.05910546280069702,0.026506565689102587,0.07391979870077638,-0.1400127684865122,0.570190330426205,-0.06588870393579768,-1.0224746850765294,0.004540545642167062,0.08315957949999565,0.016819234677722908,2.6015625
-0.008885088733981146,-0.150699978813444,-0.19804676412681418,0.7751038914372336,0.06295059762073588,0.028122198385955394,0.07845284951904218,-0.1485441136047489,0.6040173497289736,-0.07002247683849122,-1.0851808246876096,0.004824558933346291,0.08840099994719008,0.01782083820800466,2.609375
0.0026985970014276046,0.053055119837783486,0.0706348433009336,-0.2748628958463476,-0.022476660309863273,-0.0099335265878935,-0.027888390157258407,0.052343905062291064,-0.21572542320395421,0.025738507544739154,0.38584567034140926,-0.0016860124702043867,-0.03218244596650118,-0.006168251327860063,2.6171875
0.007893558952451963,0.14455471205417583,0.1910441004613335,-0.7458713620082668,-0.06085533562446841,-0.02699927714493494,-0.07554130224352827,0.14247684804392474,-0.5827077282440539,0.0686067561899063,1.045538536607013,-0.0046100555690619955,-0.08617132196820734,-0.0169323121458591,2.625
0.0018764682350909685,0.038859135076765465,0.051287511600531036,-0.20030202716547757,-0.01645234934982022,-0.007231964137883756,-0.02022568702842476,0.038135647548289464,-0.156407251710631,0.018797347936636895,0.28167608863029925,-0.0012268219417077768,-0.023368358173888958,-0.004472584439895493,2.6328125
-0.0003054128179321601,0.000499976576126249,0.00037696792366830956,-0.0021675789377747184,-0.00036369226325927493,-3.1482604278582706e-05,-0.00010342654303718501,0.00011033626198517381,-0.0009420171066618923,0.0008470712027505531,0.0043288858956552975,7.889448044371859e-06,-0.000638944655992463,9.548869650251849e-05,2.640625
0.005488022725735729,0.10228790741828835,0.13454284906079075,-0.5270192675330978,-0.04321168475109431,-0.019032464244154324,-0.053237767440276015,0.10036659267268179,-0.4096251694766715,0.04886735871417943,0.7391479849002991,-0.0032433600740101147,-0.061102310783706364,-0.011838065525562618,2.6484375
0.004128822844834193,0.0783064205558354,0.10313904593437659,-0.40373473021636946,-0.033207040204371485,-0.014627804476393119,-0.04081311871248086,0.07687563879638233,-0.3141409994444051,0.0376023401531728,0.5670082980517908,-0.0024833584386568476,-0.04703394808334901,-0.009035962983510339,2.65625
-0.007510451418918148,-0.1263396972286419,-0.1664566725000094,0.6509584936573708,0.05278284732718088,0.023487372171810437,0.06587924671633497,-0.12469520136518418,0.5070351030594391,-0.05871188381629481,-0.9087334045306512,0.004051319526060963,0.07417281628419163,0.014992667896615576,2.6640625
-0.011357420677101833,-0.1939401186581518,-0.2554415876211031,0.9989757881356287,0.08116485540274851,0.03610137637916947,0.10107394944073853,-0.19136540382590778,0.7786346342641428,-0.09048520088305483,-1.396646927745849,0.006208932884887082,0.11417591264999268,0.022933407440084118,2.671875
-0.0022033757509590055,-0.03305830714913437,-0.04322963395254483,0.1689726998016828,0.013479513002334537,0.006137031520629744,0.017132282168005893,-0.03287208521431722,0.13283974153154238,-0.014752091676001413,-0.2372072275684459,0.001063719557541426,0.018750854957353357,0.004020282485293334,2.6796875
0.0013406772380219606,0.02912134041281163,0.03874431893590183,-0.15173912230953435,-0.012626165999382636,-0.005430994240441458,-0.01518642709548263,0.028462781721132983,-0.11742707332059994,0.01446591525595555,0.21046620046575265,-0.0009242020961495855,-0.018132249811296065,-0.0033083888996256324,2.6875
-0.006621564413700731,-0.1108632982927801,-0.14585476919154847,0.5701540414150934,0.04633309931564584,0.020672643691976553,0.05791001710931098,-0.10939302258723231,0.44359958634660873,-0.051438423918650646,-0.7990648075408058,0.0035535410240511945,0.06487418221005077,0.013117634385915428,2.6953125
-0.006720987030693582,-0.11244999821055694,-0.1477922091581828,0.5781989989113048,0.04700241391244782,0.02093805270233876,0.05855577725910031,-0.11089560302609702,0.4495380545062386,-0.05215162336648399,-0.8099236010956766,0.003604292068617661,0.06587046272266395,0.013282889821793282,2.703125
0.007121772090682109,0.1310238416266777,0.17339898086832284,-0.6772250423156361,-0.05545428251096135,-0.024497845619984533,-0.06865853439925433,0.12903931736487856,-0.5276091338405628,0.06244038080071113,0.9465110834395382,-0.004181767607471069,-0.07838457905157589,-0.015332885438976636,2.7109375
0.01337583901873549,0.24090845134548886,0.31806184111892827,-1.2430890023348156,-0.10163555928504468,-0.044977490541727005,-0.12585311305025906,0.2372352373197462,-0.9681087804681884,0.11412166392372522,1.7395212310648978,-0.007690363377300812,-0.14344500345064176,-0.028207526070624787,2.71875
0.0029617098807856517,0.057704883395995006,0.07608053607223472,-0.2976433688316885,-0.024507922956984698,-0.010763992582535794,-0.030020431172879915,0.056611182326955875,-0.23206393281284404,0.02792571398586709,0.4188489089809673,-0.0018233367876717785,-0.03481299492515567,-0.006623853882320861,2.7265625
-0.0033719548479303582,-0.053687777832735414,-0.07080919410859784,0.27655308916884946,0.022293344954451372,0.010023777802591694,0.028041524819840336,-0.05307561774970972,0.21520951071151936,-0.024426692151391205,-0.3842109372894625,0.0017400386311443086,0.031185074149857873,0.006468114787043933,2.734375
0.0053232808322466,0.0992170304357547,0.13111942070328308,-0.5123768864428002,-0.04209318520393536,-0.01853129073404084,-0.05196435476631054,0.09774498810678545,-0.3990469350393608,0.047511187436745185,0.7187533011852687,-0.003155844160650149,-0.05946863261090876,-0.011544979085798013,2.7421875
0.009101279353339133,0.16575958429514737,0.218815394785577,-0.8550940509076511,-0.06997870225589527,-0.03095600377990745,-0.08663951253547539,0.1632004286164148,-0.6660924290070869,0.07868494489643367,1.1987135781164273,-0.0052870548541855645,-0.0988370007481768,-0.019366344460276748,2.75
-0.005512139084143352,-0.0909725402141576,-0.12019400805365309,0.4694513098824094,0.03817262364286437,0.016984304377794215,0.047600928774015734,-0.09014511295924933,0.366025887755783,-0.0422589189576502,-0.6542706705065956,0.0029242924565568255,0.05343782184417427,0.010861291280577128,2.7578125
-0.01937621836823529,-0.3346257604001792,-0.4417396405061338,1.7256269068445345,0.14064813531128514,0.062491943134782395,0.17487019219992259,-0.33043535670698343,1.3457876251450323,-0.15693748914309139,-2.4143869644254394,0.010714951632379168,0.19785098441535715,0.039519361992308925,2.765625
-0.01228489211447378,-0.21007662199166954,-0.27720644143847095,1.0826108278080784,0.08812121866636066,0.03924595170309552,0.10977119437803778,-0.20752807891203204,0.8453669047845412,-0.09826522823682994,-1.5174751303489062,0.006728261943707948,0.12391118838265607,0.024835194245908666,2.7734375
0.005519604964588061,0.10270237357390434,0.13577617773069034,-0.5306061447127581,-0.04354397357181175,-0.01917456334502533,-0.05361357183869333,0.10102595011340543,-0.41261398776932634,0.04902483204781907,0.7402764564316081,-0.003275751760499461,-0.061595212202128886,-0.011970851454985495,2.78125
0.012538816980505085,0.2259201587903191,0.2986497345573059,-1.1662141270712925,-0.09544859626813364,-0.04222231971453749,-0.11807903815938875,0.22271967994758465,-0.9091185540158422,0.10713677357990803,1.6317138929008024,-0.007216338353913654,-0.13468839462345078,-0.026456683312499975,2.7890625
0.0061629168155855115,0.11378788909111402,0.1508511552423019,-0.5884556986568226,-0.048326336220026744,-0.021303042912130716,-0.05967844429835275,0.1123295126784412,-0.45906437155285884,0.054456199034540416,0.8239680722977687,-0.003629562814292253,-0.06823525358771819,-0.013279002722248811,2.796875
-0.002805760533925854,-0.043746523025968875,-0.05720039504849438,0.2240691940427925,0.01806659594939152,0.008137229592975918,0.02262983686758042,-0.04305374038488947,0.17403093645289844,-0.01971914256573441,-0.3121310731763809,0.0014139470119499545,0.025193898750080098,0.005223321819733755,2.8046875
-0.008585457237632406,-0.1451212409902338,-0.1913712387760665,0.748015632750734,0.06094882595049073,0.027092708549938335,0.07580456489892062,-0.1432748314193796,0.58149153799126,-0.06756978873770984,-1.042823066040903,0.004662881717632382,0.08537839581703524,0.017150477538666335,2.8125
-0.009555675717412367,-0.16208181629155663,-0.21396410373919456,0.8362239105976944,0.06812032924639626,0.03024570945814172,0.08477441197362034,-0.16018474003873115,0.6499782296547385,-0.07564563551741407,-1.165447567376132,0.005203974697353504,0.09545399156237637,0.01918131875596444,2.8203125
-0.003360196571760035,-0.05331015222174954,-0.07029570309007732,0.2744906201506185,0.02213482913575688,0.009911648472955751,0.027848956072031705,-0.052904463553164166,0.21352276491156144,-0.024388884337954518,-0.38259485268409793,0.0017173116883565515,0.030875666450664536,0.006413363868402965,2.828125
0.00638852020550118,0.11789176293806394,0.1558989127701897,-0.6096652261607536,-0.05005916605702864,-0.022039481626789707,-0.06167979623890734,0.11600778641957162,-0.47415748768497235,0.05633210446368408,0.8510436164947105,-0.003761465559057133,-0.07070208244110576,-0.013726713200719222,2.8359375
0.009641415302660652,0.17507459573980078,0.23151849240367595,-0.9046700229600634,-0.07404887034442913,-0.032686201743666946,-0.09152370487280623,0.17246566636921912,-0.7041271454722448,0.08328099449212541,1.263961776452109,-0.005587593108061555,-0.1045415373399158,-0.020467686590885305,2.84375
0.0030523229908324813,0.05936276979867299,0.0786681641232191,-0.3069299474694671,-0.025252070815044405,-0.011095517477625326,-0.03103813953533835,0.05839626499015747,-0.238819882477717,0.02868049420208271,0.42992610788595753,-0.0018854059341733038,-0.03579753009564916,-0.006861407385330179,2.8515625
-0.00503499265932893,-0.08271063863146638,-0.10926529504702316,0.42659412635458926,0.03451396817999746,0.015391661517802767,0.043190938052612725,-0.08179670261369582,0.3332599086796145,-0.03834030413835985,-0.5955231895790323,0.002657997344933209,0.04849302172987695,0.009867840339400587,2.859375
-0.005457142390719512,-0.09013902944136602,-0.11930415116412743,0.4646571519674813,0.037577430272324464,0.016789078938581364,0.04708992945094968,-0.08927294402620509,0.3637370511139573,-0.04181152573754857,-0.6499192002413783,0.0028963927532535327,0.052817640802387225,0.01076059796409001,2.8671875
0.0025535739786956414,0.0505356610572969,0.06681142695887009,-0.26195427138129035,-0.02164674113478363,-0.009415014754145665,-0.02644854205112985,0.049545198164604794,-0.20257949938364606,0.024569355381425677,0.36516289264419916,-0.0016040962954214826,-0.030705729169570498,-0.005806894806307362,2.875
0.011913584464144426,0.2149052960383347,0.2844669343828138,-1.110512427926892,-0.09081819886128761,-0.04007818621924393,-0.11244517797586555,0.21194688926427097,-0.8646640288330139,0.10204230500026683,1.5515210338281615,-0.006866216354739822,-0.1281895940479987,-0.02518963774877188,2.8828125
0.013228623033429004,0.2380853959015016,0.3150801476761933,-1.2295835453950525,-0.10050932018078043,-0.04445610157049641,-0.12455595266089234,0.234845800782581,-0.9582234904746715,0.11288568777794383,1.718695284322426,-0.007608147971690927,-0.14185081038349956,-0.027925672321427213,2.890625
0.0030267147207100444,0.059047109120725506,0.07804046101172715,-0.30467845290883583,-0.025014806449940714,-0.011091514142829103,-0.03082726256800479,0.057929106122104966,-0.23815754909975273,0.028466867495869352,0.4274066576647825,-0.0018734832326984157,-0.03560320750226973,-0.006819470371583576,2.8984375
-0.012300681340245565,-0.21018005652575888,-0.2778391548585828,1.0850024693997429,0.08837753170674739,0.0391714400012495,0.10994347679495695,-0.20783636678380912,0.8441859508344743,-0.0983280305127647,-1.5133670860582558,0.006745369917058679,0.12403710753092206,0.024889613151123136,2.90625
-0.02285722020837321,-0.39577827901957674,-0.5226381302540987,2.042098609166537,0.16640563570945777,0.07387664172738428,0.20679024824498904,-0.39077232724176036,1.5902075808416491,-0.1856506306865096,-2.851573683099155,0.012680451511056156,0.23403858798737823,0.04671809891321892,2.9140625
-0.021986401529135037,-0.3805886623934569,-0.5022153670000541,1.9627644776269018,0.15989641349513112,0.07109711378682952,0.1987425805305239,-0.37560885520912973,1.529407998859167,-0.17844734997610143,-2.7435771531149697,0.012188857876070134,0.22501403046725282,0.044905318896956044,2.921875
-0.008168473279226788,-0.13787062842091943,-0.18173364839131737,0.7099892028103367,0.057751281323166745,0.025796014447637915,0.0720091076396752,-0.13612237876859595,0.5538312686411032,-0.06420144756601782,-0.9941874105389125,0.004422477270156039,0.08111192561660284,0.01632084396795841,2.9296875
0.00983447500219841,0.17833578211033088,0.23565484690873623,-0.9211413733379277,-0.07528591677224243,-0.033277547860242694,-0.09312110254812632,0.1758721767497403,-0.7176003781946901,0.08462267334432227,1.287974060857349,-0.005692084639883437,-0.10637455522632422,-0.0209024868233433,2.9375
0.01498672701295512,0.26884427592447807,0.35522127469405473,-1.3875510968553602,-0.11342755339926411,-0.05022731299327185,-0.1404814968825743,0.2651872093766959,-1.0815778172102097,0.1272623196510057,1.9427003363813422,-0.008587729716130458,-0.16005459195842933,-0.031534896073684135,2.9453125
0.004708366267028906,0.08843505614477204,0.11710115890282037,-0.4567523941285111,-0.03756046408333636,-0.01654603159143237,-0.04627035362938078,0.0870758942628174,-0.3561350848111519,0.04240966971285339,0.6405641307755945,-0.002816632953764908,-0.05311469346263679,-0.01026898503426432,2.953125
-2.4140764342257868e-05,0.005434720358736171,0.007365568184491646,-0.029022484689710568,-0.0025854693920446432,-0.0009950252620049749,-0.0028080930850830307,0.005034856148898799,-0.022373619608895102,0.0033742546927433502,0.0397663941013463,-0.0001584866170175886,-0.003947523543822096,-0.0005020135097356005,2.9609375
0.011042529249611759,0.19983250339164738,0.26378449047047897,-1.032043879451553,-0.0843388071174743,-0.03726718936514422,-0.1043146957878253,0.19677775566150316,-0.8036286318771929,0.09487005788077962,1.441945302745006,-0.006373137592632188,-0.11922001215734439,-0.02340350716075427,2.96875
0.015321098781889126,0.2749398811259489,0.3629547951635358,-1.4190913971810832,-0.11600725914613967,-0.05136668762624099,-0.1436722499913947,0.2708916487893519,-1.1050235844050207,0.1302042255839084,1.9852539530850797,-0.008777318452506785,-0.163702961514621,-0.032228125152429496,2.9765625
-0.0022495852064412063,-0.03383081158184851,-0.0443250396924912,0.17361931076500267,0.013790833868381256,0.006175746300321034,0.017479763838886015,-0.033616033923225236,0.13603188268683694,-0.015146112359497229,-0.2414488626264939,0.001090038521403761,0.01936068174675165,0.004138223566305701,2.984375
-0.015580779015761227,-0.26825556576376436,-0.3533659051477929,1.3817217501948862,0.11234443812285569,0.04993065125361482,0.13987175420690517,-0.2646133113586846,1.0771159881822665,-0.125470246444492,-1.9329420372086628,0.00857871867463407,0.15821680544157465,0.03169840482801407,2.9921875
-0.0007545380973804573,-0.007899406235615226,-0.00955019958497342,0.038039486831997434,0.0028101911355330467,0.0014085715138025755,0.003842002507287298,-0.007617327677612449,0.02995132655912783,-0.002868021136007563,-0.05486391544713666,0.0002520050307827752,0.003798528438151645,0.0010135660081446631,3.0
0.018223643456921373,0.3257709832057398,0.43057787037714973,-1.6818635211134076,-0.13743842435586587,-0.0608012898579826,-0.17041241988700676,0.3213146154451274,-1.3101200644882158,0.15419667475058552,2.352703211283735,-0.010407794952696826,-0.1938243094447073,-0.0382307228407384,3.0078125
0.007720796496480458,0.14152756984846174,0.18685790410415226,-0.7296141889883079,-0.05970783160345832,-0.02637576767242022,-0.07399235990442961,0.1392807948193812,-0.5683872798103257,0.06735993307808541,1.0237942946391558,-0.004503171984527777,-0.08436009261839318,-0.016503818832124637,3.015625
-0.02069235187264434,-0.35777526401060966,-0.47255300377630904,1.8463546225460432,0.1504791358204296,0.0668344299475417,0.1870344628095944,-0.35321997895823687,1.4381478100371163,-0.16782194792100083,-2.5790520141183064,0.011467233230351849,0.2115912535899685,0.04223031044296713,3.0234375
-0.032195450038032154,-0.5600475184461284,-0.7396748915970905,2.8892650580798827,0.23553097219278582,0.10458240926612006,0.2927824820990939,-0.5527047715341608,2.2506922616656624,-0.26309229210231283,-4.040244302135094,0.017931920447716108,0.3312835486822578,0.06599500748078503,3.03125
-0.019789852951046842,-0.3418560592106951,-0.4516932212684798,1.7638767797950394,0.14363459286225488,0.06383196435414247,0.17877027436512768,-0.33776521819982397,1.3746309537534984,-0.16032183917253198,-2.468016095428772,0.010952160274254961,0.20190616333985043,0.040360732766265596,3.0390625
-0.001260918759448317,-0.016008365130682947,-0.02137659900802451,0.08309721583329319,0.006483594483751087,0.002992930936402846,0.008463904372438926,-0.016549859302952146,0.06567269184893502,-0.006839323625548621,-0.1172058897932935,0.0005299442243279491,0.008877611359698594,0.00207695177730656,3.046875
0.012095226039363378,0.21853602418595466,0.28870279866858517,-1.1278452080517667,-0.09222753090654234,-0.040793924674991454,-0.11416998564457592,0.21509891628798303,-0.8782563764484305,0.10362819289651369,1.5769501294410193,-0.006976472067261761,-0.13012485619292213,-0.025551319721728052,3.0546875
0.018568335007330856,0.33200247288933693,0.43885580119546236,-1.7142251944593159,-0.13994016619658775,-0.06199491083482089,-0.17350932722843682,0.32740546937608117,-1.3361425576548356,0.1570330645962556,2.397899343806652,-0.010610023155723038,-0.19742367266986532,-0.03897493452633267,3.0625
0.016781339528907927,0.30059421258534613,0.39734591453391727,-1.5519598603064886,-0.12662529384045512,-0.056160094142721696,-0.15706190943853182,0.2964507721459004,-1.2102562875779401,0.1421745165692771,2.1726350991471852,-0.009604523500664222,-0.17873599477402122,-0.03529182263176817,3.0703125
0.010224712269778915,0.18534408028420116,0.24498449423213872,-0.9569621020183416,-0.07811300493805337,-0.03463398039398338,-0.09679926755115419,0.1827550905776927,-0.7462698270811798,0.0878707802439097,1.3415550772824878,-0.0059163566907685355,-0.11036674544125977,-0.021707150277510003,3.078125
0.005951324721527234,0.10988903568747306,0.14534581382501185,-0.5683905391037336,-0.04654580835137533,-0.020493172460986184,-0.05745178598624492,0.10860909369296495,-0.4425129709494718,0.05243299662569227,0.7969919763243162,-0.00350387893443986,-0.06579688433500867,-0.012837676095659632,3.0859375
0.0019973607124416717,0.04019769408746609,0.053424296883037334,-0.2096723587087541,-0.01743300134606379,-0.007458170467955759,-0.02119406498970684,0.04003903178708697,-0.16219409072084012,0.019780343858251666,0.29337790222317134,-0.0012752476805759374,-0.024672117542024037,-0.00464611360882405,3.09375
-0.007925893841217281,-0.1337920782923414,-0.17631447502998254,0.6884812727496549,0.055782465090949016,0.02497177523922979,0.06966265441203667,-0.13194967029170887,0.5376086515844068,-0.06208147266974702,-0.9632841978906127,0.004291854128326895,0.07850584216298931,0.015872551546548683,3.1015625
-0.016502624624660622,-0.283996691940478,-0.37470208987773723,1.4645665394543943,0.11913549725078142,0.05294215240219665,0.14823692573802869,-0.2806404423029367,1.1415948707910553,-0.13285377710981694,-2.0482690915680837,0.009098036366434505,0.16765925938337398,0.03359775980255435,3.109375
-0.010361551966614967,-0.17612242672439685,-0.23222367805675226,0.9082777715321816,0.0737671959473017,0.03278225729484757,0.09193832238264554,-0.17429584454403202,0.7074473728125873,-0.08204937634526292,-1.2702851678733158,0.005648679034142458,0.10361736827067251,0.02088704998854563,3.1171875
0.0035802142809292954,0.06847459645464472,0.09083452851266734,-0.3541320984823573,-0.029282935751342196,-0.012872169196168081,-0.03593435254844863,0.06730968169691022,-0.276388100404638,0.03319977669328088,0.49517916346470353,-0.0021742831679749833,-0.04157233990394682,-0.007951180734780513,3.125
0.0046532248596855156,0.08727221258829217,0.11560928307551487,-0.45110936555076925,-0.03720831210455167,-0.016384062755749513,-0.04580747553434022,0.08598709019794872,-0.35168913722792255,0.04198677817837313,0.6313257272810231,-0.0027777035147080555,-0.052681236304986265,-0.010178495010808102,3.1328125
