AF3,AF4,F3,F4,F7,F8,FC5,FC6,O1,O2,P7,P8,T7,T8,time
-0.002984762195098003,-0.04681809228447942,-0.061642566264934334,0.24090430431225626,0.019437667051052685,0.008728876943796112,0.02441499503357422,-0.046315319646118416,0.18729542839453875,-0.02132944455282499,-0.33561786799379595,0.001511527438114621,0.027067659784253514,0.005620084260279831,0.0
-0.008031659274388751,-0.13532123882564084,-0.17839733107751532,0.6978958349482035,0.05686337840537604,0.02526704653888118,0.07071399197478744,-0.13362460367775564,0.5425893657075971,-0.06303924352944093,-0.9730967433893258,0.0043464170211211005,0.07975798694438897,0.016038799431385763,0.0078125
-0.008361018883600224,-0.14104762159572073,-0.18584307080382226,0.7272179568663073,0.059244161785837086,0.026321288960728103,0.0737060611456395,-0.1393263544126413,0.5657721362601534,-0.06573582940244395,-1.015000160149101,0.004526798740697447,0.0831764526108232,0.016718396693558,0.015625
-0.008787081478985487,-0.1486262938535023,-0.19595453596882956,0.7656964975733925,0.062234750809687385,0.027726982845485162,0.07762083483215694,-0.14682494433049986,0.5971831309927375,-0.06930043086240906,-1.0714841103300752,0.004763394951477139,0.08748873390717056,0.0175988368206143,0.0234375
-0.006175794575879858,-0.10286246060752756,-0.13571582236114652,0.5293424445273847,0.04286473328815097,0.019201282627624564,0.05368038169736455,-0.1016478832204134,0.4138842753880263,-0.04771473155919962,-0.7418803263600511,0.0032996745766274817,0.060213529902211606,0.012208719250834336,0.03125
0.0016103326759382601,0.03392201373592642,0.04498006653163001,-0.17618675660871166,-0.014653845478455985,-0.00632432732394582,-0.01780296215863863,0.033305079157457125,-0.13629933881071635,0.016780295657357776,0.24591997154301326,-0.0010716574561832118,-0.020880414246696354,-0.0038696798758407432,0.0390625
0.00706905850032887,0.12993375556936987,0.171925349432705,-0.6713254310575008,-0.054993192069794965,-0.024262379016968198,-0.06796176042560301,0.12793171110176302,-0.5226887622801384,0.06202587636721617,0.9388256339754504,-0.004142181707956925,-0.07776011524179283,-0.015148238816181553,0.046875
0.0032759204977203865,0.06342638194752397,0.08392547158025904,-0.3279192009173828,-0.02696447267737465,-0.011858718192487083,-0.033151101195367294,0.06216923838967944,-0.25509528502956524,0.030621336792912582,0.45814334818081814,-0.0020159282797229555,-0.03830089908871291,-0.007317625517142469,0.0546875
-0.005091953786398362,-0.08358084650485886,-0.11045754707145426,0.43090707553736757,0.034957821305350245,0.015576723070545303,0.04371137680266854,-0.08287285982129818,0.33588961857549937,-0.03869508403644345,-0.601986928209002,0.0026882207961831626,0.048908469529494264,0.009976364504959919,0.0625
-0.008659900146335138,-0.14643314751545455,-0.1932571171022663,0.7552274592652095,0.06142899345636381,0.027285231569584595,0.07650724234652406,-0.144685799548334,0.5875909983589701,-0.06826330739845567,-1.0533729208488358,0.0046999677708752,0.08620492098285419,0.0173610479270939,0.0703125
-0.004565797428085571,-0.07466973458862797,-0.09812419714515451,0.384572668388482,0.031153049736548925,0.013871168982874436,0.03895034678634227,-0.07372687768913404,0.2983088106222501,-0.034405159346135625,-0.5351070514959585,0.0024011438484490047,0.04359360423364937,0.008897812710288684,0.078125
0.004231918363163834,0.07990478074893245,0.10589036960873037,-0.4132415521877298,-0.03398707356512413,-0.014953901861696303,-0.041786702236250306,0.07870395192870822,-0.3223958361413405,0.0383608279076078,0.5780703275378057,-0.002546326491700186,-0.048135856327285884,-0.00930333606888569,0.0859375
0.011978254017806875,0.21610361445375553,0.28539943770759574,-1.1158769980543881,-0.09131055660958402,-0.04032711068393392,-0.11293366847585753,0.2129746590655725,-0.8685505559790837,0.10244991960671955,1.5594289690744738,-0.006901083749746815,-0.12885043570612253,-0.025324086917702566,0.09375
0.009475543399506898,0.17220050944361764,0.2274926992509037,-0.8892980530420987,-0.07277995425149478,-0.03211883724460453,-0.09008327252394396,0.16973928957361725,-0.6916914017648899,0.08180305584433012,1.2438938807017454,-0.005494294338055668,-0.10269364193817762,-0.020145713809144792,0.1015625
-0.005983213492654925,-0.09933703841819759,-0.13078425720519732,0.5115637051109476,0.04155369483203226,0.018543831233810315,0.051752311135898156,-0.09808226216819213,0.3991462821507714,-0.04602369752591187,-0.714158920041048,0.0031908048866571546,0.058352565997161286,0.01181101345199433,0.109375
-0.018148189126999562,-0.3130345643785471,-0.4130724695391572,1.614157074473157,0.13152155514841982,0.05841657495957209,0.16351899133603306,-0.3090293273743475,1.2575838143033444,-0.14665896607390724,-2.2566947315205197,0.010027180872394228,0.18496397457737004,0.036958098189596444,0.1171875
-0.008607425618908964,-0.14554641910379998,-0.19222548294133246,0.7502678497118848,0.06098939236529397,0.02715242356015241,0.07607885806813845,-0.14387582792463036,0.5845149756178132,-0.06776513444503858,-1.0486095797462085,0.004673650267546975,0.08552617690224837,0.0172549944750735,0.125
0.012772406815258552,0.22988307059903235,0.30356860364027966,-1.1866411283232876,-0.09713337633673208,-0.04292851222792193,-0.12016996706532938,0.2266174312293251,-0.9239881096427012,0.1090883404230483,1.661042777938099,-0.007335270393713164,-0.1371127096330465,-0.02691274861017713,0.1328125
0.019192779661830507,0.34274194166211247,0.4528991845234992,-1.769097753877585,-0.14468776270061914,-0.06399654818088048,-0.179190515702811,0.3379919855108203,-1.3773357853276909,0.1622184019410221,2.4752398451623026,-0.010951543273926709,-0.20395489719595822,-0.040185005446238715,0.140625
0.007817057649997605,0.1431536193829476,0.18941360042576708,-0.739468543585456,-0.06058937013778277,-0.02673019784961692,-0.07481809989112605,0.1409144523615883,-0.5755487254508158,0.06813594102173978,1.0338547205398794,-0.004570818370381079,-0.08552267612461449,-0.016704967690355926,0.1484375
-0.0015531656219758675,-0.021379699421320324,-0.02799512698450486,0.10945034784408056,0.00878244280195144,0.003991010791628038,0.01118128347657477,-0.021460537848735195,0.08488910254171261,-0.009378036314043967,-0.15326692541002973,0.0006960183198690507,0.012047627196318265,0.0026310638286520557,0.15625
-0.0042009466269866584,-0.06805340095251668,-0.08969642919269755,0.35033565275131373,0.028440777722614184,0.012691236914785041,0.03548912172560326,-0.06733446493667479,0.2721659570286042,-0.031325765503682955,-0.4887829562546283,0.002192717311640199,0.03968942450214026,0.008105338985544509,0.1640625
-0.010511549530175595,-0.17897840225740932,-0.2362151648809438,0.9228231998812967,0.07511024508979505,0.033374557410090946,0.0934856398792003,-0.17674020272406699,0.7185602402451287,-0.0835963266350748,-1.2894982997109112,0.005739219996237171,0.1054780430118101,0.0211755049267597,0.171875
-0.015966740118190558,-0.27467901375548043,-0.36267000440032543,1.4168206130271037,0.1154431959689604,0.051232402272980995,0.14364859623299528,-0.2713508591696574,1.1035937800654827,-0.12874567499462192,-1.9816835805215787,0.008798268756935021,0.1622861797935159,0.03246230834338291,0.1796875
-0.009809011906053265,-0.16647296951031634,-0.21967016671422612,0.8584555385512983,0.06992840901493616,0.03104831569560432,0.08709574481086425,-0.1645754348889214,0.6682014776778616,-0.07777521938376682,-1.2007768169397328,0.005337620163838364,0.09813743766123724,0.019711740488031627,0.1875
-0.0018239431260919942,-0.026407639618744136,-0.03442117010392868,0.13532527481901846,0.010872610924966872,0.004917610100282178,0.013702843948638091,-0.026046348978814686,0.10479430384882417,-0.011708773829539052,-0.18800628554806362,0.0008574218563083903,0.015015086053420149,0.003187407127835776,0.1953125
-0.0032761831964580987,-0.0520951148203085,-0.06833570847568034,0.2676171346858622,0.021553241787289238,0.00971892585896423,0.027042948583737927,-0.051246345330090357,0.20867194068254466,-0.023736204178802824,-0.3721910559906382,0.001679099263558153,0.030173159525596495,0.0062148852389686884,0.203125
-0.0008471389423031193,-0.009324342018637915,-0.012214300905684131,0.047252449690233685,0.0035118843524448128,0.001741345082690345,0.004794800489193139,-0.009346178923834957,0.03798827746414321,-0.003585021832565086,-0.06447470732135971,0.00031345077607411996,0.004793190501955242,0.0012383441705359256,0.2109375
0.015034520600044156,0.2698775039114205,0.3563264191781928,-1.3930733846003425,-0.11401849846335214,-0.05037779012031923,-0.1410840516970846,0.2658430718265955,-1.0836937740523143,0.12791163856244406,1.9486691036676322,-0.008617143683118347,-0.16076681329125825,-0.03158653163412979,0.21875
0.02392562267956841,0.42609839741086364,0.5628874230962455,-2.199432715610303,-0.179810862475804,-0.07956555392483529,-0.22281879520793493,0.4200653363035865,-1.7122308927289136,0.20148436548494597,3.0750005172398795,-0.013619413562119886,-0.25343142267233587,-0.04999977815181149,0.2265625
0.010394455502424873,0.18829529170682863,0.2489874976224789,-0.9726486078613387,-0.07965218517734272,-0.03520232139824857,-0.0985115367994887,0.18558468271545467,-0.757381332079876,0.0894472921653278,1.3590105252992972,-0.006014467826092709,-0.11242566206892363,-0.022045090851582162,0.234375
-0.007513050027660672,-0.12627037700923843,-0.16668744189144494,0.6509357278820278,0.05295330157846103,0.023537757514052866,0.0660605652162105,-0.12488269709305769,0.5067214076663136,-0.0587511254748762,-0.9099016124619549,0.00405531153163467,0.07419309796372686,0.01498853302850274,0.2421875
-0.01157499076051812,-0.19751317136152918,-0.26089406842064944,1.0189430630329366,0.08304690940851576,0.03688877294083083,0.10333725787933205,-0.19526372843131118,0.7935067507347319,-0.09231502728318741,-1.4228593886538068,0.006339450565872531,0.11655633430886454,0.023392353280595544,0.25
-0.008931283635434106,-0.15111009461410893,-0.1992698236155853,0.7789452356010987,0.06339038606045329,0.028240224740170964,0.07893744397586848,-0.14929360447253073,0.6071311482497619,-0.07044777544679535,-1.0880722287733429,0.00484799714905267,0.0890471997134152,0.01791277624582982,0.2578125
-0.006815715269337858,-0.11413464000724936,-0.15014747276627985,0.5874314153109513,0.04767895124864937,0.02130048473100066,0.05952537588501182,-0.11260883347162187,0.45796545205539135,-0.053026927536398594,-0.8221058961604628,0.0036567344623237535,0.06701985431520883,0.01353388192868362,0.265625
-0.0010982246065217693,-0.013754923706255726,-0.017742203097480105,0.06976409772818166,0.005465537235338488,0.0025308079179840464,0.007124816257458388,-0.013627874611466261,0.053977619124043884,-0.0057480008421971155,-0.09760122271781614,0.00044877628842319815,0.007436917815143871,0.0017216940701104257,0.2734375
0.00269365561689701,0.05300174038319092,0.07018138505728878,-0.2739557012927244,-0.022506903661557397,-0.009932455329249842,-0.027731287014273822,0.05209666635230177,-0.2143816603136999,0.02568900444809079,0.38534222392365425,-0.0016791510546891816,-0.03210141857940896,-0.0061283237391796305,0.28125
-0.0032386394097840146,-0.05107841667487057,-0.06727714412789874,0.2631581475657718,0.021345180630777658,0.009501570051760446,0.02662647813997294,-0.0506046903091701,0.2041269720212314,-0.023358905775683312,-0.3654775507135846,0.0016507776664294108,0.029672881026777793,0.006106578937740192,0.2890625
-0.005627295837796048,-0.09303896770610448,-0.12272757722530049,0.4793647048841611,0.038959883620270655,0.017343388739647064,0.04857666335421207,-0.09199766842309001,0.37317725412372765,-0.04314938590471523,-0.6696812664116556,0.0029901719499887667,0.05454221225286134,0.011040645709548685,0.296875
0.006550248290441186,0.12082583728094687,0.1595445730677497,-0.6240658977924651,-0.05115692265504263,-0.022562213140938345,-0.06314391329640424,0.11895866190238313,-0.4856147456237721,0.05760813776943307,0.8725235497509691,-0.0038505969886315585,-0.07232504524805013,-0.014097287347628364,0.3046875
0.013667005011018965,0.2457731955822959,0.32456798384062874,-1.268626106387871,-0.10387185794543784,-0.04588418039319885,-0.12848218736460643,0.24224860188139868,-0.9872345469617393,0.11653506518658682,1.7746866847164464,-0.007847039436988612,-0.1464611444173863,-0.02876878989508115,0.3125
0.000315868536546116,0.011168490718798574,0.014934258662470175,-0.058371127498109986,-0.005166290649484688,-0.0021002885217108742,-0.0059189747866605896,0.010825519266246149,-0.04450050644604095,0.006074644386293457,0.08237823610203844,-0.0003449438467174408,-0.0073761214304726075,-0.0011575909335199957,0.3203125
-0.010756199896256773,-0.18331346933279177,-0.24186811985800194,0.9449020278363297,0.07678767271383317,0.03421717447209789,0.0957865752013971,-0.18113208457710142,0.7368281082843086,-0.08556925790403319,-1.3216338478720304,0.005875125318484162,0.1079597547509068,0.021717985207760367,0.328125
-0.000246745810663304,0.001397101537417928,0.001981181868208728,-0.007956273588872975,-0.0008626708294946353,-0.0002456375353883346,-0.0006775736072310418,0.0010078896339175197,-0.005517330545923485,0.0013770490974853225,0.01060958853900542,-3.16504863164167e-05,-0.0015043705916171352,-2.229948698795863e-05,0.3359375
0.009252625642956556,0.16828937257003473,0.2224644562825752,-0.8689576952284445,-0.07111080652694278,-0.03143358986611483,-0.08794889480751639,0.1657366498853259,-0.6766597332202298,0.07998741272836242,1.2155131557455159,-0.005369917036365667,-0.10042304103270172,-0.019668434354764914,0.34375
-0.002798294463806529,-0.04349354115086243,-0.057064682483636185,0.2234816942489579,0.01803458492871089,0.008049022465096548,0.022662708499242196,-0.04306837992467263,0.1734351549892096,-0.019739702614786418,-0.3118980671466358,0.0014028088348837491,0.025120589544243163,0.005234708102016431,0.3515625
-0.013716356646506115,-0.23532277996219525,-0.3104194358210069,1.2130231067410477,0.09884830928457644,0.04387741619015961,0.12293079712807789,-0.2323001721132044,0.9439939626059347,-0.11010470889627993,-1.696279627933625,0.007538893537693739,0.13882394629683237,0.02779141835237411,0.359375
-0.0010991117466161685,-0.013555050566665854,-0.017671156140795924,0.06901906025230353,0.005541145002950622,0.0025496229305662405,0.007058472155822449,-0.013553426872134884,0.053639613708639754,-0.005681921295567662,-0.09625730449584106,0.00044767646217535266,0.007388241027800449,0.0016922766807238518,0.3671875
0.013390647522554373,0.24114948131400174,0.31864117635783873,-1.2447275580323092,-0.1016928601417506,-0.0449767222510776,-0.126076108807464,0.23770648703571237,-0.9691423262423869,0.11428063164805947,1.7424160525051902,-0.00769623172433725,-0.1435084501454032,-0.028273271459670582,0.375
0.0034637586547115154,0.06675030940250123,0.08833101574634983,-0.34480566141032665,-0.02831249873497703,-0.012462912390242168,-0.0349652148854135,0.06565424591049816,-0.26846419691327744,0.032165643915725795,0.48495023511703395,-0.0021163589941460364,-0.040079371584362214,-0.007744171177991645,0.3828125
-0.015115463995145458,-0.2598772951894392,-0.3429529475818291,1.3400617456595048,0.10910009219968177,0.048480456151082,0.13570090710022276,-0.25650868073391564,1.0439179888511823,-0.12164227448579126,-1.8721243026479257,0.008327388185535248,0.153442924035474,0.03069733110724723,0.390625
-0.013755461734733215,-0.23619243331911505,-0.31158573592610667,1.2174540096870539,0.09899908761982942,0.044063165960083805,0.12330476335371918,-0.2330550720595047,0.9491664871315874,-0.11047877702757644,-1.7025960044907593,0.007562860685559351,0.13926154384717546,0.027920286503236268,0.3984375
0.003193291947680911,0.06164843928131448,0.0816513911095087,-0.3191051238261226,-0.02639732918637722,-0.011536603599118239,-0.032276165140488706,0.06067603719553669,-0.24762694526491477,0.029779051070121375,0.44533230012008357,-0.0019645983557443516,-0.037325338311081216,-0.0071140997119435384,0.40625
0.012479350462134126,0.2249730801862465,0.2971133977096944,-1.1613010678532945,-0.09503113954349272,-0.04203613470153088,-0.11752594382087014,0.22159190376542018,-0.9048444586434391,0.10670200517104525,1.624083282753143,-0.007181965543739754,-0.13413395924005683,-0.026329495768061453,0.4140625
0.008236382231806779,0.15036220344402296,0.19863943914563334,-0.7763720511412735,-0.06359245257348774,-0.02810683300248882,-0.07857866168172305,0.14802730793340416,-0.605791695275843,0.07161217806759795,1.0870296543669338,-0.0047930221342205905,-0.08997395641658643,-0.01756619185405626,0.421875
0.0005409827132518495,0.01502942828060659,0.02023671658414731,-0.07859379099488208,-0.006709149064672703,-0.002827960051932132,-0.007979695604199614,0.014738438394425232,-0.06148075409325836,0.007884453980249926,0.11087981316065543,-0.0004700411127194801,-0.00974893850188372,-0.0016599098828496714,0.4296875
-0.004093764746542784,-0.06619550508310529,-0.08704437878467192,0.3405432669564593,0.027537470760744663,0.012357121399744887,0.034527772547105,-0.06546260400918175,0.26606775527750803,-0.030470283416477253,-0.47656959293105056,0.0021262171710498953,0.03860843891241936,0.007904842363086934,0.4375
-0.0038852494150474026,-0.062244860276781534,-0.08226323629908219,0.3208333340309442,0.02605598476497827,0.011642870396609988,0.032661038483852545,-0.06187634335355675,0.25080410444901613,-0.028695406675554317,-0.449110047926864,0.0020073314624867366,0.036441170578409926,0.007468312990072396,0.4453125
0.0017206341797130363,0.03610843012085212,0.04742650423256127,-0.18637655956227409,-0.015348587406768062,-0.006714274037861541,-0.018720705028008804,0.03514009185198714,-0.1446220298846524,0.017687489960796794,0.26148954401589636,-0.0011337968983452908,-0.021969178092443448,-0.00408947737855878,0.453125
0.00643166807370658,0.11855811461221072,0.15663039736668097,-0.6122898878485095,-0.050211686448991384,-0.022135029499844215,-0.061987328063254174,0.11679307779970058,-0.4766368572519384,0.05661310083619403,0.8578089336994231,-0.0037758797816088816,-0.07101536840096126,-0.013810702700007293,0.4609375
0.0019102237769050348,0.0391680140991493,0.05215707733208584,-0.20316170876083842,-0.016775347677939166,-0.007349975171371294,-0.020599339247124485,0.0386302285226786,-0.15856551585508183,0.019192077491408676,0.2849631090539022,-0.0012420877706803037,-0.023894715625194685,-0.004510376853186036,0.46875
-0.00625701715082437,-0.10409317637972358,-0.1369651308508859,0.5359424273641055,0.043662873135642835,0.01938319928166792,0.05429582807135562,-0.1027958284379604,0.4165197844522473,-0.048343131462735174,-0.7493951840288837,0.0033405524058585075,0.061146281118761386,0.01231973277492862,0.4765625
-0.00373427379665358,-0.05981562441598116,-0.07865671754121165,0.30765089999451606,0.0249599951982035,0.011131919000658075,0.031171436547153507,-0.05920033575576245,0.23910723962032415,-0.027445926018218852,-0.42986568754664445,0.0019265663746804796,0.03481162433415209,0.007127081120355836,0.484375
0.006180195508713344,0.1142419860915649,0.15093651919561296,-0.5900407584877889,-0.04846968439269061,-0.0213352046409518,-0.05976854116083191,0.11244885116341727,-0.459150263144486,0.05458992847129612,0.8264648008166321,-0.0036390284834498794,-0.06848580827688193,-0.013306298509373047,0.4921875
0.0022394599546527866,0.04510871069754476,0.05953309849906236,-0.23299879076771376,-0.01932902067455194,-0.008410633783994485,-0.023575832242198308,0.04416447625223161,-0.18087551986875858,0.02199168043311264,0.3278575159927626,-0.0014261883642004757,-0.027405247980404793,-0.005150476439026013,0.5
-0.018284976061774386,-0.31541606246637444,-0.4162513887672246,1.6267917693822127,0.13254475352636327,0.05888009862008368,0.1648028052045174,-0.3114119380948833,1.2674196924627836,-0.14784656384364026,-2.273408262584145,0.010103060784913676,0.18645620405615876,0.03724291693120803,0.5078125
-0.02673826784682131,-0.4641218126262305,-0.6122365874691853,2.3932312419957342,0.19507030346212845,0.08660516138682141,0.2423968702847557,-0.45789265486417674,1.8647074864356845,-0.21784177235537586,-3.3468740063958946,0.014853122432383365,0.27455029501763306,0.05471319297730026,0.515625
-0.005354133742590991,-0.08856007808477011,-0.11641027198788402,0.4554163833886275,0.036866293247029794,0.016481550479015485,0.04614426202768915,-0.08739003028799067,0.35559894434233386,-0.040931881212322434,-0.6382113861367819,0.0028385221742110622,0.051761826506865505,0.010537879610277925,0.5234375
0.02113909354702994,0.376984102248288,0.4979542160727693,-1.9459054393191992,-0.15905942051692082,-0.0704028614506405,-0.1970101042802304,0.37169457999291794,-1.5156107291902285,0.17830267498451213,2.720532868730473,-0.012047368877552428,-0.22428130349631023,-0.04421716619923635,0.53125
0.0223008724265398,0.39742877263092513,0.5248671921765852,-2.051102898366563,-0.16760680741091352,-0.07419346608325697,-0.20767462483587884,0.39184293572084533,-1.5983602512281314,0.18793822423487141,2.86928525672487,-0.01269737648593467,-0.23641293213806958,-0.04663072384044418,0.5390625
0.007624875265803432,0.13954238356432114,0.18435638206738306,-0.7206441287366896,-0.05907404126212736,-0.026041628296006123,-0.07296298390916936,0.1374915768139832,-0.5615510308431926,0.06650151189415786,1.00943029484924,-0.004447773599856579,-0.08352746221213342,-0.016298205867486447,0.546875
0.0030339216688175345,0.05902158547583224,0.07777477571714748,-0.30487070927542004,-0.025127968228815738,-0.011006750805522918,-0.03081232916216213,0.05790733448656018,-0.23689699322141825,0.028518621630914003,0.4276609624264717,-0.0018695598237905837,-0.035698176546184464,-0.00681215958305792,0.5546875
0.004995790946994066,0.09366668227423271,0.12346509427195393,-0.48338447090771264,-0.039607670742497776,-0.017488071806004292,-0.04885552391952643,0.0919735015321535,-0.37616500376574513,0.04477496325221457,0.6769070495560421,-0.0029766342284968097,-0.056126458138559675,-0.010887606295091452,0.5625
-0.0033283530986007205,-0.052683148376048705,-0.0692756729844586,0.2709767118024256,0.021930425382006853,0.009794663681247793,0.027466386116609693,-0.05218565737151018,0.21105262960110518,-0.024085278473900334,-0.3785163499315782,0.0016982630190303179,0.030599233427490963,0.006305706437849367,0.5703125
-0.012498020618014524,-0.21393787881439275,-0.28190392099509365,1.1023439313531618,0.08966570470030967,0.039882865714645666,0.11160758389938279,-0.21111656136236934,0.8591621603480909,-0.09995506142298237,-1.5419504972808487,0.006850693242306919,0.12610852635990705,0.025274942599815168,0.578125
-0.0057618438957124495,-0.09542709945990693,-0.12583918492284388,0.4916029173850206,0.0398632667501064,0.01779949511450889,0.049853382407983635,-0.09447220373217245,0.383812085675233,-0.0442162770417871,-0.6880017674275744,0.003064543033052391,0.05592521746656362,0.011368545679675986,0.5859375
0.00351575702224482,0.06777066383814154,0.08937645901463365,-0.3496355218294027,-0.028620632985648615,-0.012628623371352034,-0.035252279068826615,0.06633807006636543,-0.2723958210088433,0.03254131479800629,0.48961392465309406,-0.00214968740134859,-0.040672012758167,-0.007818967635737589,0.59375
-0.004145191211138498,-0.06700679301412878,-0.08810701071775112,0.34504330692961704,0.02809454512178002,0.012510907790931584,0.035009324933292923,-0.06628342020699371,0.26758178540875077,-0.03087704270931611,-0.4806400730252755,0.002157461350426958,0.039201536885368864,0.007992496505475113,0.6015625
-0.015545090008423391,-0.2676026918380308,-0.3526154734582478,1.3790354614542517,0.11231920492861694,0.04992394253012239,0.1395997056654388,-0.2638217849435091,1.0732592226257087,-0.12523599269056115,-1.9267992374032807,0.008567958877496814,0.15794364754013782,0.03155400003103743,0.609375
-0.01009473644980333,-0.17185431210303356,-0.2266303250413345,0.8854783799024846,0.07194044554341456,0.032058723404890785,0.08964315868559498,-0.16952958364763634,0.6899165456231019,-0.08014910309755,-1.2373246827864928,0.005508887036000892,0.10110681083953127,0.020315891463095002,0.6171875
0.0024925280144339756,0.049431288947364996,0.06507992034899053,-0.2552581995666496,-0.021112024905213123,-0.00923198140103854,-0.02580478060384538,0.04847969578610953,-0.19827849319667587,0.0240129250129697,0.3582328603316639,-0.0015623440281203353,-0.0300038000638039,-0.005668236162677947,0.625
0.005928841953286026,0.10979149921944556,0.14498949698362157,-0.5667894142657889,-0.046497152748242704,-0.020514810776277818,-0.05737259396460045,0.10807519458670749,-0.4413075081380049,0.05246535555952751,0.7944041388261956,-0.003494259502167732,-0.0657461980463698,-0.01276203343840244,0.6328125
0.007805244688576138,0.1427567110757832,0.18889274593940722,-0.7375459690514171,-0.06045057530577026,-0.026682403826724432,-0.07469115246349611,0.14069367236532282,-0.5741497148687689,0.06800953143366294,1.0317631242623095,-0.004555876380421273,-0.08533200209021415,-0.016665048745366094,0.640625
0.015424791865710238,0.2768194232746913,0.36586117319643435,-1.429248363356115,-0.11688330944476313,-0.0516873741256946,-0.14468396730373695,0.2727882468041515,-1.1121604573391373,0.1310660883673324,1.996608368680601,-0.008847742812928652,-0.1648025070613357,-0.03244900126011399,0.6484375
0.016040467688503576,0.2877679671740685,0.3801149894698608,-1.485321287662155,-0.12140478382284309,-0.05371337655823928,-0.1503282216135933,0.2834753222679205,-1.155725825093733,0.136158072593495,2.0750138531812765,-0.009195243968233098,-0.1712133174808563,-0.033732219489916594,0.65625
0.003859675169761529,0.07362324824568153,0.09731334475428835,-0.3803562315461192,-0.031233251751580243,-0.013758749478276112,-0.03847197774479441,0.0723470176357986,-0.2958988859436027,0.03536592260091796,0.5323541776017416,-0.0023403842858011727,-0.044248919704330994,-0.008534202052481522,0.6640625
-0.009434884311358683,-0.1601239961496909,-0.21135031729726364,0.8255060370521038,0.06711441003500643,0.02984813265431985,0.08363336164356475,-0.15817135709690933,0.6427212594494209,-0.07462933875212961,-1.152501602899676,0.005139226014102185,0.09423203192736603,0.018971545766007923,0.671875
-0.01918011305852467,-0.3313446165058562,-0.4374245535803555,1.7087754798493682,0.13917919989414249,0.06181244099190046,0.173113489884178,-0.32712260299250656,1.3306773700278531,-0.15524902510543362,-2.3881027633144862,0.010615213425172998,0.1956859299114277,0.03911860336023274,0.6796875
-0.025239020304085754,-0.4377811226119348,-0.5777507467581148,2.2577177012480876,0.18402839761630357,0.0817003892724903,0.22866464093327044,-0.431998845825816,1.7579509026720277,-0.20537775243877704,-3.155209969086328,0.01401815471215427,0.25883628331367037,0.051623290283449204,0.6875
-0.01512329312402283,-0.26012049569941464,-0.3429514041350024,1.3408923990065722,0.10923697548825512,0.04854765550321529,0.13575662835341043,-0.2565660019959222,1.0433605192648985,-0.12168712946626457,-1.872163280857212,0.008334658133050532,0.15352213141171223,0.030697253223682185,0.6953125
0.01107992493168878,0.20024340907395718,0.26482330199399706,-1.0343085567626407,-0.0846485981424029,-0.03738610752488868,-0.10471098075569067,0.19743877001770385,-0.8060617444300977,0.09510825257504459,1.447270181307005,-0.006393379400386966,-0.11951970040026015,-0.023459978710847484,0.703125
0.024333606451707922,0.4331765874704603,0.5721446867122404,-2.235973395869298,-0.1827744143160922,-0.08086252633170302,-0.22630241608701107,0.42697945948395005,-1.7405996067045453,0.20474692766775454,3.1244525159438012,-0.013847990876773356,-0.25770330843340056,-0.050840150854309145,0.7109375
0.011306788744680576,0.204349267974361,0.26987942386373975,-1.0551509197271218,-0.08638120412894054,-0.038135889733323235,-0.10678460522179403,0.2013133498656943,-0.8204386094291778,0.09693175862097166,1.4738688993158515,-0.006527258240473683,-0.12192679577614342,-0.02391353452120995,0.71875
-0.002501797747981935,-0.038198343504586216,-0.05043418342518804,0.19661748993418693,0.01587460257522274,0.007145122039564799,0.019867310279783272,-0.037800054559172284,0.15377845509084043,-0.01733127271560283,-0.27354041528483003,0.0012375593301989425,0.022114808152755922,0.004612600135346389,0.7265625
-0.0006351137537741386,-0.00525393253912877,-0.0069801372402031395,0.02695892225303061,0.002085152176635172,0.0009768782078579746,0.00274384429651936,-0.00544781795504047,0.021181438858271784,-0.0018664044799381664,-0.036211678256373975,0.0001861967858207389,0.002730463577688841,0.0007449799193917344,0.734375
0.002351454336359056,0.04728885659299855,0.06249236487456254,-0.24411694457714356,-0.020077475662798813,-0.008857684008495572,-0.024596279769417063,0.046207918498049415,-0.18991256073408547,0.022872736201060756,0.3412854908923542,-0.0014980139010463858,-0.028461392551809545,-0.0054194870483059345,0.7421875
0.00016015244600263697,0.008662264470323557,0.01166344894724161,-0.04495498306854692,-0.0038750145916787494,-0.0016451357762701786,-0.004480817479155005,0.008246259580125979,-0.0352328264550583,0.004765981485633721,0.06400757243955345,-0.00026313602316619354,-0.005678275198192757,-0.0008783542071765639,0.75
0.001683866576863778,0.03529676135316085,0.046863250344281224,-0.18259676571524214,-0.01509586152714722,-0.006598485377150337,-0.01851005936618574,0.03468572123606305,-0.1428969896380556,0.01738880125628885,0.25804876789833797,-0.0011122755467032985,-0.021548433403882006,-0.004027712428912341,0.7578125
0.0005988451141857924,0.016213978312882786,0.021656742344261442,-0.08472484897284752,-0.0070938225699236565,-0.0030549427259589494,-0.008532856807376135,0.015778991363344916,-0.06622313035002511,0.008400614003098545,0.11900902668798038,-0.000504544918893791,-0.010298362331311959,-0.0017920355649245893,0.765625
-0.010309087257682759,-0.1755006607055049,-0.23132415664680378,0.9038292858790802,0.0735297479258906,0.032689810360671444,0.09163530765350801,-0.1733549411367385,0.7041292941222574,-0.08187299497575815,-1.265381340901703,0.005622106660376742,0.1032621182182185,0.02075506194807014,0.7734375
-0.014776434247033357,-0.2541476314975946,-0.3350646683726364,1.3098624343202208,0.10659795110233443,0.04738339822318556,0.13262252267810928,-0.25073233384806753,1.0198855801469793,-0.11881266780686629,-1.8304463022917628,0.008140807138410502,0.14980766386321284,0.030007561620469123,0.78125
-0.005789092424374934,-0.09625993601122014,-0.12680920956634228,0.4960344569547126,0.040159941361450076,0.017975160497021834,0.050087660387263894,-0.09494232171029887,0.3860663221601113,-0.04440360363573685,-0.6895953835708512,0.0030984147115309464,0.0562293707954482,0.011457304045805968,0.7890625
-0.0023977807430332547,-0.03651076117836778,-0.04815236979707695,0.1878009964000538,0.014999950919370116,0.006839390265053283,0.01897707451682774,-0.03622200769257872,0.14731960542557232,-0.016373007089235454,-0.2612466631115392,0.0011845422194957638,0.020896636144423476,0.004448144405861474,0.796875
-0.004759676289165523,-0.07790200786244365,-0.10268907398907122,0.400712173632714,0.03237500658722552,0.014521290114645369,0.040697259388809436,-0.07713790786306383,0.3137225950220622,-0.036016434592177814,-0.5631379237666034,0.002497389659718908,0.04546487572879089,0.009290136864451964,0.8046875
0.008244510125901938,0.15058336551031085,0.19917248264821935,-0.7780760511575396,-0.0637621040812216,-0.028135019780722574,-0.07866251514348689,0.14834550274259775,-0.6056345956085925,0.07154931723534962,1.0857261069063913,-0.004812778962223491,-0.09000541032580933,-0.017626643229322784,0.8125
0.023474955458546207,0.41825775534600634,0.5524353555790291,-2.158229475919813,-0.17628459501845414,-0.07804534902918175,-0.21846186541099302,0.412327351917691,-1.6814978147167874,0.1976421739362092,3.0187561879524756,-0.01336491900146436,-0.24861835825570952,-0.04909542746372479,0.8203125
0.009604890074671926,0.17466047009253288,0.23056550535171286,-0.9011557905901184,-0.0736510543589062,-0.03256214273519782,-0.09114258366227927,0.17188423658405835,-0.7017145187583907,0.08292471410271976,1.2615934287097625,-0.005567877972830008,-0.10407173505064937,-0.020394364137449796,0.828125
-0.014617689151805658,-0.2510079059501399,-0.3313614536073127,1.2942723137900014,0.10547080416512142,0.04683114063972728,0.13115464170290192,-0.24790678050353754,1.008673420820416,-0.11754235837045902,-1.809432789630561,0.008043111787899477,0.14827673619775633,0.02966501113095368,0.8359375
-0.009945922903677627,-0.16907591849036097,-0.22300182524289675,0.8711140610956905,0.07090050052387326,0.03149898273383099,0.08821483751625464,-0.16688629454984405,0.6782442239385736,-0.07891260594054243,-1.2173246809241265,0.0054202210156020095,0.0995716304524748,0.019979123817996783,0.84375
0.006032153077322053,0.11167554138952765,0.14754929434202402,-0.5768769772742279,-0.04726474072955172,-0.0208749211587394,-0.05841930783490086,0.10999791450659707,-0.45000932697113244,0.053347264437218725,0.8087458265846897,-0.0035545682447948954,-0.06690138822537223,-0.013035547759434997,0.8515625
-0.003523424033240496,-0.05613044482978216,-0.07416171139495888,0.28926545370334217,0.023395576518983184,0.010467956461664946,0.029365246354944096,-0.05567177884227657,0.2253119157387836,-0.025682334845359533,-0.40256656086666687,0.0018151795457724755,0.03266500611807849,0.006753114157790447,0.859375
-0.016039678632064847,-0.27611980310936207,-0.36436011744838537,1.4237643612740232,0.11591783850910485,0.05150073367555758,0.14422645605382672,-0.27257556959182,1.1093762892727297,-0.129285055738621,-1.9905265651638249,0.008844830075395984,0.16305121353166996,0.03262311293968789,0.8671875
0.004874265461608878,0.0912026540543298,0.12096134534840725,-0.4718536786222738,-0.0388057524749513,-0.017071318038044802,-0.04784112940527358,0.08991455671522484,-0.3674291041774713,0.04373197908627103,0.6591268028881843,-0.002910618538406201,-0.054866103738119884,-0.0106330002427478,0.875
0.03042467710429475,0.540182147986054,0.7136477373898468,-2.7878255507889484,-0.22775884658244347,-0.10082915110648635,-0.2823735919496369,0.5327149985886267,-2.171425762592217,0.2551819640389259,3.8983660003122425,-0.01726759893344695,-0.3210305851769876,-0.063440769927493,0.8828125
0.016549613584976364,0.2965820975667594,0.3916977297330933,-1.5302389937921386,-0.12504680849246053,-0.055325736045939995,-0.15492181036913244,0.2922648598518046,-1.191814251203987,0.1404148165164233,2.1417456013311202,-0.009467429373658754,-0.17639560960915604,-0.034739787921573666,0.890625
-0.014488321326992014,-0.24871012138439957,-0.3282780773856515,1.2830659288654154,0.10458247444227993,0.04643471811158797,0.13001932996653676,-0.24561565299559743,0.9992063900398973,-0.11643276978403305,-1.7915647114572448,0.007974945516137637,0.14698500986113175,0.02940525068531164,0.8984375
-0.01743434385296234,-0.3006215365053974,-0.3966394335678522,1.5501250369968989,0.1263125731074075,0.056093365141158966,0.15703105881932203,-0.2967476975109231,1.2074126445261062,-0.1408712330100227,-2.1670449136913557,0.009627824656288293,0.1775930472193739,0.03548109162953672,0.90625
-0.0026394432096057707,-0.040836567955428976,-0.053587696218510575,0.20923322814817602,0.016751542300409247,0.007594242994144544,0.02120383329045656,-0.04044807786462695,0.16391508872052726,-0.018467868032128316,-0.2941787336413926,0.0013123292053281112,0.02337755900536769,0.004922556982397781,0.9140625
-0.005315175057959159,-0.08786165686750026,-0.115634596672427,0.4518534500572313,0.0364984050045213,0.016360264386956175,0.04573818881330491,-0.08674038073736957,0.35286865346550594,-0.0405593625049192,-0.6323901858539186,0.002817684012623785,0.051257666442178794,0.010462393809390905,0.921875
-0.01840466072323688,-0.3177102941474015,-0.41904942793960587,1.6380320007614146,0.1333960953965035,0.05924882850056936,0.16586420995311965,-0.31342614473377384,1.2753809454104308,-0.14881895694016478,-2.2885341327779964,0.010174806137113414,0.1876470385277418,0.03747699741707849,0.9296875
-0.01407784844350166,-0.2415422597637711,-0.3187799702983451,1.2454937710535343,0.10146575538630172,0.04504908710288034,0.12623615284655007,-0.23853195035470398,0.9692263471131441,-0.11303586167535228,-1.740064516001701,0.0077425424457453675,0.1425434712009844,0.028515607264834236,0.9375
0.0020151592371226413,0.04124831121232595,0.05406822594416726,-0.21310514852117826,-0.017581778252664885,-0.007699047007309713,-0.02133923038304811,0.04010437558886636,-0.16537062174702494,0.020063501639420292,0.296726026257703,-0.0013020672276636686,-0.025137966320412135,-0.004699318068724272,0.9453125
0.007093482977328044,0.1304233427885279,0.17184708610351018,-0.6731847955209507,-0.055166358521810906,-0.024335702704402783,-0.06800998203468733,0.128147428079883,-0.5229050725936611,0.06206913219583736,0.9397393370469641,-0.004156770923937913,-0.07799960253708214,-0.015172250128717412,0.953125
0.005217174229281717,0.09741393071047179,0.12893140826084146,-0.5032840282149021,-0.041253683355314964,-0.018188598923315414,-0.05102192945844385,0.09597715026484524,-0.3918219550442233,0.04659184437081103,0.7050341106492666,-0.0031034860426671965,-0.05836950542565738,-0.01134952482662054,0.9609375
0.013615588149854899,0.24495117074138087,0.3240355071541159,-1.2646226867425243,-0.10334209231420843,-0.045722352264193404,-0.12816181787743525,0.24165489875876653,-0.9858173803932407,0.11611272807579875,1.7712863268929557,-0.007821744350619032,-0.14581654281906908,-0.028742791090397714,0.96875
0.025219895608977375,0.4488057277055225,0.5928015762324669,-2.31601574702149,-0.18920342909108268,-0.08375415380612372,-0.2344880468219754,0.4425343568017938,-1.8039224923873893,0.21210680385713582,3.240164866456893,-0.014339559918555166,-0.2667228318281839,-0.05267833424400487,0.9765625
0.01990547576243845,0.3554266705677135,0.46931864971972476,-1.8341612425644174,-0.14994652036516398,-0.06633096365865578,-0.18565965570580584,0.35032915093182165,-1.427806428761148,0.16812322456694737,2.565016680522452,-0.011354064658697417,-0.21140273675808,-0.04165904753335873,0.984375
-0.00010368428643590927,0.0038993758756999215,0.0055744473904928,-0.02116082085076165,-0.0019679744940352146,-0.0007469569010473068,-0.0021789641054803465,0.0037441183644051903,-0.01621681628818475,0.00259290188234295,0.029866687257738705,-0.0001151163177751148,-0.002989401695724149,-0.0003446537642043966,0.9921875
-0.013738402221075172,-0.23567886870840743,-0.310600737887244,1.2144233539949982,0.09889854050235379,0.04395110351501322,0.12294514144872606,-0.23252770515310014,0.9456120188666725,-0.11022302345155319,-1.69806365200263,0.007547102408858242,0.13903963725101304,0.02781005334335606,1.0
-0.012664852762973864,-0.21689129645832989,-0.2862415599699307,1.117972343306983,0.09099607168846248,0.040441458878119375,0.11330621989335746,-0.2141892846185283,0.8707254417527652,-0.10139357682100572,-1.563478880847339,0.006951478709110393,0.12786994296492343,0.025636334642646644,1.0078125
-0.008877554067994543,-0.15035728034697607,-0.19861808928025898,0.7753854500401968,0.06301793061315397,0.028023647505435307,0.078610571514978,-0.14864701174641443,0.6038823617848563,-0.07007748077721292,-1.083247396933727,0.004827002799235365,0.08845137644134689,0.017839542106172872,1.015625
-0.012965245666543636,-0.2221081811878597,-0.29295747863076677,1.145391703336966,0.0932562768823856,0.041423129653878066,0.11595213294116878,-0.21925654270219344,0.8916027800212052,-0.10384957198302021,-1.5992050479214657,0.007119328715823647,0.13106270624487454,0.02625661394735225,1.0234375
-0.0183029092328078,-0.31588458480726106,-0.4165044250929021,1.6285980203979897,0.13271581703545293,0.05894264126975162,0.16488753863216832,-0.3116439815368694,1.268044625050778,-0.1479846909766474,-2.275545811951559,0.010115404314934023,0.18665055161969688,0.03726677819523699,1.03125
-0.011109239818320014,-0.18955127359130322,-0.25002125240077655,0.9768800030794246,0.07948954353983867,0.03536882028786161,0.09901608961005595,-0.187153098721961,0.7610279583863399,-0.08850937408925597,-1.3659168986960217,0.006075318204695873,0.11165680755622494,0.022421234228369363,1.0390625
0.007277781067111821,0.1335563210956625,0.1762324945200499,-0.6894719633408777,-0.0565377265149598,-0.02494969314008977,-0.06970785132855592,0.13138479963359123,-0.5365468442933384,0.063593744604335,0.9637514258686813,-0.004257920796904896,-0.07993358661681399,-0.015571511377583242,1.046875
0.017632763519535976,0.31565626503593786,0.4166983305131007,-1.6287923081468298,-0.13318005258654056,-0.058937154034797004,-0.16490003765184902,0.3109487767003283,-1.2678673367861633,0.14932460662895733,2.2773265126484534,-0.010083459883689085,-0.18782179024737622,-0.036992862551912614,1.0546875
0.008885247280526039,0.16201940980060103,0.21395276721093098,-0.8365964560783892,-0.06850053194130536,-0.030231501979515532,-0.08466269956608033,0.15942928564072845,-0.6502713932307826,0.07700726031656605,1.169065517012196,-0.005169564059691563,-0.0966891477690925,-0.018916136227818608,1.0625
-0.004911383823020846,-0.08053577138483412,-0.10632626642861286,0.4145344416141304,0.03360679861379073,0.015061100396340805,0.042087840888113334,-0.07971552911133023,0.32405233541869666,-0.037174785073819036,-0.5799364198552683,0.0025913929017591067,0.04708052972918646,0.00961549196083317,1.0703125
-0.0058726924478374526,-0.0976009225977261,-0.12871611365136687,0.5027760235932964,0.040797019764498274,0.018220735767350088,0.050963687700709415,-0.096349180083026,0.3915225788479161,-0.04519509537585958,-0.7011659956627669,0.0031385562306425127,0.05717751302718302,0.011599137798914055,1.078125
0.0035086085228195874,0.06723037658330783,0.08927155529823808,-0.34751965176528987,-0.028587643840310737,-0.012582529942930819,-0.035234977275595415,0.06634775832637005,-0.2715771059002901,0.03242411640769053,0.48868817632431794,-0.002137000881485437,-0.04050660651340223,-0.007813731660217257,1.0859375
0.01102079539256569,0.19938273012354338,0.2638561208992602,-1.029492576285652,-0.08419829316107899,-0.037243675233198874,-0.10425797454176186,0.1965553556459465,-0.8021509528148438,0.09462607102233536,1.4402876680314205,-0.006367523953992088,-0.11881725360531623,-0.02335827168724444,1.09375
0.012418810567163046,0.224075648246714,0.29611792637543355,-1.1568946748895852,-0.09455034252841218,-0.04182221489444273,-0.11706073442995456,0.22068771371360715,-0.9005863547954199,0.10619712233682664,1.6166464030053844,-0.007156041249407886,-0.13346467791170372,-0.026254073291131327,1.1015625
0.006847165147330695,0.12612717480313804,0.16649765567231747,-0.6513834767319983,-0.05332355678806633,-0.023545825656868642,-0.06587539775413176,0.12406883817233495,-0.5070590797257947,0.06005831460032353,0.9107193813692369,-0.004019964356795029,-0.07543950044564574,-0.014728510736593769,1.109375
-0.005027296350266457,-0.0826779441521265,-0.10905389178895672,0.4257866788461065,0.03449513929224478,0.015389296298213208,0.043119724520016174,-0.08171411845841865,0.3313202467716109,-0.038198072541800424,-0.5939306311442248,0.002658302287747497,0.04829604040441385,0.009844509816313136,1.1171875
-0.012074041184886556,-0.20658959397621596,-0.27240541758122294,1.0648234443297628,0.0866089702291157,0.03851011934076276,0.10780042507946698,-0.20385349919551016,0.8288849513232099,-0.09647384645177097,-1.487464383052501,0.006619914531471461,0.12173048211624803,0.024437022101435283,1.125
-0.005543679594046176,-0.09184279130589763,-0.12097433709191102,0.47293207617791255,0.03834817388982251,0.01712559296622164,0.04789393194556646,-0.09072661511800462,0.3679400767252196,-0.042443039777813746,-0.6600064875427948,0.002951828176018333,0.05372464969217956,0.010941572778405486,1.1328125
0.001230029926697462,0.027180002129561624,0.036011671667724655,-0.14093445722651632,-0.011730486000379535,-0.005079083029866213,-0.014257328486164919,0.026668494634777218,-0.11010592744555542,0.013568938386043006,0.19882154380257663,-0.0008528663094182845,-0.01681349190310714,-0.003071914701149392,1.140625
-0.006439748545766524,-0.10757022477827617,-0.1417173309323383,0.5539370706823187,0.04493342447695419,0.02004163355386519,0.05609458503032711,-0.10618289773688865,0.4315380252608928,-0.04988972860085342,-0.7735916443040091,0.003452648963425976,0.06306247410558241,0.012769325046117034,1.1484375
-0.014743347510350118,-0.2533515683901684,-0.33395457677880086,1.3056901244100514,0.10627409671055324,0.04724239680398886,0.13224772088720035,-0.2500539040402688,1.0177745515716785,-0.11855133507683276,-1.8269810419038983,0.008109355655029377,0.1494948961231859,0.02992348319072137,1.15625
-0.004827228165063805,-0.07893428296150368,-0.1039770631882928,0.4064240079440207,0.032950819703011586,0.01473578784379814,0.041261709975633075,-0.07826571384322539,0.31774861030692125,-0.03648212305289933,-0.5701393574445199,0.0025342143430391877,0.04616346921355555,0.009426833522806771,1.1640625
0.009973324975379474,0.18123010533002545,0.23892412022714368,-0.9347451775124265,-0.07644092446523555,-0.03377286923712721,-0.09450120871357127,0.17818458532071732,-0.7270875237071908,0.08597361953309289,1.3072569419632167,-0.005776526850069949,-0.10799785079302084,-0.021161152221994387,1.171875
0.006605773847727322,0.12203344541066033,0.16072857087646128,-0.6292302116169943,-0.051499959001259775,-0.022734471138925766,-0.06359762186267896,0.11990166919178381,-0.4897422091377964,0.05812119276192859,0.8817474042020802,-0.003879654352927966,-0.07290982141422554,-0.014212908186413737,1.1796875
-0.00618700359935007,-0.10290226404136037,-0.1357026824686506,0.5302785585563822,0.04309373871431284,0.019191551485804134,0.05374265599252563,-0.10170931241835152,0.41282130782093446,-0.047718111559876625,-0.7400848993634588,0.0033081969048349294,0.06035737748369537,0.012213969440408761,1.1875
-0.005373371780549383,-0.08884995603277925,-0.11681092487890561,0.45702029572082736,0.0370350017995016,0.01652279890077672,0.04627449902406358,-0.08766683315109942,0.35570527846823174,-0.04103225501296804,-0.638501566667758,0.002852463355936302,0.051940021535835164,0.010555308818870495,1.1953125
0.005765383029150251,0.1067239317768042,0.14126219616738805,-0.5518853185566107,-0.04537639441979109,-0.019985967834586296,-0.055905537528819785,0.10527120980560467,-0.4297541393242947,0.05106225973667053,0.7725098650452935,-0.0034035103548092863,-0.06402484311563514,-0.012431806982559728,1.203125
0.0086296807076359,0.15717511520885885,0.20776432533414535,-0.8118290295352025,-0.0665403030802991,-0.029382158074074818,-0.08222571250901449,0.154965490675705,-0.6321880412085658,0.07475457966488223,1.1363511906361827,-0.005016435790076815,-0.09388135001113902,-0.018372291327408453,1.2109375
0.003205324715358785,0.0620842064868255,0.08232891475451279,-0.32112893600559617,-0.02635615859176663,-0.011612188848822206,-0.03250999491385351,0.06106427480263195,-0.2504672573759251,0.029922358889485898,0.44989107828810426,-0.0019747025589905457,-0.03744846057531635,-0.00721210774021875,1.21875
0.001374801773285049,0.029946658709930057,0.03987246953507067,-0.15527732836592756,-0.012799429042586814,-0.005602341464616778,-0.01567920574171058,0.029286410649275712,-0.1213282088276657,0.01480812869672083,0.21763076445920598,-0.0009450741915425072,-0.01839719892630126,-0.003420909971967576,1.2265625
0.0030458862969846884,0.059203294897554354,0.0783148990150413,-0.30612682068656205,-0.025228719484667712,-0.01105662435922939,-0.030953366961973764,0.05814720849997133,-0.23807655163023386,0.028635039834736153,0.4284620965162598,-0.0018795214327046942,-0.03577194245686744,-0.0068213800171334485,1.234375
0.0021204361287108188,0.04295625467456348,0.05687777306490567,-0.222306343556359,-0.01843084928793495,-0.008012737229890455,-0.02248978490511759,0.042165671859647626,-0.17238612428666777,0.020988335306465097,0.3110312389431867,-0.0013611709750332287,-0.026134024196060895,-0.004902289666085207,1.2421875
0.00044695584203234713,0.013643007601768026,0.018338348883077126,-0.07114959002762826,-0.006008458659293398,-0.0025278203793281198,-0.007168791651211206,0.01324035777392155,-0.055109983125298426,0.0071582962154813825,0.09941573322919435,-0.0004247050821105994,-0.00874285984702424,-0.0014807692319327424,1.25
-0.0002655400871463728,0.0010814960919510468,0.0017059662115569924,-0.006411300375886001,-0.000707434239301029,-0.0001844222042095636,-0.0005715579441568897,0.000796961116631774,-0.004940614368840761,0.001244903559183599,0.009050666724574543,-2.169690944628684e-05,-0.0013372016544425053,-1.1293596691290252e-05,1.2578125
-0.004692137083225751,-0.0768302275896514,-0.10134502137800525,0.39547730225756617,0.03199730589887512,0.0143354459308086,0.040108624356689444,-0.07602055306481331,0.30835432316239053,-0.03542509717562312,-0.5521385627936856,0.0024715729366300166,0.044797780563909505,0.00916237158918329,1.265625
-0.011368860572789791,-0.19417549429572745,-0.25626122769051835,1.0009077093015106,0.08140683212086432,0.036215711885074005,0.10135613162948484,-0.19164598997964558,0.7795567572190386,-0.09068794335419496,-1.3975828989486245,0.00622539587371488,0.11437535962989194,0.022953840164557777,1.2734375
-0.01015860420325341,-0.17281383145602638,-0.2279303002908466,0.8909302986835758,0.07257364999274998,0.032229884308108046,0.09022752388059761,-0.17055672761060142,0.6929726297342065,-0.08064648849337147,-1.2433479372443537,0.0055438671184715235,0.1017713180814972,0.02042563195170515,1.28125
-1.1815297282449374e-05,0.005601688614914107,0.007567764266154854,-0.029320223293525367,-0.0024630765193991502,-0.0010577873844926406,-0.002884941744269851,0.0052649291445663665,-0.02363485478439379,0.003359005005812222,0.04234260229090965,-0.00016129265949810015,-0.003949627339433919,-0.0005447901001671125,1.2890625
0.005978221430944683,0.11092880824132804,0.14648004685396224,-0.5727936173831492,-0.046942915044583595,-0.020725298708558333,-0.05790445823351912,0.10902915474022429,-0.44562032340372226,0.05294837066106752,0.8006417846121626,-0.0035325214492957662,-0.0663708898585451,-0.012908257736378704,1.296875
-0.00028840697022748175,0.0007453558042091134,0.001076283231338148,-0.004674774110448232,-0.0007460964504902131,-0.0001935311262696893,-0.0004428600043865116,0.00044996570589304045,-0.0024799731253327658,0.0010701869618116304,0.0057619957390646495,-1.3313743169986133e-05,-0.001075866360532736,5.582693093214491e-05,1.3046875
-0.009230595452380285,-0.15658576175692943,-0.20641360927111344,0.8066675661425592,0.06542655990966253,0.02915323806757681,0.0816800996724445,-0.15454708872736977,0.6289514344936613,-0.0729734641532161,-1.1283566022400027,0.005015931216877999,0.09212501506256585,0.01855750245172093,1.3125
-0.006428533995828043,-0.10744607597691505,-0.14145059701719195,0.5530321192698912,0.04481505540548322,0.020008727924492403,0.056024096486186475,-0.10605869560097834,0.4310244420999834,-0.04980150046715811,-0.7736971207289217,0.0034453908184976173,0.06295987658664544,0.012776608897413336,1.3203125
0.006881909118087867,0.1266001216782014,0.16739771279026347,-0.6540844316355635,-0.05357408450811491,-0.02362420202990494,-0.06618909098730545,0.12463704104528063,-0.5090085789047765,0.06036597979548419,0.9142779097850607,-0.004036660492834829,-0.07572142791282255,-0.014762902128515467,1.328125
0.014017245645665479,0.2521657860562667,0.33294250217099725,-1.3012086122790656,-0.10631618809316118,-0.04703110152358194,-0.13169814961255272,0.2483428807112001,-1.0129923327438182,0.11940764602226431,1.8200751150191197,-0.008049067207790226,-0.15007234572674533,-0.02954054401300711,1.3359375
0.006749469488824319,0.12440684125508389,0.16417570944221155,-0.6418056387648857,-0.052518471191223916,-0.023192935327499584,-0.06488088212008074,0.12232808718354193,-0.4995388791998284,0.059222384986107754,0.8988832764992757,-0.00396163305005066,-0.074344855855864,-0.014504016492104897,1.34375
-0.0009284517543456373,-0.01067951943741811,-0.01397605722740262,0.0545903733886525,0.00426121046502835,0.0019941940929033447,0.005617364035756469,-0.010758342449863212,0.04272370598020376,-0.004316435503820386,-0.07493462197436072,0.0003568852428733355,0.005653864844587857,0.0013814348250838244,1.3515625
0.004281901719745067,0.08084282681344293,0.1072029699452644,-0.4182370527396888,-0.03435624364165136,-0.015109317041008305,-0.04239004431851038,0.07969615985455485,-0.3258979007579874,0.03886692135962563,0.5860401612584758,-0.0025735694955941525,-0.048644892216281904,-0.009415063411151843,1.359375
0.009845970050348908,0.17871394960351789,0.2365106597493753,-0.9231410720349524,-0.07557143412360887,-0.03338190339174806,-0.09359115288727443,0.1762427067892392,-0.7194036010231158,0.08495987334922205,1.2921310432992161,-0.005705115628219881,-0.1066374195696998,-0.020934503107496876,1.3671875
-0.0019310843169838248,-0.02817866537625298,-0.03692530678243485,0.14463766078733675,0.0115582796627533,0.005237754940841474,0.014620467331624448,-0.02797185892509738,0.11256289474258487,-0.012521800397408344,-0.20109091202769386,0.0009139286956808529,0.016040885991121287,0.0034361982162199483,1.375
-0.01960300597058756,-0.338759714659065,-0.4472326534650815,1.7470060355387513,0.1423306377030768,0.06320540886285378,0.17696768436448748,-0.33436488815935866,1.3607030528939432,-0.15879673302639447,-2.4416322887343775,0.010850744704213981,0.20013597906327488,0.039982249436628106,1.3828125
-0.018522429396844786,-0.31982801194830435,-0.422175647155362,1.6491524439676069,0.1343802092995154,0.0596673902882736,0.16703239538225745,-0.3155884443730044,1.2837152111655747,-0.14984908440675193,-2.3041165117418863,0.010246991396062992,0.18887058379561553,0.03772624682205973,1.390625
-0.0006609907292875079,-0.005939440114856565,-0.007610569670609081,0.02985243978817197,0.002278645724355643,0.001089403673007155,0.0030613264297181877,-0.005981169956441989,0.022017970738271827,-0.0020336991198482202,-0.0399257502079089,0.000206143212953896,0.002799687545183784,0.0007971715357112916,1.3984375
0.011455363583791778,0.207051395981245,0.27360208740598624,-1.068847496177861,-0.08736733572474364,-0.038647208841540874,-0.10808727438504818,0.20393905955156538,-0.8327874986674019,0.09821143659610083,1.494562463858742,-0.00661013155582381,-0.12341037304616728,-0.024223681315739164,1.40625
0.009449381352902264,0.17183996068664292,0.22712191710813184,-0.8874255882695217,-0.0726259909183625,-0.03207176985013357,-0.08968778529940681,0.16914361554882623,-0.6901138522954614,0.08160732496992447,1.2390361091446784,-0.005487950092930142,-0.10251772239202915,-0.02006712686389631,1.4140625
0.0013802845298770876,0.03001589762191425,0.039913863454808164,-0.15601981953723726,-0.013068472058578908,-0.0056135383890116245,-0.015755885675303012,0.0293544619389396,-0.11988891079717519,0.014869216174011875,0.21626578735587174,-0.0009528128964942738,-0.018479086766349954,-0.003395330043482924,1.421875
-0.006586068186204577,-0.11000257315188289,-0.14508676673953044,0.5665950879296053,0.04584784451192889,0.020512023702520858,0.05733320919044085,-0.1087350221079431,0.44278664584434174,-0.051037340453297005,-0.7929787949583276,0.003529217779033985,0.06452101893016661,0.01308331822333794,1.4296875
-0.010170564564938268,-0.17299213339625952,-0.22842869079281708,0.892035149472582,0.0725329601047885,0.032268721224979376,0.09036207839193088,-0.17095060714885682,0.69558932081156,-0.080741247933379,-1.2467838241157392,0.00554913708070357,0.10191853918419999,0.0205023023783556,1.4375
-0.0051595331862815345,-0.08495754475532274,-0.11206129144695491,0.4378488637411788,0.03562720466765126,0.015835881498302874,0.04443361385223845,-0.08407718084159371,0.3407244180339571,-0.03931786847085503,-0.6107740862765711,0.0027343913814238583,0.049752364637673484,0.010115830846962014,1.4453125
0.002833158785010938,0.05544732736883734,0.07357358268105922,-0.28690834777063406,-0.023556254284870497,-0.010370066455032148,-0.029007535686145766,0.05454527605832628,-0.2241501433986325,0.026835224499692608,0.4026881007253753,-0.0017601737305014337,-0.03354205545581226,-0.0064284232347725555,1.453125
0.004673336664226722,0.08774947855041194,0.11613430356830093,-0.4536693716288944,-0.03734786371222864,-0.016400124214022496,-0.04594409095226785,0.08641191622793151,-0.35310500538357675,0.042094604946670756,0.6350606230214246,-0.002795493456540146,-0.052754517771704965,-0.010202949373600313,1.4609375
0.0037464141424299337,0.07143293489503351,0.09433294632124556,-0.3692050142004894,-0.030520882355020765,-0.013373427939175682,-0.03738840811166829,0.07026115693014869,-0.28679330986851254,0.03441887749872906,0.5168528762899474,-0.002270859881636683,-0.04308035680515272,-0.008255416071884713,1.46875
0.0061056581463938605,0.11290122894349819,0.14914682598806606,-0.5829327228489909,-0.047840328950466485,-0.021131532262764,-0.05905828702067222,0.11121830376420307,-0.45424086731331087,0.05393105344313376,0.8169093738084331,-0.0035940762784377822,-0.06760394625918605,-0.013156510967626862,1.4765625
0.00534067314441992,0.09958413332384725,0.13178762866900173,-0.5142483769026147,-0.042097032172237994,-0.01861804022488105,-0.05213849546498181,0.09812187856249846,-0.40147720021146605,0.0476337771149324,0.7216006816900109,-0.003167977896982646,-0.05961586979045544,-0.01161671651026804,1.484375
-0.001877695735753935,-0.027126318660107986,-0.035557487098787824,0.13942590986558123,0.011286108229747844,0.005087288641027614,0.014114232467604739,-0.026964094548914602,0.10831398159455737,-0.012071040653392347,-0.1931447320099136,0.0008842087013663325,0.01555811086717716,0.003303969079274311,1.4921875
-0.0038080533423644745,-0.06111809387646142,-0.08055715655789185,0.31469018543275634,0.025567334848771155,0.011439656701467979,0.03196718283207731,-0.06054645289391344,0.24523181330753582,-0.02808778859239044,-0.4390806804309,0.0019703931253051902,0.035633351821495345,0.007314748006568342,1.5
0.0031103678703945713,0.06028536690619393,0.0798880979752767,-0.3119593924749584,-0.025612384240360584,-0.011260093600975116,-0.03146283538970941,0.05928308870228893,-0.24342480450185242,0.02911016246631564,0.4366198310501845,-0.0019166345521180856,-0.03649115494726622,-0.006986963188073783,1.5078125
0.0034462182971743377,0.06623788249304591,0.08788988537697738,-0.34292916708131793,-0.028194022668597458,-0.012380601295611518,-0.03462370292883634,0.06512588327412445,-0.2673222441608239,0.03192417780451478,0.47871589797164116,-0.0021113355995986452,-0.040061682889292766,-0.0076902081187183524,1.515625
-0.008273110251112572,-0.13948870443093436,-0.18391029685903834,0.7185018388320407,0.05838895088907798,0.026051718420554145,0.07286325430204639,-0.13796774212745927,0.5607502567101261,-0.0649766761552219,-1.0066603167362778,0.004469437836988259,0.08199294399628554,0.01654282570284393,1.5234375
-0.015301762142243292,-0.26298743375863615,-0.3471426984913934,1.3557882219596595,0.11038971352544572,0.04911028609718483,0.13738275409257972,-0.2597853590962837,1.0575334124045688,-0.1231283451704213,-1.8971397572220712,0.008423424884958017,0.15526099528832285,0.03108263188903388,1.53125
-0.007916074757199685,-0.1333818209933893,-0.17594158756811837,0.6871635478528505,0.05581781897548299,0.02488803057961669,0.06961050809915993,-0.13175809337109798,0.5358577621969544,-0.06205511465589394,-0.9605107038039229,0.004279731710327392,0.07838537232920853,0.015814570500320545,1.5390625
0.0026755069033336373,0.052651797514573925,0.06974458259263044,-0.27244333184822583,-0.022505239535332587,-0.009851511019945794,-0.027592394520884675,0.05181042011397449,-0.21214439778856667,0.025564400212792156,0.38210716475693635,-0.001670528168508855,-0.031923734029521596,-0.006074516738238204,1.546875
0.007549693199623729,0.13825297422192562,0.18271264901349202,-0.713785940223445,-0.058516250651949535,-0.025829735026853956,-0.07226853850114054,0.13623205832698557,-0.556145140168033,0.06587336576943115,0.9998352615596604,-0.004407022150207071,-0.08266289183629934,-0.01613126744211314,1.5546875
0.010233274664312043,0.18521914359753663,0.24480691284117598,-0.9561199699962261,-0.07829612784644381,-0.034622013086900466,-0.096857733133279,0.18272653053772758,-0.7457389891985278,0.08803133837362545,1.34027658762469,-0.0059077060420096306,-0.11055021710938988,-0.02167203570895304,1.5625
0.010134835298928162,0.18342696744013814,0.24253468477813125,-0.947117900834632,-0.07759658880526059,-0.034314495897166286,-0.09602203632251853,0.18108688063786285,-0.7390063701991274,0.0872115249741958,1.3280842942624072,-0.005851110034923397,-0.10951550765257437,-0.021486235473102067,1.5703125
0.001602482944151225,0.03383421718131961,0.04479059773562002,-0.17524519964338284,-0.014603896549136167,-0.00637283940051315,-0.01777926993101703,0.033220640606612256,-0.13629970614538411,0.016672182640636756,0.24578441967264394,-0.001068146342626339,-0.02072474898915248,-0.0038638136946000778,1.578125
-0.009691859410410697,-0.16425606741544177,-0.21704189117644065,0.8470268633321407,0.06890230295579977,0.030636361302767357,0.08593274567396783,-0.1626375603964052,0.6614031472104414,-0.07674272251143305,-1.1872506643253622,0.005266344496363338,0.09684675125387579,0.019488449879901632,1.5859375
-0.012129991382701405,-0.2071429924857322,-0.2735490269609154,1.068162087130817,0.08701287229789835,0.03864131880366395,0.10837435504987145,-0.20496550742034247,0.833100161703351,-0.0969342419441075,-1.4963312495224559,0.006637328750476795,0.12225673379425496,0.024535794715639457,1.59375
-0.007547256824470771,-0.12686752475970692,-0.16727680568827014,0.6536865381511674,0.053166712172955675,0.02365272765128268,0.06628045798418931,-0.12545418434587768,0.5090229190561217,-0.05901452304205832,-0.9135657427235178,0.004071309740697615,0.07456002951605122,0.015056506317399267,1.6015625
-0.004821437621132936,-0.07900685975609867,-0.10406554785948767,0.40686024922367947,0.03301075251842137,0.01475403881681146,0.04122396620849028,-0.07808528440157425,0.31674190408665104,-0.03642875643213505,-0.5664246522168163,0.0025437018214464306,0.046171777719623504,0.009410334621419792,1.609375
-0.0009745588534855855,-0.011306313629459,-0.014713692716686693,0.05777392878644812,0.0045819522698241225,0.0021586192396427675,0.00591929087415059,-0.011364662107909866,0.0454352803311247,-0.004607224743575163,-0.0791791308806693,0.0003777165132487644,0.006100388959177642,0.0014464495740769176,1.6171875
0.009086623867044315,0.1654516393064087,0.218855287735205,-0.8544736397189674,-0.06985311644537,-0.03083706478345829,-0.08648763884010785,0.16301979803489736,-0.6650745650191168,0.07860440176586511,1.194783842370705,-0.005281464234220401,-0.09870219593468099,-0.019362881703237505,1.625
0.014383821622126305,0.2583888933298715,0.34170604950220845,-1.3343930120769913,-0.10913076775823864,-0.048220553797469354,-0.1351971234497813,0.2548227212988287,-1.0391730231186223,0.1224416243118158,1.8656868793973778,-0.008257353256660252,-0.1539100531008419,-0.03030669898069628,1.6328125
0.005415083980176002,0.10071153669571212,0.13339842933995485,-0.5207962824231318,-0.04282598713868082,-0.01882129200982513,-0.05281803199793755,0.09931887241997031,-0.405731407589865,0.04825782341655771,0.7291835745549525,-0.0032110484750720114,-0.06050653893361362,-0.011737104914868887,1.640625
-0.0028003578698413832,-0.04362896943524846,-0.05733923302990872,0.22428851909503889,0.018031985203270606,0.008110911139480786,0.02273593451163626,-0.04314015150201403,0.17430319734818903,-0.019740248821484587,-0.3118834165120612,0.001409376493721369,0.025103407022415588,0.005264458353788394,1.6484375
0.004525610587102857,0.08519493988178861,0.11263562477899275,-0.44012614205955813,-0.03609991902085351,-0.01591903533041933,-0.04449269363310327,0.08383162940362543,-0.34311252037719864,0.04084456880792035,0.6167127517087196,-0.0027102771614345824,-0.05118074862646738,-0.00989586901787231,1.65625
0.009828643549958896,0.17847986076649222,0.23561005520621614,-0.9212826863349495,-0.0753692852288423,-0.03331325753910933,-0.09324395696985796,0.17577659505857926,-0.7173182679274315,0.08473520180093183,1.2889647002314197,-0.005692250712541814,-0.10643690390579308,-0.020879801180053805,1.6640625
-0.007457269599196973,-0.12528351091153994,-0.16551938371697986,0.6459252449197499,0.052480026041022365,0.023363436172247426,0.06545556508837462,-0.12382633729421526,0.5033352953384994,-0.05828488107245113,-0.9020312363612247,0.004026248974549378,0.07363333111047976,0.014855805160433902,1.671875
-0.027086455643983924,-0.47032393901980973,-0.6208138954750844,2.4256906654273203,0.19770514957826588,0.08771736188925264,0.24572414257563072,-0.4640710057319924,1.8888311244235818,-0.22074245521951144,-3.3906733981859656,0.015059266803253429,0.27814058855497076,0.05544153822760623,1.6796875
-0.017458388965158757,-0.3011653279777587,-0.3972654134204882,1.5525161434749577,0.12642951074517028,0.05613983419647724,0.1573301204438204,-0.29723982149099054,1.2087948789276517,-0.14110540642189456,-2.171494968347975,0.009641150709961866,0.17780651574199585,0.03553821594474382,1.6875
0.00813763998454614,0.1487200837738177,0.19649459037975406,-0.7683110317109743,-0.06298649440463218,-0.02777715558570752,-0.07769823293627207,0.14634548346555523,-0.5977506373273156,0.07072222502511175,1.072453123170339,-0.004749494235182564,-0.08890813864609541,-0.017363736650058362,1.6953125
0.013005832625197227,0.23434248768786922,0.3092731847480738,-1.2093570832129932,-0.09893522618725763,-0.04372455000835742,-0.12241505231300255,0.23075216297747433,-0.9409291808148832,0.11106629618166602,1.691071716873072,-0.00748015083220953,-0.13959039553952637,-0.027409435883372666,1.703125
-0.0013285082846840263,-0.01757240081012498,-0.023160199584378673,0.09049914620694392,0.007212873326430192,0.0032715685907315473,0.009131379167669488,-0.017553077459389107,0.07058622085124343,-0.007508670389925894,-0.12372233638202709,0.0005827881045753071,0.009847290589556402,0.0022159634729444306,1.7109375
-0.0049400395795483,-0.0810912639308909,-0.10665244171326717,0.4176848085819135,0.033892846479718026,0.015108818478528213,0.04222671462020695,-0.08006015947695727,0.324959109637661,-0.03738984256417111,-0.5814360055391162,0.002609916092211476,0.047482678987100436,0.009660521670726983,1.71875
0.004658331485635654,0.08753084691928782,0.11610234398029834,-0.4526835189120926,-0.03722707866807643,-0.016339256603159366,-0.04586015156931217,0.08621362119204012,-0.3522670268098854,0.042019827457837174,0.6333560553396096,-0.0027906436273305944,-0.052601793022364146,-0.010173173878947402,1.7265625
0.006192437993323362,0.11446794234934662,0.1515508829187246,-0.5915555562072153,-0.04857587686342996,-0.02135209695813996,-0.05985245542981751,0.1126688039163324,-0.4598894560514705,0.05469112811055042,0.8267373334123661,-0.0036531379955637077,-0.06861559639857534,-0.013317847671395471,1.734375
-0.0005837734477838102,-0.00456314506540974,-0.005759451775312763,0.022756800750972712,0.001643085609893946,0.0008333350246000145,0.002384023532373226,-0.004803079450231079,0.018357443958641032,-0.0014122504627728616,-0.031794216773663946,0.0001575548693915484,0.0020350773801036197,0.00068233434794527,1.7421875
9.887211989024621e-05,0.007501916074432352,0.01004497677347809,-0.03952665518398835,-0.0033839024400532224,-0.0014464699860580628,-0.003921112654773838,0.00707981650340892,-0.03031943593832413,0.004208450730974031,0.0549073955768537,-0.00022685021809347637,-0.005058822943376852,-0.0007675837491490241,1.75
0.004571014890504061,0.08610545959954227,0.11378947784637619,-0.44517856774882436,-0.03652682173677953,-0.0160957034345945,-0.045019362915372736,0.0846637319114838,-0.34613837091759475,0.041223033097791933,0.6216606618044667,-0.0027419433278111334,-0.05170677622240153,-0.01003272883295158,1.7578125
-7.920763813194361e-05,0.004388297321986746,0.005979923771761994,-0.023515043125103666,-0.002145592827944489,-0.0008035509384630527,-0.0023666322487973027,0.004172959131496029,-0.018116552322092184,0.0027839361186810037,0.03322771246129784,-0.00012775657822431628,-0.003289650962413165,-0.00041646448832274093,1.765625
-0.005790738323213405,-0.09598187384719707,-0.12647134588055156,0.4945456172240773,0.04019121688892046,0.0179354574286991,0.05008104285103284,-0.09475586977009968,0.3843213585151069,-0.04448339115676515,-0.6894968030347343,0.003085155687055129,0.056274169716024634,0.011387968924276083,1.7734375
0.0006809245559743895,0.01763159842300084,0.02350774142216525,-0.09151108723432194,-0.007582784990748753,-0.0032993299327574335,-0.009220026599948576,0.01732290532943491,-0.07271977055198703,0.008987413812774245,0.13017293597040472,-0.0005474727140830176,-0.011065614796083527,-0.001991321818495484,1.78125
0.008855427405932174,0.1611328217609343,0.2129347390212461,-0.8320421138257996,-0.06808409176550002,-0.030107697962870376,-0.0841923083156309,0.15886581304171557,-0.6487923316499625,0.07659229106935014,1.1647299986178445,-0.005138887414309556,-0.0962302316277386,-0.018867943554387645,1.7890625
0.0031855611953330704,0.06157903811804983,0.08143683596671937,-0.3185597373617497,-0.02629169755853499,-0.011522454849004979,-0.03223651385839832,0.06058217472871039,-0.2476827562273787,0.029770090599881567,0.4460957657311066,-0.001955892123437768,-0.03725444589301303,-0.0071222248774807624,1.796875
-0.007521481808171159,-0.12632577478965837,-0.1667957254453287,0.6511179460100995,0.05283859519954387,0.02356821922669375,0.06595773106438288,-0.12494614536214672,0.5079178747890382,-0.058725544498408694,-0.9098489038885414,0.004056023078074486,0.07422470904701504,0.015016400535815572,1.8046875
-0.007906955554716205,-0.13307980926877538,-0.17580434002991605,0.6862513299978268,0.055774815080687844,0.024836696700325067,0.06957507088894274,-0.13167681216464217,0.534934147224991,-0.06194919780097433,-0.9587935127928763,0.004274184663261716,0.07828156492445315,0.01581609525017087,1.8125
-0.004510732940127211,-0.07363356477936144,-0.09719345284043258,0.37934969962473614,0.030722716711759725,0.013730246697635163,0.03850110968159788,-0.0728945773397759,0.2959252141682712,-0.03393339492808734,-0.5295537810393599,0.002371269620285818,0.0429670109664634,0.008810124271409064,1.8203125
-0.009206772792319951,-0.15624694641174794,-0.20603248156507623,0.8050803499399591,0.06541190906153463,0.029132751106816433,0.08155628706456218,-0.15426040566576896,0.6277809287474062,-0.07278201472380055,-1.1250595750254029,0.005009752878776079,0.09187649618621911,0.018522787692624394,1.828125
-0.012491012042293522,-0.21382801160041384,-0.28188445349414415,1.1020344607598505,0.08968178706647234,0.03987047699823796,0.11162269416451275,-0.211109761500241,0.8584988959336325,-0.0998945100924357,-1.540521560194538,0.006849379345754467,0.12604058911832036,0.025297703312550556,1.8359375
-0.0009956301059549943,-0.011788660832163594,-0.015041112341709536,0.05990865467200414,0.004711523696529943,0.0021620112736408493,0.006125917867200125,-0.011865546439093082,0.045844909920116216,-0.004774568528846254,-0.08319833093179167,0.00038709693077504815,0.006280354081277814,0.0015217345016488183,1.84375
0.013881922763552533,0.24955850544377264,0.32998772864392883,-1.2883680804412592,-0.1053571337916786,-0.04660732299729771,-0.13043378569816494,0.24598266686407363,-1.0039923169553602,0.11829155026171109,1.8019541264147647,-0.007972599285592685,-0.14869611042837244,-0.029239311496892788,1.8515625
0.012292334519402143,0.22170602096783207,0.29300910188577073,-1.1447996671601173,-0.09373545205629094,-0.041396276743730955,-0.1159427311987923,0.2184924361880935,-0.8906859420045262,0.10513890366576778,1.600143326285481,-0.007082353493580026,-0.13214780638371917,-0.025969724875743373,1.859375
-0.00079888826564017,-0.008110902015357583,-0.01060505888728871,0.040892293827308204,0.0030480867987985917,0.0015064577611549551,0.004143728427352779,-0.008310095536711375,0.03353741180633572,-0.0031591588608984125,-0.058770280331695395,0.0002693772042931746,0.00423554927260305,0.0010684202708071925,1.8671875
-0.0045228549814873235,-0.07351542434086017,-0.09687430452064728,0.37842227911486237,0.030692613467777116,0.013718249211448692,0.038346436687908624,-0.07279381430737007,0.29565435081409397,-0.03397148662256362,-0.5301277427441426,0.0023629286065431736,0.04306600114803709,0.00875535892764617,1.875
0.004627501811928159,0.08706034734426785,0.1153130631679965,-0.45002629251321763,-0.03689716007671891,-0.016249514665351406,-0.04558054879462743,0.08579386386576253,-0.3506502537574272,0.04171836217758741,0.6301799145010428,-0.0027719222378627274,-0.052233530143892835,-0.010150945295912548,1.8828125
0.012456182123286778,0.22444603765621124,0.296587114445496,-1.1586104952214118,-0.09475874811415534,-0.041891264472921255,-0.11734320998403237,0.22138118382749106,-0.9030227751064412,0.10646208434821164,1.6227850123662433,-0.007162736819272383,-0.13376851232496895,-0.026309777814713806,1.890625
0.012095318531433037,0.2181248036899554,0.2878909594229408,-1.1254345716979437,-0.09201240752583813,-0.04071299786127739,-0.11391737452522092,0.21498231800308157,-0.877390614633295,0.10345696988482105,1.577226876359598,-0.006954398886268583,-0.12997703438192174,-0.02553922537418376,1.8984375
0.00698629189928905,0.12846845067319,0.16937029891114772,-0.662690596352157,-0.05418216169995557,-0.02398166505427357,-0.06700830238399377,0.12638270021587683,-0.5169483763282128,0.0612038217290209,0.9294122953528239,-0.004084750508369726,-0.07678163476853239,-0.014978431497172333,1.90625
-0.003553546359598991,-0.056663697640815414,-0.07489549918151098,0.29179725282770025,0.023666802871290468,0.0105647532762385,0.029645172257864772,-0.05622959169404236,0.22715292100826207,-0.02598130731005304,-0.40764847017047307,0.0018300320954160556,0.0329122436865252,0.006787801266200558,1.9140625
-0.0200041474842459,-0.34576337432714793,-0.4564219233803905,1.7826481138341579,0.14520147598140734,0.06451142326486661,0.1806327578947083,-0.3413317411673989,1.389317912715255,-0.162127517213565,-2.49431857177334,0.011068879412718386,0.20425314407926773,0.04079942801578191,1.921875
-0.02990357448227387,-0.5198170596274545,-0.6861440233530068,2.680760885412489,0.2184293631243825,0.09699140438239759,0.27160303137907144,-0.5129785426104094,2.0890434488110667,-0.24407875955106118,-3.749484373658408,0.01663540322869987,0.30748973901659593,0.06130766618798536,1.9296875
-0.020205983137991428,-0.34946626788629276,-0.4610235460192602,1.8022805068193992,0.1467919873486305,0.0651993645479039,0.1825924602374718,-0.3448890721370283,1.4039786445736657,-0.16380206028437555,-2.5190707638928584,0.011189562050022216,0.2065389596787787,0.041277912913480014,1.9375
0.0012791337734686275,0.028151810015773625,0.03781311793455077,-0.14612996912405204,-0.012127144013961604,-0.005276931782012738,-0.014797373194697951,0.027638935029214606,-0.11436899467607829,0.014055330540503033,0.2055119639947935,-0.0008904508462346378,-0.017381659108674286,-0.0031865651579132378,1.9453125
0.014315772479470273,0.2573553384642336,0.3403631476769426,-1.3290312662630157,-0.10863619026495501,-0.04804999340178383,-0.13460660386244408,0.2536764237988316,-1.0354552246726452,0.12195343258837613,1.858162983246081,-0.008224211847015163,-0.1533124029648905,-0.030187372224279665,1.953125
0.01230400091804105,0.22197478308875884,0.293261428212302,-1.1462803065038245,-0.09376625427554368,-0.0414354575898807,-0.11609065597806584,0.21871233625144645,-0.8924989758353505,0.10527228427411701,1.603049825853714,-0.00708798498907713,-0.13231661039514936,-0.02601032409896648,1.9609375
0.005402714019972987,0.10053272699712477,0.13274427089647065,-0.5192618468341162,-0.04264464068556563,-0.01877202719918544,-0.0526122514449768,0.098978277538025,-0.40424777309862003,0.048134371567072363,0.7283543478123594,-0.003197105815992277,-0.06030788516213897,-0.011694747089656577,1.96875
0.002840709960278661,0.05545983569266994,0.07343801960605364,-0.2867778804173477,-0.02367591424305991,-0.010380953403696887,-0.029075363847117223,0.05460669053620891,-0.22349185342707276,0.026931634768060375,0.40325088085719873,-0.0017572593023588029,-0.033602069194215003,-0.006396228515597252,1.9765625
0.00525107328587399,0.09799620296860906,0.12973243858941702,-0.5065839007493165,-0.04159806301613348,-0.018324753339530403,-0.05130896067665578,0.09652337048267488,-0.3940909002704532,0.04689637626328189,0.7082083843442178,-0.003124160098416001,-0.058778599151316606,-0.01141810749340491,1.984375
0.00914608177271136,0.1665901271097059,0.22016324700641468,-0.8604284067134731,-0.07047270475614122,-0.031103221091435693,-0.08713272836679414,0.16409899429916325,-0.6689900724560981,0.07914884894534815,1.2020050870182064,-0.0053185802520829255,-0.09938248663920493,-0.01948675970075185,1.9921875
0.008127971155120683,0.14859175968789662,0.19635106130435534,-0.7672670680061164,-0.06285362567064899,-0.027737357129554725,-0.07768202858380156,0.14635764496878526,-0.5971392022729947,0.07070684883660559,1.0730773035081724,-0.004739324148139919,-0.08875059070558271,-0.017357475642423827,2.0
-0.002928056523606176,-0.04583021928537613,-0.06021591444121995,0.23581996201429775,0.019058756920179252,0.008522880694666156,0.023978279968813347,-0.04541421772470084,0.18298444515356346,-0.020835823140535243,-0.32895784627264324,0.001479016352007624,0.02644671081799074,0.005522173295397182,2.0078125
-0.01627925042707153,-0.28033610098456685,-0.36990419045250744,1.445536932418756,0.1178077268748394,0.0522868805997261,0.14654490355190994,-0.2768322765273973,1.1256462502386226,-0.13133484725467806,-2.0214658576515365,0.008978236199606986,0.16554425465499475,0.03311379818659999,2.015625
-0.015381845321915468,-0.26440575546272244,-0.3491745465159075,1.363444134542994,0.11105438694392665,0.049350898692133625,0.13818065729627332,-0.2611747610846995,1.0630958326031565,-0.12387221171320432,-1.9067617646311683,0.008471679871630914,0.15621154605787987,0.03124031158328835,2.0234375
0.0005382613055732546,0.01525682090533986,0.019961657276155457,-0.0791116806825959,-0.006735900205166444,-0.0028315406301508738,-0.007962435056331875,0.014753528981238943,-0.060384510359506864,0.007873893100974586,0.11143015081415233,-0.00047030689427038884,-0.009635223738386265,-0.001659971933356969,2.03125
0.010804178427687702,0.19549225741069143,0.2581151052978363,-1.0087983518233925,-0.08257511440776959,-0.03650281161127293,-0.10206630743461102,0.19255657718257574,-0.7856781745639642,0.09278113379411077,1.4117452642365333,-0.0062365626938891425,-0.1165876506298758,-0.022859007079444407,2.0390625
0.0032851536686419013,0.06345651987601492,0.08391313515222436,-0.327569484811537,-0.026867389947988728,-0.011866458208320003,-0.033054045336221666,0.06225848986960895,-0.2558423216678287,0.0305610049732973,0.45923160480940467,-0.0020137068705482404,-0.038234107523045596,-0.007332797654536119,2.046875
-0.006907087510200013,-0.11550804468216144,-0.1523741725795041,0.5955865083076424,0.048534146640269116,0.021576503575921547,0.06032559755512249,-0.11417387184595701,0.4630593143232516,-0.0537216394548941,-0.8303117408326921,0.003714141199588811,0.06798007319582881,0.013689941077192205,2.0546875
-0.003123675861942872,-0.049231055258046344,-0.06470475287342872,0.25320947284887607,0.020523697690797222,0.009210202334693834,0.02554832574845466,-0.04853254114744566,0.1960699970348046,-0.022406288153235258,-0.350451612094577,0.0015938575603935393,0.02855571582824438,0.00586950640628888,2.0625
0.00555403110736415,0.10291245589992094,0.13647500014644717,-0.5322868800772197,-0.0437118040542168,-0.01925342263996867,-0.05397179447751545,0.10166827684339673,-0.4158721643450306,0.04934529958259253,0.7466123344995046,-0.0032804209150130792,-0.06189804189076553,-0.012013568699624683,2.0703125
0.0013164821924536109,0.028504696889538085,0.03829945387074691,-0.14871589829397777,-0.012472204499600568,-0.0054067681574197215,-0.015062107280659,0.02812174608413832,-0.11618529610506476,0.014286230727729627,0.20760158884080607,-0.0009069291378864252,-0.017814117342170928,-0.0032345317747244414,2.078125
-0.011164336679138692,-0.19039193371153312,-0.2509890059492821,0.9806492891273553,0.0797183959077798,0.03549985053781953,0.09933495812578767,-0.18804432549774588,0.765034736452325,-0.08889861857398579,-1.373430916607782,0.006095129134376118,0.11212585459760074,0.022520920294349697,2.0859375
-0.011708253699637437,-0.19973901733235913,-0.26361046255813453,1.0290752439051791,0.08369277558703846,0.037308262072830514,0.10429044782759041,-0.1974141488890848,0.8037408370262178,-0.09335856744329937,-1.4418916777186777,0.006396013208701513,0.11771571381160836,0.023625873142750758,2.09375
0.0026152335244555534,0.05175734458081999,0.06842965108042241,-0.26816307048666593,-0.022176543568985928,-0.009641903349461507,-0.027030544902565293,0.05067454369123771,-0.2069277004419046,0.02510144591811591,0.37246272340608133,-0.001647814963914918,-0.03147032155445387,-0.005941844588005933,2.1015625
0.012390172297659728,0.2233304544575086,0.29506949698374224,-1.1529251231941062,-0.09434009880609766,-0.0417091665739257,-0.11669082086799631,0.220045527025876,-0.8972935752388096,0.10593397627652594,1.6119358661805616,-0.007131675961426868,-0.1331502628074673,-0.026127714898651098,2.109375
0.005783630091319976,0.10733468925089737,0.14190167348503466,-0.5540216766298591,-0.04538999741531788,-0.020066544520686243,-0.05612673385493098,0.10570387820867469,-0.43197233826644926,0.05128881342735812,0.7772987599235772,-0.0034145869046917476,-0.06420151496618248,-0.012502570714303888,2.1171875
-0.00450912811695211,-0.07339965135583702,-0.09680876167040323,0.3786110110646331,0.030723107710602764,0.013680079682739491,0.03836685799707089,-0.07264392039535332,0.2943378136895895,-0.03386793476499351,-0.5262449280884699,0.002367571186083707,0.04303092459555825,0.008763975733014583,2.125
-0.0024565965696891246,-0.03741349782793406,-0.049262884231427786,0.19276676608895213,0.015489869581872482,0.00695910720989652,0.019621209742567532,-0.037189241810734346,0.15022142812236278,-0.016924619791946652,-0.2677551339684791,0.0012118867751127024,0.021622647358442423,0.004550545480955298,2.1328125
0.008020203232932743,0.14658166234479805,0.1936987375990855,-0.7566607574529024,-0.06200014268294099,-0.02738355403059,-0.0765995535989976,0.1443998625516358,-0.5890963785830979,0.06975496325626877,1.059397756652056,-0.004673802858176187,-0.0875155351548683,-0.017106478416521066,2.140625
0.012853086722634357,0.23159277035394313,0.3057746306082208,-1.1950322761439847,-0.09770274253882946,-0.043228711734189025,-0.12108530713795784,0.22826862906176917,-0.9311058607274503,0.10979661209674874,1.6733002291356405,-0.00738720351984247,-0.1378899092307194,-0.02713024825131682,2.1484375
0.007894526639726495,0.1445706904120776,0.19076013016142337,-0.7458806961598843,-0.06100890280276346,-0.026979045729715077,-0.0755158204067153,0.1422681528747682,-0.5817026161563275,0.06878950951027953,1.0451726956006258,-0.0046024464599762945,-0.08630638028265342,-0.016883575577825292,2.15625
-0.0033379608393374325,-0.05288049046256125,-0.06969563843052576,0.2723321854524791,0.02205256236163546,0.009849454547948068,0.027732686474399033,-0.052538317438794606,0.21161678055267513,-0.024216005605848814,-0.38040031301490773,0.0017052931056264085,0.030683695050291792,0.006354335886945255,2.1640625
-0.01743749288440632,-0.3007672736857591,-0.3966743735147357,1.5503971686400964,0.12631918592653832,0.05610359831703877,0.15714234633779064,-0.296853640573222,1.2076512546442273,-0.14095511379092798,-2.169139801646056,0.009626741033397937,0.17760529483157872,0.03548745658029312,2.171875
-0.02499171375053494,-0.4335276074799076,-0.5720136666754991,2.2350337123117594,0.18218228095535752,0.08090477621632573,0.22637929430253925,-0.427666993789763,1.7412605307644842,-0.20346696357711494,-3.126551253338307,0.013874060975871396,0.2563105009596405,0.051079049532974846,2.1796875
-0.01469279336663881,-0.25255167967817355,-0.3332450306543546,1.3015910356810871,0.10599027210727315,0.04714113268242135,0.1318210788438848,-0.24918654834133294,1.0141110948422325,-0.11820183930605954,-1.8204475223302459,0.008089345088918879,0.14896887821566504,0.029795352298161975,2.1875
0.0062742869533094275,0.11582163036815517,0.15322702776785663,-0.5988078074434607,-0.04911732384972176,-0.02163306643721312,-0.06064566746529737,0.11418190109477952,-0.46648353286430827,0.055341147525279584,0.837691175120958,-0.0036929232096326024,-0.06950198930197277,-0.013535803219161086,2.1953125
0.01698378369444031,0.30401964678734156,0.4018152199830719,-1.5697152504565943,-0.12836429200439423,-0.056774454325468585,-0.15900733753821686,0.2998314314533191,-1.222771535656745,0.14399856673437728,2.1956892015980594,-0.009712923456566911,-0.1810689370431968,-0.0356726728360695,2.203125
0.013076751969598845,0.23552372847919908,0.31112610415003455,-1.2157856133147453,-0.0994937481800275,-0.043968492767514564,-0.12312471346366813,0.2320532003111111,-0.9464891363563298,0.11169755452894535,1.7008498390940783,-0.007519241222641297,-0.1403396600373744,-0.027568800136000958,2.2109375
0.007124459838867662,0.13107430340195378,0.1729907340675051,-0.6763051713536171,-0.05545020344000795,-0.024444766656252837,-0.06838463862949956,0.12878068627203784,-0.5257269640538458,0.062448276021314336,0.9464475503985094,-0.004176084053985022,-0.07828986778887355,-0.015227158956202093,2.21875
0.0017963733475935576,0.03741571516899472,0.04959326420744489,-0.19341838662402816,-0.01598905107902585,-0.006973979826096974,-0.019477002688390085,0.03651371888042555,-0.14983452279456902,0.018342297142023792,0.2711030408940688,-0.0011832172684731624,-0.022744320485352024,-0.00422547702986308,2.2265625
-0.006674318620416939,-0.11160931330687478,-0.14676487746584585,0.5745563787387379,0.04667165269574777,0.020798330409586438,0.05818606592260194,-0.11016155181612412,0.4478448194352662,-0.05177510703248701,-0.8028791792308827,0.0035785864965606853,0.06551609698050025,0.01325487957466089,2.234375
-0.009192551582563222,-0.15601602301846107,-0.2054438994970759,0.8035499334336564,0.0652450574772012,0.029063194986323124,0.08132571226980508,-0.15390513886909576,0.6262891543190545,-0.07263398348839195,-1.1228177629423381,0.004998837206291646,0.09174833234529556,0.018486407502364896,2.2421875
-0.0011372886883893522,-0.01444237867901288,-0.018927490114315302,0.07388249003897825,0.005656244021105262,0.002657713678347497,0.0075028472105315176,-0.014463323324027038,0.058186301371610544,-0.005988972246766186,-0.1019895910464633,0.00047580795530660706,0.007821641221194338,0.0018676185978347385,2.25
0.0007028316835847579,0.01809573396303581,0.023768572510629492,-0.09359359646385297,-0.007859829358269364,-0.0033938684524232134,-0.009380313049215485,0.01751932198210255,-0.07279630393442806,0.009229228548734647,0.132042045261168,-0.0005603149113650594,-0.011379327836463737,-0.0019896775564656084,2.2578125
-0.009400639017399176,-0.15927940214293107,-0.2103789068197798,0.821245447166809,0.06697320612929912,0.02970253792972561,0.08327116635627704,-0.15737916535753546,0.6387525937104522,-0.07440204296344786,-1.1479878221731732,0.005112875282787947,0.09384827618088136,0.018807726582395393,2.265625
-0.008476081602471817,-0.14305613815241977,-0.1888080805845808,0.7375216314352897,0.06014563034875728,0.026667044470049302,0.07475536431761307,-0.14132691593744998,0.5731376442542921,-0.06677841336690735,-1.0307601782195264,0.004591877746247022,0.08425153723716866,0.01688811086888552,2.2734375
0.009559640753820701,0.17380434023482852,0.22961246374753486,-0.8967647411090155,-0.07331824985346597,-0.03243900937507091,-0.09078243380398371,0.17118827082256108,-0.699241092794921,0.08249053640942007,1.2557552231769606,-0.00554282038650818,-0.10358230728705049,-0.020341906515611304,2.28125
0.014711167957532214,0.2643585713870745,0.3491541776905177,-1.3639955853585495,-0.11150223091203451,-0.04930337099665036,-0.1381057624250218,0.26047517965073036,-1.0621955904066473,0.12518513602689782,1.9090401268475947,-0.008439130740775104,-0.1572803255464326,-0.030968949342118992,2.2890625
-0.002899008270918632,-0.045131238341780976,-0.05942859712715233,0.2318041979282342,0.018675810542841703,0.008442187832551263,0.023504390298329857,-0.044766279793485776,0.18151273498263135,-0.0205211534100875,-0.3245141907297929,0.0014559302871422048,0.026090910160648448,0.005428153200622014,2.296875
-0.010388562838465927,-0.1769952649560042,-0.23338287308747868,0.9114113672275705,0.07404115659598023,0.03300442138723536,0.09229732988365186,-0.17471270331155317,0.7110026267008918,-0.08255844962696493,-1.275926563745964,0.005669129398140328,0.10412528719838467,0.02093423007860797,2.3046875
0.006508609804899648,0.11970291775134205,0.15842855659118196,-0.6189266705544245,-0.05088389761562971,-0.022386240283288887,-0.0627177690057947,0.11805444521085824,-0.4814863348955243,0.057214047763425646,0.8657003743574992,-0.0038192535882637757,-0.07180220562901202,-0.013953532068528599,2.3125
0.016533458334605546,0.29596507902523256,0.39104114505588483,-1.5274784823253678,-0.12493271197701508,-0.055264519036991686,-0.1546744911309818,0.29184484282845913,-1.1899257774904732,0.14019121222697098,2.1378536315464123,-0.009451980290136473,-0.17621707778899154,-0.034672837180056,2.3203125
0.0019428926306658074,0.03986052780712135,0.052801391430860795,-0.20600636338972503,-0.016963454071312854,-0.007456262936744536,-0.020732338094160415,0.03902725189099258,-0.1610481268298969,0.01949674730638567,0.28921268968537084,-0.0012596901914769438,-0.024312646661722538,-0.004549936951943632,2.328125
-0.012403012934696768,-0.21210507568600223,-0.27980163605669894,1.0935132950476774,0.08910492856703224,0.03956785203541189,0.1108844752105725,-0.20956500679525641,0.8513734410701147,-0.09920034821970913,-1.529190463830453,0.006796273608336868,0.12507945539231943,0.025071018738744934,2.3359375
-0.008599322750459989,-0.1453295006225911,-0.19157132479247987,0.7487478012987007,0.060878217462487165,0.027115892344860327,0.07585017034242951,-0.14356200688606327,0.5834522362446682,-0.06770054579015754,-1.0465537638458073,0.004659813569772091,0.08548556461524702,0.017211050448959552,2.34375
-0.0019053447760169005,-0.027739551702178337,-0.036414751678418227,0.1421909768172875,0.011301137637987487,0.0051806714030742775,0.014348300520426046,-0.02750032323589261,0.11145126493778927,-0.0122636471276015,-0.1976244553718413,0.0009008494133925062,0.015763479774564094,0.003398678820682907,2.3515625
-0.004594153459732563,-0.07495324500686192,-0.0988195042098693,0.3858361536351026,0.031206524622008833,0.013979953066237073,0.039081356869278966,-0.07414986316562885,0.3011956407698087,-0.034515434309708215,-0.5390956065660809,0.0024108529221714267,0.043741675687118196,0.00896136755824136,2.359375
-0.008439848909235185,-0.14255099921649914,-0.1879332309713696,0.7343992326467771,0.05971106299999494,0.026575622141131364,0.07444456028638208,-0.1408434343313321,0.5725153945481898,-0.06639792014015684,-1.0273872872162568,0.004570416062999467,0.08381537853507914,0.016887523060792786,2.3671875
-0.00787493075078759,-0.13271113470279736,-0.17481065184995612,0.6834938325261221,0.05554417460237375,0.0247361702382294,0.06926292983389805,-0.13103344574086978,0.5329078574168303,-0.061754179224119014,-0.9557010280366367,0.004255032796692723,0.07798359575802097,0.015712546973972483,2.375
-0.004803708819775369,-0.07877780483474756,-0.10369770471563793,0.4054066343292259,0.032800480273363276,0.014675223292807389,0.041064660384653784,-0.07781697484198122,0.3162005898668726,-0.03631778001225817,-0.5660397733131619,0.002531784968521865,0.04599873010739104,0.009390255505545652,2.3828125
0.0037570695349560014,0.07169935330572129,0.09481010716641199,-0.37061166339908364,-0.030499655409310832,-0.013408572067100165,-0.03750287538607328,0.07049726710281937,-0.2887799845564176,0.034515572324277634,0.5189649802527916,-0.0022801725164335912,-0.043202764087279945,-0.00829355042277377,2.390625
0.015217378524465766,0.27313882279048546,0.36073944481968856,-1.409677821071086,-0.11521378142410196,-0.05099091679939197,-0.14270628732110854,0.2691249382303812,-1.0983236980877567,0.1292993238493878,1.9714513373323583,-0.00872340772326758,-0.16256618669445175,-0.03201004907249798,2.3984375
0.015835640493806553,0.28405793651069133,0.3751352217612931,-1.4658889867536657,-0.11976945675530896,-0.05299855039172787,-0.14840126993890343,0.27989151532990403,-1.1415758181555287,0.13441377562497425,2.0502440155948176,-0.009070619331470029,-0.16896458661619573,-0.033309047265190066,2.40625
0.006377849326645489,0.11791664355769396,0.15559128241575676,-0.6084086398333012,-0.049773446001826746,-0.021978616765103178,-0.06154710798599218,0.1159590609011793,-0.4736158925364623,0.0561990807793069,0.8523539741089264,-0.003750635624641466,-0.0704294996939299,-0.013746345161916204,2.4140625
0.0051781538028219,0.09680424857829316,0.12754457690516846,-0.49908419280840105,-0.04079093295873034,-0.018063429677193838,-0.05044551011829506,0.09510488752400241,-0.3895298506264793,0.04625796343789301,0.700881556180046,-0.003070547927218371,-0.0579204881376621,-0.011253998498090566,2.421875
0.010302588213788063,0.18672913091859203,0.24642422608302317,-0.9631730794957069,-0.07869135336737666,-0.03488001102386584,-0.0974579372403719,0.18392558247902602,-0.7515159313966442,0.0885904563919388,1.349568909631361,-0.0059507499245586475,-0.11127748612392244,-0.021850422921730426,2.4296875
-0.0019018989337393098,-0.02778036635273996,-0.036384908856037,0.14263762235894267,0.011365689101438195,0.005138911029932052,0.014478716600891115,-0.0275149785856995,0.11102740787397668,-0.012392367271531162,-0.19932303070618204,0.0008989771118067991,0.015835021035693387,0.0033825002150782873,2.4375
-0.02681704811135057,-0.4655109809976839,-0.6140336045957483,2.40013354687803,0.19547133724673643,0.0868285814714725,0.24305798008435317,-0.45924986442086024,1.8704371574995111,-0.21845757938287044,-3.3578570967319274,0.014893122702315263,0.2753109241610081,0.054892813024221575,2.4453125
-0.028496095247206758,-0.49499731092551547,-0.6529795298571034,2.5521749923479824,0.20797157338531222,0.0923334860801043,0.258416235811643,-0.48831139529251827,1.988003183390348,-0.2322889938671517,-3.568574327447452,0.015840881333697838,0.29276096510155847,0.058346892006413166,2.453125
-0.001760950148121946,-0.025357121122895412,-0.033064920860177587,0.12950493060200655,0.010346602494612755,0.004703174958733861,0.013033824398240319,-0.02500796068151513,0.10001785568719623,-0.011086099724865633,-0.17837038210350462,0.0008255266636036691,0.014214608801240548,0.0030675796205585876,2.4609375
0.014215735018279545,0.2552618479261929,0.33735854648077884,-1.3183303742511838,-0.10793633123393248,-0.04764518086003435,-0.1335493418705883,0.25171466026989836,-1.026626461107328,0.12109521652051741,1.8445013379034803,-0.008153924037089637,-0.1523328960559608,-0.029926431788104047,2.46875
0.0009099639887154679,0.021514269412892813,0.028772395198375107,-0.11271119009878953,-0.009681396816206837,-0.004015723905557011,-0.01133992330860612,0.020957934143575874,-0.08580952160739955,0.011003425302253355,0.15475377695304407,-0.0006858699162189032,-0.013814523840532994,-0.002377889163096429,2.4765625
-0.01114160664893812,-0.19012579567112095,-0.25063160918705785,0.9792742430141228,0.07955203298680234,0.03548416485577763,0.09930618028038476,-0.18784955931023253,0.7647923310775141,-0.08873500059777113,-1.372467827459001,0.00608395737030815,0.1118152663037554,0.02252353060662945,2.484375
0.0024892138001378996,0.04947194545754241,0.06557026462715844,-0.25612667818725193,-0.021024903672359724,-0.009211411570062807,-0.02583676541496595,0.04856586820312955,-0.19871329971389493,0.024010963674390744,0.35830459820935334,-0.0015696774846094387,-0.029983944447993086,-0.005699029643376804,2.4921875
0.020825377524265765,0.3717409918256746,0.4907709090085353,-1.917918320350518,-0.15654627722405537,-0.0693471281289958,-0.19413372499159343,0.3663907967774054,-1.4938770684666156,0.17570313698520343,2.6838484240639002,-0.011869523577865877,-0.22086054672993616,-0.04361081297500876,2.5
0.015213020834929907,0.2731942000628675,0.3604988671595158,-1.409161598761929,-0.11508454976269325,-0.050991293308957845,-0.14257369258007624,0.26905214827478285,-1.0977582887943034,0.12925194781348093,1.9718098059069502,-0.0087170678219832,-0.162340165832221,-0.03198343548446965,2.5078125
-0.006164278024532197,-0.10241382994054639,-0.13525465431605252,0.528346504210578,0.042986479197219825,0.019066512231202384,0.05359088794971659,-0.10138154669376459,0.41116035209918755,-0.04761205757033803,-0.7374903281797961,0.0032944672336698596,0.06036349847540335,0.012200948616812207,2.515625
-0.014490966646472729,-0.24873279965369796,-0.3282076018091672,1.2827759048418161,0.10455183253728742,0.046379042251018354,0.1298744376889042,-0.24555210865349866,0.9985910313172226,-0.11645098422549628,-1.7916388819786249,0.007973499246663393,0.14702873659645566,0.029375751580467166,2.5234375
-0.0035522657329188135,-0.056584077496245534,-0.07452279645640687,0.29139450213039897,0.023605224879419063,0.010542157938432,0.029458005784534422,-0.0560131643500818,0.22646037152643486,-0.02592830964871713,-0.40576460550667054,0.001826418441587357,0.03295700733207071,0.00675938217728009,2.53125
0.005450308948866861,0.10142245437762501,0.13399610044706925,-0.5236360335129594,-0.04299227666197429,-0.0189558512344814,-0.05300924665142988,0.09984113115066995,-0.4083293225749614,0.04846981752736533,0.7331885447151422,-0.0032296329074408053,-0.06083874030600748,-0.011817071706045294,2.5390625
0.0002658233758680109,0.010162713699343068,0.013604053590330449,-0.052976197963016926,-0.004613986514019879,-0.001941964883607578,-0.005349270479601941,0.009988653925920138,-0.0418297596599564,0.005508069345745553,0.07581132535204232,-0.00031134433416731954,-0.0067664181561022715,-0.0010967519419399563,2.546875
-0.004081716189020772,-0.06614266994964252,-0.08698881230012373,0.34032406952440225,0.027540284028431845,0.012320258355454018,0.034425502674107857,-0.06521058905948668,0.26452346018344014,-0.030374510030918057,-0.47350875475091597,0.0021304164535805763,0.03847017643870748,0.00785462271517431,2.5546875
0.003359245217750409,0.06480197395430266,0.0858533610920419,-0.3353664724160044,-0.02755729520015356,-0.012083777299328176,-0.03395189059980495,0.06373415546634884,-0.26151450151978245,0.03130786700603911,0.46974910328062347,-0.0020588645386850953,-0.0391960793682745,-0.007528864812641579,2.5625
0.004834626373993666,0.09071012886324947,0.11995901735766556,-0.4690110252587173,-0.03852872517835879,-0.01692437708345404,-0.04738529746510937,0.08910977719206765,-0.3650423400084383,0.043484864156812936,0.6545457221353321,-0.0028917594414910697,-0.054594561150033076,-0.010527369779177047,2.5703125
-0.011071224378103586,-0.18892910325805007,-0.24919079325319207,0.9735486872125088,0.07910242507652808,0.0352355147246359,0.09868690973472517,-0.18662859931679218,0.7593309829096665,-0.08820230437659281,-1.3625498657173412,0.0060501800790165455,0.11121254292622193,0.022385753683165484,2.578125
-0.01771074820738125,-0.3055865332350307,-0.4031220548823899,1.5753144265641985,0.12823610647083092,0.05700181467302057,0.1595443280035725,-0.3015804614557432,1.2283190991167288,-0.14310749703334402,-2.202561624799713,0.009784134565454234,0.18043265783860735,0.036090277201510604,2.5859375
0.004396777271358338,0.08296909035074965,0.10985994613677037,-0.4291178203463737,-0.03523267915113079,-0.015496859770233285,-0.04344114199725605,0.08164579107334276,-0.3335510411035193,0.039873448389181484,0.6007287513544243,-0.002640816450016331,-0.04990879631227494,-0.00963537740487353,2.59375
0.022552271652150204,0.40194081039684926,0.5309556649564193,-2.0746145338824027,-0.16948952088094074,-0.07501573956161732,-0.21002823063192338,0.39625997593533185,-1.6158175475800913,0.19004762275033477,2.900983478390213,-0.012843952838818328,-0.2390296331060364,-0.04716478952612477,2.6015625
0.005346753469023125,0.09954307574529712,0.13170433214688732,-0.514576360258705,-0.04224734243329128,-0.018581693408001167,-0.052059414788815775,0.09805088739849663,-0.40037841436017585,0.04761595681732211,0.7193638036513961,-0.0031727372638604237,-0.05970848767840859,-0.011593019072932944,2.609375
-0.015803241011910732,-0.2719906316914773,-0.35889667676554027,1.4023824663102493,0.11416626491817748,0.05074996341713162,0.1420313028344567,-0.268468137910603,1.0931824481952628,-0.1273532850267989,-1.960502930645876,0.008713238403197944,0.1606505743881292,0.032125623045739383,2.6171875
-0.0017436972608299423,-0.024776114607746334,-0.03263482659506253,0.12747814288270387,0.01018831919236411,0.004605704326974831,0.012952228890721139,-0.024806925470714017,0.09974394127023842,-0.010961293396417958,-0.1775678532295643,0.0008081520156732177,0.014123937368364247,0.003062814115088528,2.625
0.018486023105896806,0.33074225071159924,0.4366886477700498,-1.7064006259934632,-0.13942720591367327,-0.06174114175764368,-0.17271451973616578,0.32577436621313977,-1.3291979669687757,0.15640906195910675,2.386172682901981,-0.010564444518183827,-0.19666992324608296,-0.03876060657429336,2.6328125
-0.0004896025045127299,-0.0027728977203060425,-0.003617483826363154,0.013989782222832323,0.0009294959363876048,0.0005095872971153494,0.0014893661606159515,-0.0030588327427864023,0.011000984286641414,-0.0006618309328114941,-0.019409404967381742,0.00010235270349922377,0.0010591883089315984,0.00045404054379815924,2.640625
-0.032187943975720286,-0.5599630063561553,-0.7391776526351749,2.888109121921529,0.23542676595277098,0.10448183969920936,0.2924912260411372,-0.552393989452457,2.2497534305542755,-0.2629906177383246,-4.0370389702981395,0.017925704544673855,0.3313844258934312,0.06598778291585537,2.6484375
-0.021125259720656805,-0.3657578677839353,-0.4826133538014506,1.8858358222415128,0.15364268694830308,0.06820675128636519,0.19097350199856758,-0.36069774247882724,1.4685028799001645,-0.1714673174550713,-2.6350944956137012,0.011712795566121642,0.21615680354206,0.04313722276070868,2.65625
0.019306100424782435,0.3447843982581161,0.4556315949879854,-1.7799644443727594,-0.14545501376774028,-0.06439655878948215,-0.18023202333372554,0.3400182619546988,-1.3870379013786236,0.16312976135941273,2.4893408778005184,-0.011018300276926631,-0.20516330250877676,-0.040457406545555276,2.6640625
0.03083786831629028,0.5477178334231272,0.7235072774076072,-2.826660316572858,-0.23081520858762294,-0.10222280275314832,-0.28621713391851983,0.5399648869894517,-2.201867094874134,0.2586480598316886,3.952203522941889,-0.017508687870525286,-0.32541491094074754,-0.06433656615310974,2.671875
0.006960498799108913,0.12820493000352998,0.16944843261007828,-0.662027386391076,-0.05414190056837192,-0.023898688239442824,-0.06703623432796099,0.1262072792549838,-0.5159779678614763,0.06110751148668026,0.927575088713935,-0.004083242494032154,-0.07664339665457835,-0.014986272043092415,2.6796875
-0.008642020930213488,-0.14617894483921015,-0.19297280251256677,0.7537907324452024,0.06139113039895633,0.027298783042629216,0.07632790817277305,-0.14426401445782575,0.585930140328019,-0.06806075871016914,-1.0498015358687927,0.004698799433110075,0.08597603195873797,0.017294673640978447,2.6875
-0.002423902375347843,-0.036905455624209056,-0.04879224955528706,0.19029368372630784,0.01540037374439546,0.006896716862359244,0.019327131388228298,-0.036593858196676175,0.14710055056660473,-0.016640999194368497,-0.2628317879523458,0.0012026711334313064,0.021179412451928357,0.004453874855381043,2.6953125
-0.0013625562608329527,-0.017969002445629535,-0.023768646826761816,0.0926458100807781,0.007437076654156403,0.003373449492661883,0.009521002466643514,-0.01821130782211992,0.07234997181387505,-0.0078082422588163156,-0.12914844053882515,0.0005921898736219203,0.010065985932187145,0.0022495396986555597,2.703125
-0.012516157855415537,-0.2139673026714568,-0.2823363776895856,1.1032328156186761,0.08985610272968816,0.03993869440706681,0.11184042109350933,-0.2114997623215264,0.8603054423484157,-0.10008937297088565,-1.5434750583177919,0.006856100835979711,0.1262872824070535,0.025314099550788022,2.7109375
-0.012630682657531875,-0.21640106219544464,-0.2853304411424796,1.1149831840500306,0.09064399385793735,0.0403374295122621,0.1129224455881853,-0.21357315599493745,0.8693611935486496,-0.10111357704509993,-1.5596035339624224,0.006929269916654139,0.12754199686274045,0.0255946337380557,2.71875
0.0031117975348816957,0.05997180037263188,0.07957486020118056,-0.31094981088747514,-0.02592220080419331,-0.0112913833669334,-0.0315336096482995,0.059107949563356105,-0.240920055811819,0.0291070381688981,0.43373178228068315,-0.0019136418768135287,-0.0364520794185518,-0.006900594928391183,2.7265625
0.011402708149131687,0.2058534348957116,0.27215388115506467,-1.063146869381398,-0.08734033916259146,-0.03851633755562929,-0.10767444113227993,0.20279040636662263,-0.8259490300740089,0.09776174395943502,1.484059671788905,-0.006580841890281025,-0.12283838066003197,-0.024034903751652296,2.734375
0.003022676314123105,0.05888134652512532,0.07824932838461741,-0.30489290688603354,-0.0252725478166448,-0.011040057464388506,-0.030860958339292612,0.05777322892162329,-0.23556377540121742,0.02847513981606674,0.42341975484522526,-0.0018796968851005178,-0.035533157736566984,-0.0067656662291675305,2.7421875
-0.004806898812637198,-0.07862861519651879,-0.10327765346414743,0.4043563114225929,0.03283279579632641,0.014681467744471493,0.04096591521094149,-0.07770731038861742,0.315503816421022,-0.03631952503893271,-0.5665884431606693,0.0025222949542814785,0.0460231535795074,0.00935494018537461,2.75
-0.0021286002586743875,-0.03165571355958689,-0.04162488459380935,0.16250041132446283,0.013157986353409614,0.00594324076140834,0.01651629562832216,-0.031336817350375835,0.12613967903504109,-0.014209671001134056,-0.22563494842348733,0.0010279775227549416,0.018111653000352976,0.003813009069621253,2.7578125
0.00102797739256172,0.023669847200787505,0.031049769871144318,-0.12229147999272945,-0.010144602689602034,-0.004397803546958439,-0.012269223070106566,0.023164999228019553,-0.0958541524161166,0.01185581473161776,0.174270215438916,-0.0007354193475720464,-0.014747291347781246,-0.0026687476367268804,2.765625
-0.0010647887921931788,-0.01315060392932977,-0.017468215211958998,0.06743398947989977,0.005344380224216257,0.0024519924220128275,0.006923420587370306,-0.013127568127344086,0.05168083053349982,-0.005457129137540451,-0.09147969573390206,0.0004409999385872058,0.007053608983578509,0.0016620552261834866,2.7734375
-0.0013281274951534195,-0.01757898458975077,-0.022984934562897817,0.08973581232111519,0.007286262907265864,0.003289621246916487,0.00911034575789927,-0.01746160070829648,0.06856337557648538,-0.007549495800522111,-0.12373774778167199,0.0005789346579148614,0.0097439686372446,0.0021476716275573085,2.78125
0.0020259024801980744,0.04161149047825573,0.055218147091047186,-0.2153395386816879,-0.017535650319270703,-0.007737948773524575,-0.0218092181374345,0.040837443429264215,-0.16911056010895317,0.020269511939197495,0.3032049606752054,-0.001313269647213742,-0.025184536224788976,-0.004822374259015275,2.7890625
0.002624551876700925,0.0520564603330784,0.06878383644619558,-0.26855907766242515,-0.021980505486146048,-0.009705791170089031,-0.02716642881261233,0.051081091006365285,-0.21002201926308217,0.025165897588703717,0.3786484666217206,-0.0016442016789853624,-0.03131722958130855,-0.006015733506380786,2.796875
0.0009007526047471485,0.021436220004148753,0.028220380773337782,-0.11068873367550643,-0.009280809980090805,-0.0040282955183321536,-0.01115693218553337,0.020933482168312322,-0.08639406491262826,0.01081776615466363,0.15741259158626913,-0.0006655899000795332,-0.013336769281750935,-0.0023843536274013753,2.8046875
0.0018386523608086886,0.03779454162472859,0.04996834979441214,-0.195738556513797,-0.01630699884319583,-0.007088685547884204,-0.01978811602262032,0.03709736338240454,-0.15212200394927036,0.018606826965556978,0.2745080368561475,-0.0011935339575679543,-0.02321761234203691,-0.004308633840405931,2.8125
0.0021863653210566374,0.04410129038758587,0.058609405698683135,-0.22861557430211527,-0.018953118043674194,-0.00825351282985944,-0.023139607031615547,0.04326351144084728,-0.17730697888498034,0.021556691310646716,0.31887987534135237,-0.0014012604873738655,-0.026904946988374572,-0.005060229148377309,2.8203125
-0.0022481713900693173,-0.03363904943006773,-0.04386220113673272,0.17243558475500073,0.013810772141750714,0.006246055739297538,0.017497487867302212,-0.033478085021790664,0.1354062761332454,-0.015147218591754467,-0.24317779493405312,0.0010801024842536466,0.01932884486263845,0.004083617762577031,2.828125
-0.005348750080027396,-0.08814442733847581,-0.11599562277758915,0.4536337554717535,0.03672827403876447,0.016397814240684278,0.04602967315354701,-0.08730028889988888,0.3544974509820675,-0.0408340636395755,-0.6371140004010857,0.0028235607001080654,0.051621670198791894,0.01050700114003284,2.8359375
-0.002719110551649393,-0.042047479229210524,-0.055406870371889995,0.21599437608618366,0.017306751495373442,0.0078010060135352225,0.021968843658330687,-0.04185076696474386,0.16902524467384877,-0.01903462039899067,-0.3034170934531294,0.0013560851426016828,0.024173920429994337,0.0050994880568807,2.84375
-0.001938742243894013,-0.028414485273903806,-0.03740965817865804,0.14597379047002929,0.01162003117111825,0.005282542998844284,0.014800480371392567,-0.02827262327717253,0.1139401553257567,-0.012553924402599738,-0.20259942135266049,0.0009258333441755539,0.016098684357586223,0.0034933369426264197,2.8515625
-0.006315003272186337,-0.10534162205952591,-0.13880122996576158,0.5428741428539652,0.04404214157177749,0.019646033842746154,0.05493058464895121,-0.10397646713395585,0.42298167217183114,-0.04883832447152237,-0.7566734898891657,0.0033839859599489627,0.06181019018153503,0.012523960110434437,2.859375
-0.005577869890539644,-0.09238264584662392,-0.12168265421410061,0.47581394758135015,0.03855161444523938,0.017211646712389055,0.0481602652656095,-0.09119888694296463,0.3711185271770068,-0.04280023587528852,-0.6644529069534024,0.0029647644314710073,0.0541470571050255,0.01099529436263612,2.8671875
0.003819510686933372,0.07273334138280696,0.09623173334656442,-0.3760919309681091,-0.03099404181161997,-0.013605498941962174,-0.03807382913252648,0.07157012043412173,-0.2922677444178666,0.03499286669122763,0.5261514888140512,-0.0023156536081387056,-0.04380624514502907,-0.008416006829828314,2.875
0.009432548202472107,0.1713457410471496,0.22648267257212504,-0.8848729629159098,-0.07246976238720013,-0.031976811433095206,-0.0895858028398166,0.16885476342016817,-0.6887925798636034,0.08147615823647196,1.2383549590182885,-0.005466808468730085,-0.10228140963336141,-0.020025238354427086,2.8828125
0.005479447238550321,0.10197188875053857,0.13489048919527968,-0.5271400925320984,-0.04318327219360597,-0.01899307914701338,-0.053304182516054045,0.10042940975354327,-0.4103203666807371,0.0487468312360304,0.7374341866792181,-0.0032481180203106775,-0.06111826573939821,-0.011896456724353858,2.890625
0.0019007047745989113,0.03922532522104593,0.05181266466053596,-0.20338723692218244,-0.016719208814591748,-0.0072908434946565995,-0.020446450175857174,0.0384092720841399,-0.1584397183824777,0.019133522043436674,0.2834586898866729,-0.0012409707598516903,-0.023953396795210795,-0.004528598691794197,2.8984375
0.0016847367047967215,0.0353683555156545,0.046635954945304266,-0.18318798182329712,-0.015107354285166479,-0.00662229253906779,-0.018454690370170702,0.03461994789345815,-0.14371617941506698,0.01738431291034214,0.25694791597717953,-0.001114078026072956,-0.021765998825657783,-0.004067418027700366,2.90625
-0.004389686663268942,-0.07157904070560016,-0.09426301880630936,0.3685988360982937,0.029898328517480192,0.013307925185633783,0.037287546619175695,-0.07061980638837088,0.28514772926844145,-0.03288326530952044,-0.5116490282864619,0.002308415903358888,0.04162179564193419,0.008506554194378499,2.9140625
-0.01267491119850479,-0.21712611368842608,-0.28627387796002307,1.1193701140458543,0.0912229542713155,0.0405060729205485,0.11332218960714203,-0.21415800529782952,0.8705808271118037,-0.10148215715053095,-1.5620616388801392,0.006961804729915163,0.12805118666167423,0.02562273515181152,2.921875
-0.006784581248668431,-0.11331624463921032,-0.14955980524205975,0.584204317182086,0.04759338036440192,0.021178740983604057,0.05927289635873905,-0.11212977877283145,0.45544633490996295,-0.05273820871790231,-0.816736742200225,0.00364067916503129,0.06667630868138102,0.01344937303273071,2.9296875
0.009265320355609527,0.1687926087856798,0.22268325910657122,-0.870734045929549,-0.07122816898216926,-0.03148464031925294,-0.08803113797160886,0.16595007979004045,-0.6770862488287086,0.08010317315539775,1.2170387246179306,-0.005382579641946399,-0.100560664596523,-0.01968878705051696,2.9375
0.011269385913238358,0.2037333789815402,0.2692228912328259,-1.0514902855495014,-0.08612338306739584,-0.03805731407379776,-0.106463537032415,0.2007158928630235,-0.81839470021514,0.0966807302840689,1.4708665280275977,-0.006504798085715573,-0.1214026697285806,-0.02380745011769314,2.9453125
-0.003259052280062218,-0.051697083132843186,-0.06757507370036754,0.2653591287289595,0.02132120907980641,0.009598102163454605,0.026827698908423403,-0.05100931932314929,0.20716954319103176,-0.02355120462266127,-0.37114541412757557,0.0016592374717751264,0.02996932992760122,0.006204849469146892,2.953125
-0.008341467995421853,-0.1407834978357597,-0.1853870750427657,0.7250746801738391,0.05893411822191683,0.026247114929911896,0.07346147646565347,-0.13913550055039461,0.5658820858246582,-0.06557284112631952,-1.015228259752563,0.004509871852692394,0.08286403339261252,0.016696950181446586,2.9609375
0.005070776122137348,0.0950368877993991,0.12551647253391346,-0.49068003541519,-0.04025282049801153,-0.01776061539904985,-0.04961309025344526,0.09321874257061906,-0.38095827300841717,0.045439053803803746,0.6857574255137983,-0.0030269046887021174,-0.056908659815721734,-0.011006977663045954,2.96875
0.01235529813718932,0.22281367700576238,0.2941865368537743,-1.1498571318366335,-0.09414199277199867,-0.041631088878163365,-0.11644326141219168,0.21946458449854822,-0.8952046380457316,0.10568491472435995,1.609299703439518,-0.007111896247968228,-0.13279893173618193,-0.026053591822222822,2.9765625
-0.0026489017140902595,-0.041095370809497864,-0.05398861852477633,0.2108806819809933,0.016837448017474718,0.0076163993270494,0.021293739954925825,-0.04050668621552679,0.16398137941445445,-0.018508691215148067,-0.29333414070566927,0.0013274824993474517,0.023513923516062553,0.004940237596095813,2.984375
-0.02127082978230201,-0.3682797661319769,-0.48587984452895244,1.8985456810053118,0.1546165182378983,0.06870165196935044,0.19223640553873722,-0.363218058420999,1.4784812012651725,-0.1725881316126277,-2.653981749023496,0.01179249151457762,0.21750710713938526,0.043416084730813195,2.9921875
-0.02037134703862032,-0.352296784934935,-0.46488496302296706,1.8164450238088339,0.14800579446498072,0.06574470765548665,0.18399088526136217,-0.34764332564187894,1.4147051973542382,-0.16512559744899383,-2.5393748484910854,0.011282466881703923,0.20813718523720734,0.04155706550268345,3.0
-0.002763149234939425,-0.04280157423819,-0.05638476831281185,0.22005429762868037,0.017782656600142163,0.00800446372772053,0.022380490532317145,-0.0424703733337892,0.1712832445149198,-0.01944307795960303,-0.3071586160753516,0.0013836445529007287,0.02470103503135732,0.005151068997067715,3.0078125
0.014039104532088257,0.25246862751052773,0.33331974276586634,-1.3029799183890374,-0.1064611197171747,-0.047087413801013105,-0.13180894593037729,0.24873582761276447,-1.0150766860514187,0.11955666163513562,1.8225707909645705,-0.00805893723628503,-0.15033192285561783,-0.029594093643002348,3.015625
0.018963163311244632,0.3390133703988019,0.44751741963162506,-1.749170116610512,-0.14283807041514415,-0.06324916625633252,-0.17699696809906684,0.33406797997030824,-1.3626329928596606,0.16029359589894757,2.447016936010707,-0.010825483224059788,-0.20160871321022042,-0.039768841984485395,3.0234375
0.011679128467899607,0.21099555506801265,0.2786801760906343,-1.0890069167740757,-0.08899728298664594,-0.03938681933573998,-0.11023119804844764,0.2078747919001897,-0.8483042540311646,0.10004037135652796,1.523959321714407,-0.006734072914118749,-0.12573063964833758,-0.024708306411010076,3.03125
0.0016650184810544043,0.03497453525378943,0.046548378944009886,-0.1816019822653104,-0.015029413257062276,-0.006548642381498305,-0.018424565175445988,0.03440001898400064,-0.14127292204441802,0.017205037297574385,0.25420114671340793,-0.0011092345522402856,-0.021443090975489264,-0.004018320881217928,3.0390625
0.0005874264471472369,0.01599838276466361,0.021501939280260035,-0.08372118340443284,-0.007101918514507283,-0.0029990678708642954,-0.008492716069955046,0.015676467902507492,-0.06485354987074035,0.00829503450818695,0.11687759396926,-0.0005021441091168922,-0.010210002481867628,-0.001777577297380744,3.046875
0.0040089405380181594,0.07606488758289075,0.10065132775348455,-0.39306799600655573,-0.03238771606431247,-0.014218914255824352,-0.03975669726596097,0.074789597672486,-0.30566686275689553,0.03658289025605234,0.5499057451988194,-0.002420195468650827,-0.045780750338773234,-0.008801675895598271,3.0546875
-0.004762949408760723,-0.0781206081556686,-0.10287577665368183,0.402293871533051,0.03247752984506774,0.01452754246471038,0.040777004330851976,-0.07730943941798422,0.3141010357482364,-0.03601189488439396,-0.5622944368759009,0.0025104555358933254,0.04564690842988412,0.00935320822163252,3.0625
-0.021810190496886463,-0.37760265461024867,-0.49809680306712684,1.9468333749723863,0.15855334271790153,0.07041638987249436,0.1971412976993086,-0.3726027243749583,1.5171133316890928,-0.1770366694651525,-2.7223960724968324,0.012087006021816189,0.22320631432584107,0.04455663325098366,3.0703125
-0.02114090458261352,-0.36570639188564447,-0.4824263948533507,1.885773823848718,0.15371007231310574,0.06822691480205904,0.19098167745670075,-0.36086116458625167,1.4687335433999187,-0.17146990720395733,-2.635969200205967,0.01170983739273374,0.21620358364150646,0.043139589687617955,3.078125
-0.00011700644797971105,0.0037339887000625927,0.005099627459749198,-0.019388802417048934,-0.0016540187851332008,-0.000699683905038462,-0.001890199757279439,0.003455884158520375,-0.016138727518621946,0.0024719587480526955,0.029810530469098536,-0.00010067703550472618,-0.0027910085605999057,-0.0003072132167934288,3.0859375
0.01084441567141304,0.19627012424392865,0.2591715650490447,-1.0127338520073539,-0.08275992561424798,-0.03663370131733184,-0.10249449237955562,0.19335987559876974,-0.7897605974724115,0.09315733214710621,1.4188712145391695,-0.006257946865809512,-0.11697328266780622,-0.022951707280291382,3.09375
0.0008947021146692902,0.021505458083388815,0.028434068886317297,-0.11176557999155744,-0.00933226996183531,-0.0040100479947856645,-0.011298455090631881,0.020989606503170447,-0.08701031849976297,0.010868962756138406,0.15727785077232226,-0.0006713158095119312,-0.013386769196217965,-0.002410378744235218,3.1015625
-0.0037170204212726246,-0.05935555474833773,-0.07841648069291016,0.3053274727074022,0.024688183646222,0.011102329329337088,0.030968218248222233,-0.05889656176267714,0.23867702001912458,-0.02726563745746029,-0.42755689642897177,0.0019130468112578806,0.03457296213371987,0.007094082101769875,3.109375
0.008096879687738682,0.1481992361429419,0.19549531059961048,-0.7650768709840269,-0.0626552565753274,-0.02763685547096961,-0.07737341049865118,0.1457067442358362,-0.594804845455753,0.07042563964027125,1.0687402922572429,-0.0047263717708083495,-0.08850600342563307,-0.017307916076727367,3.1171875
0.013705408669842834,0.24647198442364185,0.3253963705514254,-1.2721428201754224,-0.10408517395353849,-0.04602107653291841,-0.12875082124647078,0.2427613458554293,-0.9899464662018913,0.11674992279630787,1.7782769277782267,-0.007871858181556973,-0.14686167768032501,-0.028860654707531363,3.125
0.005595820257777433,0.1038066885963777,0.13743170408858182,-0.5365603024163053,-0.04408183237407303,-0.019440014043087258,-0.054329846507918014,0.10228143822548182,-0.41771736459941944,0.04964469278090994,0.7506151705333894,-0.0033112140189276505,-0.062327924550351146,-0.012098563452648061,3.1328125
