AF3,AF4,F3,F4,F7,F8,FC5,FC6,O1,O2,P7,P8,T7,T8,time
-0.008793629539210595,-0.14867534578349378,-0.19622531246688818,0.7667265009304646,0.062453226010723686,0.02774183274875975,0.07775843826539806,-0.14693198238446015,0.5971613299214326,-0.06940207351300366,-1.0718195094363758,0.004770340244089961,0.08765390728504163,0.017617013406260772,0.0
-0.005321942797459505,-0.08760006438314336,-0.11566806699704905,0.4514783970710761,0.03668518798324093,0.016372320628753403,0.04584663491017941,-0.08675461715228103,0.35251217050287686,-0.04067549252544727,-0.6327979378888866,0.002813469672641958,0.05141037855579747,0.010431478676760449,0.0078125
-3.215037172476692e-07,0.0058819100509392135,0.007704122758149669,-0.030911421976468064,-0.002655494031294273,-0.0010312525869995645,-0.003002091619281944,0.0055036972616696695,-0.023194991174557606,0.0033711687426609565,0.042627215934341225,-0.00017441860153045335,-0.004044044818342277,-0.0005763114894888295,0.015625
0.0014478087376135786,0.031257882790292894,0.04139934244929428,-0.16174630231163215,-0.013284332466148093,-0.005770978763832307,-0.0162887219470586,0.03066668730140619,-0.12630606220927712,0.01537634654467002,0.22790347745469117,-0.0009835234556581252,-0.019096190291933844,-0.00357502776645145,0.0234375
-0.0006391242205851095,-0.005490628915043376,-0.006834597333769249,0.02769231709501716,0.002150023241525603,0.0010301782069732951,0.0028322166991480865,-0.005483441568391096,0.020278284816942063,-0.001859628151409062,-0.03659550657183252,0.00019011799912964307,0.0026185399910560853,0.0007374365924476347,0.03125
-0.0003765499565877138,-0.0010378547253154624,-0.0009085855419738222,0.0041531431252026475,0.000121119597317153,0.00014422270181565998,0.00041503872015917904,-0.0010851679134980528,0.0024305753792965195,0.0003165133012533031,-0.005375398177237324,4.465945568909462e-05,-0.00017433614218523454,0.00021667386704550144,0.0390625
0.005027353887858492,0.09377050501043203,0.12401459531905544,-0.48518088928161734,-0.039901660180474904,-0.017559039946523983,-0.04911294221480287,0.09233203027141239,-0.3775478757045247,0.0450012936578064,0.6781619185415727,-0.002986585305001198,-0.05644692429784626,-0.010907301072613462,0.046875
0.01090143450408158,0.19708203627171372,0.2601600513255363,-1.0175123502791188,-0.08335576985474456,-0.03681622118847315,-0.10299925523849081,0.19408820660935341,-0.7916662927155067,0.09361729872625141,1.4239765212908855,-0.00628661869505773,-0.11757761964599099,-0.02302378124988447,0.0546875
0.010902622630760528,0.19733439965446647,0.2605335036114924,-1.018231284830519,-0.083423662648372,-0.03684997141389695,-0.1031279014444452,0.19429456779961454,-0.7922651907057525,0.09369890182847257,1.425973018662132,-0.006294311805100482,-0.11762095992889056,-0.023048188714685763,0.0625
0.0039591280032539675,0.07533465047353165,0.09973928724998882,-0.3893049790475049,-0.03215234781007039,-0.01410042609603179,-0.03951070042412939,0.07407851733231462,-0.3024152832304738,0.03627115503777427,0.5452380536491338,-0.002398200102987547,-0.045386818700961375,-0.00872639829994102,0.0703125
-0.0048785352430597085,-0.08017183726883309,-0.1053773966868562,0.41216851251604014,0.03325493048035114,0.01489539774606719,0.041674723066977906,-0.07916621743806548,0.32146722823191026,-0.03693112642625751,-0.5767969951311003,0.0025708902906120034,0.04666401097135025,0.009538947226214636,0.078125
-0.007743138928669266,-0.1305697513797201,-0.1719473417246537,0.6722988315932285,0.05459252297407672,0.024307339131792276,0.06809136485260599,-0.1288460883499028,0.5232079594765554,-0.06068821454703272,-0.9394631010371965,0.004185920250961113,0.07659314682051993,0.015465722700235718,0.0859375
-0.0015259718676691547,-0.021112393989015623,-0.02750992680714163,0.1082677541171161,0.008652031847983611,0.003913751204351519,0.01098210540016481,-0.020945798543292194,0.08365786320833414,-0.009171471538240699,-0.1493819375593233,0.0006901382332491284,0.011870634089624993,0.0026042800630714474,0.09375
0.004047996199655766,0.07702959091227503,0.10207763590304736,-0.39804670575972717,-0.032684953867279175,-0.014381864729907046,-0.04030198193431784,0.07575273425872353,-0.3097748724769766,0.03703506764066491,0.556981651570897,-0.002450615706596517,-0.0462514470155145,-0.008929293414866885,0.1015625
-0.004869168097556687,-0.0796895839145442,-0.10484636395848349,0.40989158158079453,0.03322834784416728,0.014860614547015146,0.041597720469587145,-0.07891205073580981,0.3203528935098406,-0.0368189688895617,-0.5757745285374622,0.002556156795738394,0.04661360663622687,0.009503036501748899,0.109375
-0.02249903656037707,-0.38962827469059014,-0.5141943830001235,2.0087924044804777,0.163759363332483,0.07270303151954724,0.20361788082444043,-0.38460680589686996,1.5654913709476266,-0.18285412400281106,-2.811435133822363,0.012469502607504282,0.23035737240849774,0.04595314680611135,0.1171875
-0.023494358259620488,-0.4071904385654964,-0.5375741906547421,2.100072695210678,0.1712390543547161,0.07599778382947932,0.21284258010035567,-0.4018618832768887,1.6359732190387875,-0.19112705156029625,-2.9358506442573145,0.013038302060056468,0.2408107706157823,0.04802407365995893,0.125
0.0007896704983054059,0.019602001903874563,0.025791549244666902,-0.10113424417131485,-0.00842092424540858,-0.003642271016700428,-0.010174617074260896,0.019088617533643583,-0.0788804340126975,0.009924375158542616,0.14421611993596165,-0.0006068459505188929,-0.012223727064392708,-0.0021708058176846978,0.1328125
0.02478403348546901,0.4413714264559724,0.5826322667621662,-2.2770050462918503,-0.18598192577428027,-0.08235677420592759,-0.2305891842035619,0.435038740157475,-1.7740338215293652,0.20856405980762122,3.186342581771401,-0.01409693325995252,-0.2623142417225309,-0.0518025096711213,0.140625
0.02408216687580689,0.4290954585910907,0.5664881982715225,-2.213891095461168,-0.18078867291472542,-0.08005669019979832,-0.22421316702614077,0.42297723316055963,-1.7252163717914692,0.20274931369649155,3.097728575617808,-0.0137058404581837,-0.2550287429121635,-0.05038927173480799,0.1484375
0.006944144062691889,0.12785171059262693,0.1688579349726724,-0.6599242463329056,-0.05399118611595131,-0.023826841416736248,-0.06683203384379985,0.12595117050714746,-0.514589505459266,0.06089334221824691,0.9251852962199205,-0.004071346963132602,-0.07639494269773682,-0.014943903494593366,0.15625
-0.006597743019161761,-0.11026521140102567,-0.14542328895566303,0.5682564154511403,0.04616654713272155,0.02058627330944864,0.0575989577773569,-0.10891235137648722,0.4425618581851614,-0.05119484900357102,-0.7930058415354939,0.0035425597567700965,0.06476225715993625,0.013105450810175232,0.1640625
-0.011862707458788405,-0.20287909430037207,-0.26762025924698185,1.045615672078635,0.08508955044024887,0.037822585437898786,0.1059904464531862,-0.20032775505798547,0.8145371985831708,-0.094791784433454,-1.4621767025698886,0.006501345714620647,0.11960417226870712,0.02400728911103485,0.171875
-0.010042544723497715,-0.17089834202052395,-0.22538403244809735,0.8804413165998277,0.07159615747564829,0.03183743252797312,0.08923551734124995,-0.16881145768007122,0.6861124079385472,-0.07972914294173351,-1.23155838103935,0.005477464011697417,0.10060004957587988,0.020228809326413247,0.1796875
0.0003539170669631282,0.011831054963546422,0.015832671123754364,-0.06207634493443109,-0.005383678732977653,-0.002251884433586115,-0.006266491575290956,0.011405767214278268,-0.04729321643117116,0.006353954042307536,0.08671373547879292,-0.00036644709086831336,-0.007734883356753935,-0.0012526788910438204,0.1875
0.010118251544210602,0.1834338394919142,0.2424323973534056,-0.9473274728735199,-0.07767908320551654,-0.034282546247095265,-0.09590880104482631,0.18066253826879672,-0.736591173646021,0.08718735107070544,1.3237775230556166,-0.005857116551064964,-0.10948507944348526,-0.021419061240637444,0.1953125
0.006280771374672577,0.11597603532931641,0.15352936045468926,-0.5995693706945481,-0.04925420786372841,-0.021707202877642027,-0.06068351621719817,0.1142349955113134,-0.4666987076873222,0.05540190030041952,0.8371262449306179,-0.003702504169671265,-0.0695393876832636,-0.013513119128985259,0.203125
-0.0025498253535451276,-0.03923976556677729,-0.051227722731669395,0.20110104628570127,0.016157826151024228,0.0072848747710042875,0.02032425086069788,-0.03869252487344703,0.15603213499948598,-0.017686761115699848,-0.28061021964663313,0.0012628587523688267,0.0224521859179039,0.0047031408101314435,0.2109375
0.0006344037711379359,0.016724610696586754,0.0227252969666328,-0.08741018589768834,-0.007389451986238751,-0.003117009430124761,-0.008969492947044036,0.016551087656275502,-0.06831126754322671,0.00871399043957727,0.12434455453489554,-0.0005243252193519105,-0.010694567017222689,-0.0018758487416033164,0.21875
0.0062792838484223915,0.1160431099968121,0.1537280135415288,-0.5996088738885549,-0.04919502367660599,-0.021650104714472165,-0.060788898472428875,0.11438821911000764,-0.4665283508520007,0.055463725983153384,0.8393919701970506,-0.003699870041094969,-0.06949288937077297,-0.013538596468306277,0.2265625
-0.006244396526701108,-0.10382502970738894,-0.13692741907041367,0.5349556286500164,0.04348178429436785,0.019364941120974526,0.05424195886649218,-0.10266507109437008,0.4169539962340013,-0.04819798916739865,-0.7481308436657167,0.003335338034587122,0.06095219367837798,0.012322463861740634,0.234375
-0.024940506592740885,-0.4322669951149131,-0.570934361074059,2.229865743513693,0.1818844455783249,0.08067517108466571,0.22595450937790243,-0.42675549585221384,1.7364931356390716,-0.20294032770743356,-3.1165755500271635,0.013846234021700456,0.25571708973163776,0.050966462796254365,0.2421875
-0.01870810305585785,-0.32289569792910755,-0.42649212862000624,1.6657326338185583,0.13579030889132457,0.06028192144485584,0.16879205304164135,-0.31886619499969937,1.2972968001213139,-0.15137369202624087,-2.3266349013165675,0.010348501002795763,0.1908382579417168,0.03813292045879051,0.25
0.00923343683987587,0.1679129584233877,0.2218307421861097,-0.8668070159758384,-0.07099910424423572,-0.031343016116148904,-0.08771007839551488,0.1653378186090932,-0.6744671332751959,0.07980611247381018,1.2125698964375575,-0.005357373812260055,-0.10018674712104923,-0.019595341995755,0.2578125
0.02263134796884172,0.40339342992154775,0.5327105681675434,-2.081803024080219,-0.1701512536199576,-0.07532138939759159,-0.21070825152577657,0.3975762558373037,-1.6204803108886556,0.19061790230696152,2.9093686548429822,-0.01289324566298457,-0.2397546462632201,-0.04731446113333767,0.265625
0.008417536892250823,0.15377911585924753,0.2028246361872476,-0.7936009671358814,-0.06493583598978087,-0.028716708980701285,-0.08020333797710583,0.1512421104740724,-0.6176730730352757,0.07300535567906496,1.1092019861971882,-0.004904147948855697,-0.0917211260350197,-0.0179493638802438,0.2734375
-0.005852147617616834,-0.09704620179112351,-0.12827627639878764,0.5004774385003633,0.04070554294377553,0.018127134329223554,0.05079304550460594,-0.09608526908329534,0.3892271209976364,-0.04501974591860016,-0.6978030343702678,0.003123300191109851,0.05691206459323119,0.011559606538373244,0.28125
0.0006974678186355643,0.017825921751514942,0.02383834654944124,-0.0927177887191067,-0.007719636320592571,-0.0033210335487226534,-0.00939150924916275,0.017493970028545875,-0.07351956783973518,0.00919074706710677,0.13234818296146222,-0.0005529986159733687,-0.011301820733522263,-0.001992283702330227,0.2890625
0.010074316618753151,0.18256674338157103,0.24151697443230952,-0.9429974976118622,-0.07711820751518272,-0.03409689688895662,-0.09553147730009752,0.18009274713485457,-0.7353954448279493,0.08675329068862035,1.3200159307253154,-0.00582614902063978,-0.10897459100573499,-0.02140743062871965,0.296875
-0.0003787693991145305,-0.0010162968007926315,-0.0009720041064734363,0.003981165518267922,9.320309671481477e-05,0.0001505622130508779,0.0004074244976162063,-0.0011040660746244515,0.00352757993252834,0.00026793268940535146,-0.005987439052747821,4.27184952003133e-05,-0.00010801838937067353,0.00021301506723100477,0.3046875
-0.01626782917827942,-0.28023187744833816,-0.369538355772584,1.4441622277536506,0.11748202141271023,0.05225371872775394,0.1462420184541223,-0.2765574280810917,1.1261804006493177,-0.1311451074723359,-2.0207404002606366,0.008970369498718015,0.16537142886261824,0.03309910218298122,0.3125
-0.008873567388101493,-0.15030934474736063,-0.19798649108209967,0.7740698433476318,0.06276352975971995,0.028005915014758104,0.07832595012763885,-0.14837747243199814,0.6038473346332275,-0.06991777708314215,-1.0824823711338547,0.004816932582453731,0.08831988348739893,0.017812569765855872,0.3203125
0.013705431331639343,0.24657526481305503,0.32565216113172907,-1.272539987591854,-0.10412094820814029,-0.046043185627191806,-0.12892673463068394,0.2430190067636017,-0.9911425222718249,0.116889574672333,1.781546670632745,-0.007869646689359447,-0.1468784027005389,-0.028894370458008613,0.328125
0.01489246342833057,0.2674512961262246,0.35312260107420185,-1.3800562764694007,-0.11280743370067674,-0.049918023669673926,-0.13975840920373014,0.26359344506362464,-1.0751071866214177,0.12664960724534322,1.9316739842052786,-0.00853710184992719,-0.15919192786531727,-0.0313480701141183,0.3359375
-0.011810767874289354,-0.20194756129031058,-0.2660671567162463,1.040545448757799,0.084672196690877,0.037679844437401674,0.10540413442650373,-0.19922913795361677,0.810565385734224,-0.09435188909297848,-1.4555868294160415,0.006466110262803952,0.11904684061195846,0.02387661227085278,0.34375
-0.029692352577041656,-0.516141012066139,-0.6806895902022777,2.6613003098044197,0.2169340572422826,0.09631643722989862,0.26957897894833455,-0.5091298423040665,2.0729294940086382,-0.24231184086910706,-3.722267327049225,0.0165129251745869,0.30534657208835875,0.060842669015022784,0.3515625
-0.013266423871456429,-0.22720442907473948,-0.2999467179345608,1.172174791601099,0.09554731619277063,0.042425809891549905,0.11887071106857497,-0.2244885318355625,0.9128143907136292,-0.10635595678430768,-1.637375134237639,0.007284354907652998,0.13418004577230316,0.026877456560590783,0.359375
0.016539468333224373,0.2966548009569464,0.3911320296373208,-1.5296698448498047,-0.12489019791039925,-0.05532056462901054,-0.15471143340043822,0.2919821732602713,-1.1914525454847702,0.14031820180003357,2.1414703459707,-0.00946295584562314,-0.17641221784426442,-0.034729279551925424,0.3671875
0.026359417864284397,0.46895618771222186,0.6190716807590736,-2.41992843593404,-0.19767598015812365,-0.08751745260008639,-0.24498099252543754,0.4621516863050082,-1.8843781318270483,0.2215853509920382,3.3836585290832306,-0.014983420186303689,-0.27876360399503114,-0.055027500262260304,0.375
0.014450340963390268,0.25948831431714325,0.34305429950005695,-1.340497831055627,-0.10969895125538918,-0.04848491821302384,-0.13579228862969553,0.25584009568828675,-1.043457652878794,0.12300400335617355,1.8728090392456034,-0.008293292173473635,-0.1546654260330183,-0.03043346878624543,0.3828125
0.002124605061237847,0.04299499083167637,0.05693656007357219,-0.22288266373131232,-0.018461898900561356,-0.008088953007872096,-0.022598313925849687,0.0422595532852956,-0.1731516168821041,0.02096520427393461,0.3123010973788125,-0.0013633498984237627,-0.02618839857325527,-0.004965739015935864,0.390625
-0.002969605537075484,-0.04638321569778438,-0.06150938171129925,0.23934595098188885,0.019296557166435913,0.008631645192599853,0.02429656018585381,-0.046091643837665695,0.18679691507458082,-0.021174419778294106,-0.3319274180107929,0.0015041076843679195,0.02690535612451226,0.005593048225659874,0.3984375
-0.011517037104306986,-0.19663102368920457,-0.2596114700294672,1.0141472215361402,0.08249000811099895,0.03669460408589017,0.10277127591689578,-0.19425518559199237,0.7903051011233306,-0.0918422677064506,-1.4164528457534935,0.006307054636532447,0.11593263888498939,0.023292876803870932,0.40625
-0.023071556693178463,-0.39985188701202745,-0.5273067695345331,2.0614132946792503,0.16793771492536294,0.07459505839653312,0.2087644571820882,-0.3944367108336116,1.6057108163808897,-0.18745540284011117,-2.8828512503797987,0.012798259976219448,0.23632098801509865,0.04717060149647896,0.4140625
-0.01854449572456073,-0.3204408471864681,-0.4222680763986203,1.6512618529700755,0.1344949946972224,0.059742428317566425,0.16719172682295874,-0.3159116731234187,1.2857851258132518,-0.150078034073144,-2.309614819134065,0.010254713454900744,0.18919616163649478,0.037780355844866324,0.421875
0.004957804093267958,0.0926301805897365,0.12280247873037149,-0.4792750063813769,-0.039358266467080974,-0.01733011586317418,-0.04853844703095033,0.09140847930634141,-0.3736465263492412,0.04436941572209674,0.6700505053901151,-0.0029545255755703166,-0.05567185726719891,-0.010823892283676043,0.4296875
0.018815414400555095,0.33644248079968464,0.4442995965701442,-1.7362642213647794,-0.1419066234732383,-0.06277640178466366,-0.17577600981511585,0.33155328147706675,-1.3522788873833052,0.15912027575313487,2.427893998883202,-0.01074747817285549,-0.20010188633791298,-0.039468368301822196,0.4375
0.00689871423511009,0.12723391047814253,0.16788860325252783,-0.6564208716908975,-0.053690819842568925,-0.023707379247940252,-0.06638024026340741,0.12499651628982814,-0.5112532075571844,0.06056613350535909,0.9185857560409083,-0.004051218960012074,-0.07595116692814854,-0.014822225586152395,0.4453125
-0.0050696273872840245,-0.08322520893295048,-0.109873188896837,0.4292430241658357,0.03496029872127117,0.015541747193795977,0.04355307741067363,-0.08246048601222129,0.33372043856483485,-0.03852782684458126,-0.5982663069505689,0.0026808331645261645,0.04878716429371269,0.009924025580564842,0.453125
0.003694881314180356,0.07057232427252633,0.09340480257418098,-0.36467648083145315,-0.02990612829625453,-0.01318679442756775,-0.03691279114064979,0.06945828729671234,-0.28477715169765067,0.033954649124888193,0.5122612809359768,-0.002242140570317818,-0.042530820386163376,-0.008199998384294513,0.4609375
0.010583465085163864,0.19167329053036702,0.253332448852592,-0.9896706669056583,-0.08101303519719298,-0.035774763811652975,-0.10025782032148155,0.18891862870228726,-0.7707320082489099,0.09102489057034073,1.385343246128089,-0.006117917578457904,-0.11435293569600226,-0.02243937318758593,0.46875
-0.0027117874211103053,-0.04181226940661165,-0.05508979830041189,0.21511394298496697,0.017299631972621753,0.007810289625739325,0.02178695519748257,-0.041502096023842104,0.1683081007025241,-0.018932160172263714,-0.29993550074437003,0.001352222595816825,0.024168868526654036,0.005069226409092327,0.4765625
-0.010603001125668756,-0.18056300420336724,-0.23834608740597196,0.9311607637745766,0.07575887122109488,0.03367772309131779,0.09437957163783664,-0.17837106343595438,0.7256879233793871,-0.08428756240764002,-1.3009335781996967,0.005791858712194072,0.10645099669773851,0.0214090623626181,0.484375
0.0033170849965215654,0.06385297353315256,0.08452200092740839,-0.33009583617947574,-0.027219011879239252,-0.01196722195037624,-0.03334963771743095,0.0628307015952631,-0.25692225250615686,0.03082472862370309,0.4624141817099869,-0.0020293873441432683,-0.0385587820821224,-0.007374698496103081,0.4921875
0.0083855869810771,0.15289794062615164,0.2023019422528906,-0.7902235510154869,-0.0648402202343184,-0.02857997083423998,-0.08002618586842981,0.15074815983746506,-0.6144743084191696,0.07278307709556567,1.1041529994735078,-0.004883348110574497,-0.09143270946853543,-0.017886141072098575,0.5
-0.011025300281953188,-0.1880859527585016,-0.24791854530715318,0.9685477387717326,0.07869838181883487,0.03508160771787937,0.09807140811128949,-0.1856458408101236,0.7561598110766354,-0.08779622632720195,-1.3564897127876063,0.0060216722651284344,0.11073469623115079,0.02223018290714604,0.5078125
-0.01852027144111814,-0.3197323665947021,-0.4220315627688,1.6482664303825187,0.1342355101200223,0.05966537678365182,0.16700659719571537,-0.315670842362421,1.2849063803478087,-0.14983565625463371,-2.306182696016536,0.010236969979820263,0.18881680771636108,0.03774858018683236,0.515625
0.0035812292347439886,0.06865240811969066,0.09049947197153192,-0.3545739345772358,-0.029159154720547812,-0.01281328133625909,-0.035744949810786346,0.06729806369782632,-0.276340397710509,0.03302062907115521,0.4961084708937162,-0.002180283916299233,-0.041417384155267675,-0.007926416899904063,0.5234375
0.016566719731964625,0.29686686537332524,0.39195139961223024,-1.5318324378110721,-0.12518249560781727,-0.05540776249901628,-0.15501223765810226,0.2924783716370293,-1.1936974610989963,0.14050394576319913,2.142881526743255,-0.009478353039682015,-0.1766699156673457,-0.03479541406861241,0.53125
0.00022942736471352946,0.009789155534477616,0.01327907080191902,-0.05125217506474253,-0.004288933743689714,-0.0018465118371573366,-0.005163147993789466,0.009503987311246994,-0.04038989111904513,0.005359682570741347,0.07275476826763501,-0.0002968926043702633,-0.006417885794545253,-0.0010540029821568045,0.5390625
-0.009982967870688662,-0.16969750341413492,-0.22361279953715407,0.8747044465211676,0.07129141633035188,0.03163843407169564,0.0885738474073611,-0.16745493271437628,0.680553298807557,-0.07915464435699184,-1.2207487069855463,0.005444349806062698,0.10000883716192135,0.02005679911221558,0.546875
0.0031187426015145616,0.0605305786762886,0.08017222896399011,-0.312636833729156,-0.025686379615840745,-0.01131969891804251,-0.03166804980703622,0.059567066547923576,-0.24438074801910073,0.029230894136012233,0.4404112710167691,-0.0019199998182642107,-0.03650204522816361,-0.007006627925272486,0.5546875
0.00676922439744911,0.12469652912461636,0.16489094121117248,-0.6437621177092413,-0.052804302621945146,-0.023282197286413217,-0.065213713322608,0.12280203338475562,-0.5016280947299696,0.05943994149273747,0.901871863690262,-0.003976391080150547,-0.07456716992059674,-0.014538593723271601,0.5625
-0.009802560902077796,-0.16655990518540803,-0.21944553882220866,0.8582285183766026,0.06974775684341808,0.031064950734575065,0.08687916019402507,-0.16445417136698084,0.6689392091718436,-0.07768380157018444,-1.200601428908228,0.005335562331001234,0.09807970165989204,0.019722610180384518,0.5703125
-0.012160351296612505,-0.2080672388797361,-0.27430139835379486,1.0721961446314268,0.08722924239227897,0.038794863416313274,0.10855655423040192,-0.2053751061416716,0.8355221846533419,-0.09722032001044753,-1.4997123418706966,0.006664570474179331,0.12266357652893034,0.02459641872835318,0.578125
0.008102680434674355,0.14803661721838865,0.195473488089169,-0.7644789974200717,-0.06264611746874144,-0.02765619869914562,-0.07741504572741817,0.14581294296622982,-0.5953848097785983,0.07043783921431548,1.070037940480503,-0.004720450820047127,-0.088461495230673,-0.017297399780919976,0.5859375
0.016938206873187377,0.30339721426344163,0.40035496955920974,-1.5656110494529716,-0.12799171022420175,-0.05662575596379,-0.15851126622403014,0.2989763968505822,-1.219490654109267,0.14358169147352645,2.190644010558258,-0.009685963315097272,-0.18056933004294584,-0.03557050371057799,0.59375
0.005582316241333908,0.10384080254411303,0.1370144293935575,-0.5361140260925603,-0.04391437655775415,-0.019371954428617555,-0.05423146248501536,0.10214216220649307,-0.4177477046273501,0.049637006604098616,0.7506549898369544,-0.00330194400473463,-0.062258730209062044,-0.012093925546973043,0.6015625
-0.00014990933450635067,0.0030438078315216887,0.004161081474191351,-0.016191612466928455,-0.001474309553384522,-0.0005676790818414131,-0.001566355841267052,0.0027823115881422367,-0.012695002874790142,0.002176570210032008,0.02357330932609447,-7.956791787210628e-05,-0.0024504547688787067,-0.0002345212376153731,0.609375
0.00048112038404427655,0.01421337424025736,0.019006388273278423,-0.07395962211269487,-0.006261636124310585,-0.002657971714877844,-0.007376352422767046,0.013792854770983909,-0.05681209105075692,0.007381383112743679,0.1035005500058906,-0.0004424071193726013,-0.008992245933750738,-0.0015384460217132442,0.6171875
-0.012373108005308334,-0.21149891696941017,-0.2789846558075461,1.0901108762263654,0.08867432782113133,0.039467532681696706,0.11057240077251711,-0.20894702265494414,0.8508339443165134,-0.09894386049365124,-1.5261830447623757,0.006771259794932712,0.12480530227685832,0.02502330296934819,0.625
-0.024360232429999667,-0.42220212830145215,-0.5571724924827042,2.1768039149404292,0.17737638379071327,0.07878846865569723,0.2206169827151372,-0.41680298993500575,1.6969262992867171,-0.19810536277020413,-3.0460039791529314,0.01351129016254912,0.24957484871092975,0.0498028949663128,0.6328125
-0.008490816178828728,-0.1436265134173726,-0.18935175457700026,0.7397473065892973,0.060143304782368054,0.026792076029243782,0.07497361181116428,-0.14186632188593676,0.576334546664917,-0.06682775304065264,-1.0341048975207683,0.004606410307897299,0.08432278315069475,0.01701795305261075,0.640625
0.015437233228073092,0.2767170066837417,0.365693088392204,-1.4284650119565074,-0.11680014812883896,-0.051656852574247084,-0.14471436429819481,0.2729020229331801,-1.1130783161036013,0.13113431943745496,1.9997270229407704,-0.00883641046715633,-0.16480269543864187,-0.03242799035139468,0.6484375
0.010688527072835331,0.19342120461929024,0.25577647070603204,-0.9986325094438063,-0.0817412194432598,-0.036109848114225455,-0.10120519378468662,0.19072695830004813,-0.7780060549147276,0.09186434745828366,1.3982547223576518,-0.006174558926847457,-0.11531992719592582,-0.022622263221837288,0.65625
-0.009472923040779749,-0.1607659912750271,-0.21188959362371979,0.8284997663721745,0.06736753793241913,0.02997959387840636,0.0838521145326069,-0.15867564244479182,0.6450282916624166,-0.07494410768742925,-1.1572944792923967,0.005153904176761982,0.09461413720051795,0.01902426852213746,0.6640625
-0.006840464325444702,-0.114602738909211,-0.15104250038129155,0.5903415127407542,0.04794402284266746,0.02133914875143012,0.05975116366235895,-0.11311185281811727,0.45888551887564993,-0.0531934498625449,-0.8237613604413468,0.00368014523051479,0.06715746893434563,0.013566031994632037,0.671875
0.014372856015059133,0.258177997683828,0.3409889730916634,-1.3325584556353367,-0.10896505657681271,-0.04824056220361551,-0.13492496341264587,0.2544887584187535,-1.0386962188278506,0.12231997434541214,1.8648070995705526,-0.008241882229555996,-0.15378659423280455,-0.03027330145385167,0.6796875
0.020150070903361836,0.3599300618108797,0.47515099323474264,-1.8571699134794035,-0.15175921444600865,-0.06720403968166588,-0.18797533833108931,0.3545867695984214,-1.4461275570672694,0.17016606172341203,2.5968432782811086,-0.01149661402908237,-0.2139568009383229,-0.04219926427016464,0.6875
0.00447692487441384,0.0846314892596335,0.11167472164327456,-0.43688819141664176,-0.03585129669967759,-0.015796418407202632,-0.04416046837376348,0.08297986216229841,-0.3392286503944757,0.04051498741714238,0.6104717174973143,-0.0026909625964943226,-0.05069160150779815,-0.009804340426611708,0.6953125
-0.009300506821388945,-0.15763712802510604,-0.2078984077911464,0.8126889153057191,0.06609852596633015,0.029414277303942252,0.08228496525266962,-0.1557015807206199,0.6333937065076124,-0.07350694810039138,-1.1353688348200464,0.005057195749311591,0.0928707952885516,0.018665029935675963,0.703125
-0.008295305754825906,-0.1401315709784576,-0.18459698273045458,0.7222242620039029,0.05869560618003068,0.026133639880952117,0.07310259194920558,-0.13823336318572033,0.5622308356996001,-0.0652244687490363,-1.0079624407445098,0.004495493997409648,0.08243405838658238,0.016596790242596107,0.7109375
-0.0013300765252803404,-0.017705787765915637,-0.023183472920028102,0.09069884247254115,0.0071675142202448925,0.00329782349148733,0.009234529102820773,-0.017610941449427885,0.07063870968627099,-0.0076017478210690225,-0.1256951438425765,0.0005797815769124629,0.009838158396300653,0.002218842197254405,0.71875
-0.0005776791322721998,-0.004452329156315376,-0.00585677055620887,0.0221025433522311,0.0015892958123392667,0.0008384202342855889,0.0023377400120390157,-0.004668291249201,0.017625867996548538,-0.0013807339985055015,-0.03100688857113147,0.00015572494579759954,0.0019366449286244963,0.0006597800563935593,0.7265625
-0.006954220534225466,-0.11654380041326705,-0.15357502300986656,0.5998777665582079,0.04875465426148527,0.021737563674880694,0.06082562160471664,-0.11514846607626215,0.46728242715863855,-0.05414665692443117,-0.8396449843359046,0.0037372456837038407,0.06832831239228504,0.013812986238472507,0.734375
-0.010256752026800854,-0.17451280993638837,-0.22997093466093116,0.8990513006316299,0.07318090432110855,0.03253398107365368,0.09113787700824454,-0.17233164786902236,0.6999741486383829,-0.08145936942145436,-1.2581002479819405,0.005589962053606416,0.10271496921267186,0.02062546785567377,0.7421875
-0.00407068971255371,-0.06565444075021748,-0.08670156695064934,0.33831520881495564,0.027414961137987096,0.012238689260383614,0.03440439264506449,-0.06515617559237348,0.26378773736004407,-0.03025385645244831,-0.4731340755610539,0.002114762737158062,0.03828534508651307,0.007852597045806826,0.75
0.0016547547988979081,0.03497299946253468,0.045859037517025,-0.18045270275425576,-0.014941020885190929,-0.006506505871786871,-0.018170668342785398,0.03407586455671852,-0.139700508206616,0.017137243147552723,0.25382779704908626,-0.0010975704145860601,-0.021291879472662822,-0.003969407831046085,0.7578125
-0.0035940945146826202,-0.057391520115204,-0.07558058658694881,0.2953928402206225,0.023902517585053736,0.010731536340366306,0.02989028212689647,-0.056757366683854886,0.23043167293045538,-0.026263291508433616,-0.4106030917194932,0.0018534120600170064,0.03344958879807576,0.006871917996218688,0.765625
-0.00901980053092643,-0.15285527788010628,-0.20105807831225056,0.787328056712819,0.06408334657985375,0.0285240834392254,0.07964492659671461,-0.15072082644167314,0.6127317760011207,-0.07114396576136632,-1.0985867292866398,0.0049008089055181895,0.08996385229833254,0.01808300740405348,0.7734375
0.0011265562250603032,0.025323426202214446,0.03401931666871129,-0.1317180850901944,-0.010955293611117935,-0.004750387661242758,-0.013369399100611667,0.02496760418282987,-0.10302895975212968,0.012749776191174634,0.18566548718838244,-0.0007991214519487034,-0.01577945364221053,-0.0028652001804924583,0.78125
0.01842017946820285,0.32910050024817106,0.4347107435821493,-1.6988019533396455,-0.13896309552685032,-0.061463551409325114,-0.17198614871409523,0.3244844498024813,-1.3227980743870025,0.15576298600234503,2.37521776907896,-0.010516727507906266,-0.1959751279545337,-0.038581743227045495,0.7890625
0.023010349184210254,0.40982621763393523,0.5412869122866131,-2.115456465221866,-0.17302989533538993,-0.07653395033153314,-0.21415501268084622,0.404030894070192,-1.6468359354088293,0.19375962581193584,2.956251152800623,-0.013102521750840826,-0.24383330203055903,-0.048067282970606716,0.796875
0.013481362365517138,0.24259194447335644,0.3204475489300927,-1.252349142462658,-0.10253932865630333,-0.04529611696274446,-0.12676925009988377,0.23897623423254696,-0.9745445359271048,0.11498544867798831,1.7500095615422027,-0.007750510150778526,-0.1445606096766157,-0.028381320033016397,0.8046875
0.00023941984562953256,0.009934447408780616,0.012993173911623326,-0.05152480939350639,-0.004494194258336144,-0.0018573765916159203,-0.005196422760186016,0.009481392646919036,-0.039168934458208994,0.005402104865816638,0.0729570002845899,-0.00030082743259994364,-0.006523365532591585,-0.001008754363244693,0.8125
-0.013258172710245611,-0.22740392782541585,-0.30025252245444073,1.1724243710026123,0.09537783667480831,0.04240667467722554,0.11873036043588046,-0.22445032016925184,0.9140446950818698,-0.10635534806679255,-1.6383633778999829,0.007289464144044502,0.1341570178669942,0.02687897085268434,0.8203125
-0.021419671087413775,-0.37074938227255955,-0.48902121422398065,1.9111360364813346,0.15572195406689218,0.06913396216028807,0.19355300666852887,-0.3657600730795802,1.4886253220121561,-0.17385746221002926,-2.672808945823203,0.011867322379321067,0.21912154940876985,0.043695409227400984,0.828125
-0.012451830724856137,-0.21277726207837935,-0.28051724644961706,1.0968628501114024,0.08944039025296908,0.03969039211815192,0.11113485935089407,-0.2101833485494606,0.8533926194247862,-0.09952761010338826,-1.5335624531731908,0.006819469134389722,0.12560708363973078,0.025105914829087198,0.8359375
0.0068412618550304964,0.12649716816917303,0.16678502196315476,-0.6518777082263711,-0.053161519949904194,-0.02358003391921864,-0.06593745807828581,0.12419585484208243,-0.5090253542525667,0.06017113776547907,0.9143889160010925,-0.004018782813740266,-0.07537279547953672,-0.01477187217751663,0.84375
0.009761420480716572,0.17765546905519308,0.2342604036466961,-0.9157588241934975,-0.07473859704053717,-0.03314443867534374,-0.09269837823858501,0.17477961031348832,-0.7144473821302707,0.08428281189383198,1.2841937016119387,-0.005654668484221806,-0.10572594168664824,-0.020777318120894502,0.8515625
-0.008929305241885217,-0.1510978041913853,-0.19907354940035488,0.7788471633848119,0.06346931430584901,0.02816613280632461,0.07885943700025252,-0.1491202553431725,0.6053854734604303,-0.07043909822663538,-1.0866332619404424,0.004847885090722853,0.08903958607247724,0.017874333461916643,0.859375
-0.02029801615530991,-0.3510721280089051,-0.46274742468446417,1.8098954739913986,0.1475375163383687,0.06548631870244992,0.18329428041254686,-0.3462578620791511,1.4087157106364392,-0.16455001469108937,-2.528846676736764,0.011238278887471672,0.20750971222530576,0.04140445294789709,0.8671875
-0.005973168137921042,-0.09944878529453682,-0.1309807310327519,0.5122720818730875,0.041508523573358186,0.018554037148024248,0.05197693715168373,-0.09829385826374902,0.39943034176730224,-0.046048964986475024,-0.7149854800018131,0.003192871789502305,0.058237326029901865,0.011856593916979512,0.875
0.015153395421301842,0.27170356910594756,0.3587356472245748,-1.4027574697549017,-0.1149305794088778,-0.050704279890628125,-0.14192544412656607,0.2676909666315163,-1.0904854217334439,0.12875856612483436,1.9597585508603468,-0.008682313884014395,-0.16201965236944668,-0.03178328282004052,0.8828125
0.01934487990178114,0.345253300419217,0.4561436307248444,-1.7833871365039924,-0.14602404899301,-0.06443581350665951,-0.18055372377229492,0.3404804088292018,-1.3867219882844968,0.16343726518706778,2.489221684476432,-0.011043982968902938,-0.20580807574691454,-0.04048641275715101,0.890625
0.008464324800704819,0.15401777868355757,0.20383122243790086,-0.7969614657469449,-0.06540756710375734,-0.028744725150665677,-0.0807112123335351,0.15204280501165734,-0.6194821359597027,0.07334841522180904,1.1112887315629683,-0.004926186042156967,-0.09235258765822492,-0.01803412477031768,0.8984375
-0.003132570489339825,-0.049580270827517606,-0.06538036843984556,0.2547740331021292,0.020551797295403074,0.009257160034435283,0.025872087355050248,-0.0490065044419385,0.19900368052775963,-0.022644857570492356,-0.35590710147565413,0.0015976485284539513,0.028636938063116044,0.005946040921612076,0.90625
-0.007854152283066962,-0.1321704017810331,-0.17477458767095058,0.6819416079429679,0.05546593776808278,0.02467348999569038,0.06918822412894356,-0.1308097602044847,0.5319102480598177,-0.061599254586917576,-0.9520601666865421,0.004247309876766221,0.07781595376019183,0.015706320239882155,0.9140625
-0.004926726829293038,-0.08053195831453164,-0.10636035122587723,0.4152576159822816,0.033691807550477904,0.015024636124086574,0.042086293373578096,-0.07984221581535923,0.3241165390493494,-0.037203671226304184,-0.5797294468025962,0.0025947595861164777,0.047210155736962384,0.009619899015068958,0.921875
0.0006885576239776978,0.017954328275360823,0.024118367469741313,-0.09340396198755146,-0.00785464463112095,-0.00340008979406457,-0.00955207555287788,0.017588813798252025,-0.07311908503019868,0.009287301229974315,0.1323756454536407,-0.0005578518217417239,-0.011255858579074273,-0.0019996605411980034,0.9296875
0.0013614222089656865,0.02960008660812858,0.03959728481383765,-0.15318776574468165,-0.012732505152303964,-0.00561905420105463,-0.01561272625730742,0.029148142966025893,-0.1208564069760947,0.014769941267756203,0.21812158894290287,-0.0009289107214221401,-0.018129530066559485,-0.003368493197871214,0.9375
-0.0005182431645400789,-0.003215068529142393,-0.003965110141777838,0.016854023277251714,0.0012237965197135193,0.0005265697425840075,0.0016667356506364964,-0.0034313394944837892,0.011482661750423128,-0.0007924618920646724,-0.01882960533097344,0.00012441475834866128,0.0014921074666697752,0.0005077850782058687,0.9453125
0.0032232664061847974,0.0628250141547834,0.08299132182972493,-0.3237253103610504,-0.026482627910416345,-0.011723232300091733,-0.032775591995461074,0.061526563481623116,-0.25278342760274725,0.030206585821600466,0.4556002518226701,-0.001987493778239419,-0.03756004401856958,-0.007266442986676074,0.953125
0.005166054617857203,0.0968294038082447,0.1278802081214964,-0.49991705587136587,-0.0408724154682442,-0.018038226192771838,-0.050534974307665015,0.09508201423196566,-0.3891013696080367,0.04619693310144854,0.698728809537168,-0.0030819635708608877,-0.057876248549319435,-0.01127854172035292,0.9609375
-0.00757737305309169,-0.1275302869450765,-0.16815065718529387,0.656625100046412,0.053423002608130106,0.023796290095012784,0.06668558553484531,-0.12607786467660542,0.5116027145133066,-0.059416355379310226,-0.9206047768087477,0.004085010474350037,0.0748423228268472,0.015112704541431678,0.96875
-0.02071853007310887,-0.3586814206940642,-0.4732044489583766,1.8487928719848377,0.15064694606637064,0.06691640771118482,0.18740082351599752,-0.35390554870417157,1.4397545549271258,-0.16820177841210313,-2.587220310178776,0.01147669110997074,0.211739561584892,0.042299054157614126,0.9765625
-0.008914358483756454,-0.15121753649747607,-0.19939834613256757,0.7786932292912572,0.06328062313674918,0.028233998978784362,0.07892392990506078,-0.149170386659468,0.6068678666520011,-0.07044840458937965,-1.0896080153496392,0.004846530001450699,0.0887972828061756,0.017886098808570436,0.984375
0.015828547072069474,0.283614008583827,0.37453304570643214,-1.4644261787270088,-0.11982537092868185,-0.052900093680315195,-0.14827790004472113,0.27967946236139124,-1.1390932416481432,0.1343401311235833,2.0469134114484078,-0.009059054535791098,-0.16895557348569518,-0.03325511850479234,0.9921875
0.018128578358574454,0.3240494613219679,0.42793929090460414,-1.6730176883961712,-0.1368683717551992,-0.06048717396850751,-0.1693673573532266,0.3194384432470317,-1.3015383439421717,0.153377516796141,2.3382662455073953,-0.010355116416488744,-0.1929652088380128,-0.03799070304398831,1.0
-0.0007813166667455381,-0.008089072376937395,-0.010456918592412129,0.040764300366218906,0.0030494202061542865,0.0014650912700713663,0.004168923304566165,-0.008221769661576683,0.03201557133177519,-0.0030317820928945434,-0.05650025060922058,0.00026926397087204574,0.003987985688050698,0.00108836245751744,1.0078125
-0.007745565011156614,-0.13026283540024525,-0.17174788265157598,0.6716219717033258,0.05460382174166183,0.02428302789821828,0.0679782597309842,-0.12870060897251503,0.522472258561098,-0.06055382573847101,-0.9361671128740116,0.004183380442127043,0.0765723379550677,0.015459371905556006,1.015625
0.0023798269976545044,0.04769812205195913,0.06318144900540122,-0.24621591864900422,-0.020304220759893948,-0.008909840423733955,-0.025004380704631072,0.04686298249160132,-0.19217029769987945,0.023260529650700662,0.3478806986874424,-0.0015056289833836048,-0.028838562369548522,-0.005470402814399403,1.0234375
0.004468571899059012,0.08430495378030942,0.11154991107330045,-0.4352855449342571,-0.03577202263847222,-0.015756763270787125,-0.044119586637679585,0.08296865384345221,-0.3390061961632324,0.04048786040443811,0.6111646180403953,-0.002679405459664887,-0.05056623277528801,-0.009774398552780752,1.03125
-0.004683346549032561,-0.07652905206330188,-0.10079516639004094,0.3942518303401936,0.031936052430435596,0.014246807243758979,0.039934441727108715,-0.07571978211463061,0.3071035204843955,-0.035290604930250144,-0.5499067980454111,0.002462210246504709,0.04475448746580955,0.00913871338918957,1.0390625
-0.005184359000702727,-0.0852731725135195,-0.11237903024494773,0.43934196750091087,0.03563445209829074,0.015893879208740278,0.04453875389153857,-0.08441052087310497,0.34236970260087396,-0.039441641695391064,-0.6139136178616966,0.0027409131681401765,0.04994511439736809,0.010165135904445625,1.046875
8.113473389337348e-05,0.007198624148481677,0.00979960964893086,-0.037912307085573235,-0.0033568213380796405,-0.0013560837372453853,-0.0037774845320460598,0.006825860532646591,-0.028876067963171485,0.004116552809348951,0.052509952741075394,-0.00021944335028152893,-0.0048970447081697725,-0.0007090462820815198,1.0546875
-0.008700141553520578,-0.14724468566758372,-0.19400206180057103,0.7585308142044025,0.0616087111376013,0.027454109083254234,0.0768740459709173,-0.14539805919264542,0.5915598443004315,-0.06859404474869599,-1.0612672779043435,0.004718747639167882,0.08663159251663807,0.017450359961075124,1.0625
-0.020571700270056864,-0.35585360619171835,-0.4696091656884962,1.8347682290024063,0.14951349842164907,0.06639175477362284,0.18589027763848726,-0.351153937619869,1.4293865501075564,-0.1668755232542109,-2.565726372547628,0.011394418700488709,0.2103159827295473,0.04196822534311504,1.0703125
-0.00568197676227632,-0.09409367521806525,-0.12434294578873695,0.4846846111553995,0.039423438226736454,0.017568779314441514,0.04922011612083456,-0.09309678383683823,0.37756489227026807,-0.04368041110888632,-0.6782062744005494,0.003025593967280803,0.055134489341271346,0.011160379611594825,1.078125
0.025467565941083688,0.45325540959083976,0.5983001960792543,-2.339017432907731,-0.19103461392534143,-0.08458212194872892,-0.23675075257494557,0.446764109245932,-1.8217814298942527,0.21408109991657745,3.2697033474675927,-0.01448288420371038,-0.269421720317197,-0.053232221514871,1.0859375
0.029541956007645212,0.5247041181165645,0.6929201763703422,-2.7078411366993453,-0.22117486840705705,-0.09795133547441381,-0.2741967591923916,0.517418078748361,-2.1095399738274794,0.24780311841491157,3.7866977332281975,-0.016770058742411675,-0.3118139595111124,-0.06163934854527459,1.09375
0.00210982974433737,0.042635111825265685,0.056597362420993856,-0.22081218664944194,-0.018164439026057338,-0.007989844896042755,-0.022384877452173556,0.0420399539103661,-0.17316866492796545,0.02082872365255989,0.31145392455622506,-0.0013484884197240722,-0.02595326166051679,-0.004919471793908331,1.1015625
-0.01425874994805029,-0.2448756825386238,-0.32307372315748534,1.2627567104324011,0.1029246146370101,0.04570453073694919,0.12790737575325276,-0.24167023858746522,0.9827061959968475,-0.11457416247820318,-1.7625583574011856,0.007848987378624628,0.14455068569536153,0.028938451371066737,1.109375
-0.0029867561398609905,-0.04674088773721921,-0.06147276690916787,0.24056851364088105,0.019382540242526697,0.008739880005592287,0.024438033738022082,-0.04640699209254545,0.1880209472684306,-0.021255285030023666,-0.3354415699429549,0.0015069735265603394,0.0270297911924796,0.0056654013154203075,1.1171875
0.004320385897714268,0.08165621066747449,0.10818019736949859,-0.422198537215227,-0.03480106829783677,-0.01525753905997661,-0.04271145507659232,0.08021681744359863,-0.3273747851265776,0.039239622247337624,0.5892212671160063,-0.0026041817280088387,-0.04913617912321206,-0.009441135019933653,1.125
-0.007468980079227708,-0.1254327984560091,-0.1652058229442001,0.6460409288574347,0.052453347609140506,0.02337049389374947,0.06541481179554547,-0.12398446648066817,0.503986358167556,-0.058292305689662496,-0.9042171734172829,0.004021818199488761,0.07370803687223662,0.014892524791345747,1.1328125
-0.01172684874512888,-0.2001828978042801,-0.2640177040199259,1.0319390616058692,0.08403523811499465,0.03734496833172959,0.10448355817515609,-0.19768642303860723,0.803734764529823,-0.0935154259056867,-1.4422966329439406,0.006417265435384538,0.1180709693224638,0.023671352888591728,1.140625
0.001980270779941247,0.0405743354685912,0.05368882740298712,-0.20987081488865517,-0.017357877004820933,-0.007570124345188021,-0.02124900731459287,0.039782464967801474,-0.16348529812004894,0.019878172295043718,0.2949466557381635,-0.001281386094795824,-0.02476247455283553,-0.004648965904637667,1.1484375
0.005775867362662043,0.10712229618581008,0.14140929803317526,-0.5530828995133378,-0.04542864051651979,-0.020011786612073958,-0.05598503293201686,0.10543542274478174,-0.43072362920897966,0.051225487153015045,0.7750975973401232,-0.003408377897813557,-0.06429548171693944,-0.012481851557045216,1.15625
-0.01021069109379152,-0.17377501072430498,-0.22945869329967133,0.8961084552042636,0.07287336682024617,0.03238874296823061,0.0907686636804155,-0.17158587359980773,0.6978376230811532,-0.08110071959317008,-1.2510861013970487,0.005576938471414549,0.10233947886145828,0.020554610135930608,1.1640625
-0.016837659163501443,-0.2901368694816442,-0.38286251391512804,1.496208394623087,0.12186456300514213,0.05411204798487053,0.151536663258609,-0.28632448640276276,1.1655509169682579,-0.1359384862164267,-2.090916293482151,0.009294150352204607,0.17144600682703898,0.03424870183727376,1.171875
2.721971736384434e-05,0.0061864047780421545,0.008575950053792447,-0.03294977591527137,-0.002976271216770666,-0.0011731909063432053,-0.003281504444175104,0.005925092910321204,-0.024878686230503447,0.003626677862778408,0.045592961810975094,-0.00019019443695436394,-0.004297621468143302,-0.0006005884248737474,1.1796875
0.015351231926236877,0.275387585653626,0.3638981127618183,-1.4218509597499458,-0.1163206611938085,-0.051409108121883706,-0.14389268662591845,0.2713926181411958,-1.106863690243453,0.13043416600960608,1.9871340280117753,-0.008799826202874218,-0.16402325130746953,-0.03227010281969358,1.1875
0.009833563085294424,0.17842468461196698,0.2357234141018652,-0.9213486751685349,-0.07541834704012933,-0.03331949159146849,-0.09323990176050356,0.17578181523260122,-0.7177146734160058,0.08477688048433041,1.2885297033042271,-0.0056936035333473335,-0.10652122863009447,-0.020865819035784647,1.1953125
-0.0026752633264029465,-0.041382775543669405,-0.05432194592012476,0.21256192334284515,0.017134259104942193,0.007694885260661404,0.02152431314872436,-0.04091878324166813,0.16539134043813036,-0.018733545370132883,-0.2963013085916363,0.0013360949619414615,0.023880476504492123,0.004993232681019121,1.203125
-0.003363094782957866,-0.053496130027209106,-0.07012908840114869,0.2746662111360214,0.02222223743379217,0.009960013843972713,0.02782691325564214,-0.0528446477522525,0.21390594327981088,-0.02443094531740157,-0.38374476629063836,0.001720974950264647,0.031060885231195833,0.00640542538326602,1.2109375
0.0059617556054094,0.11040874452599155,0.1459886971997981,-0.5706950118744317,-0.046688373757910434,-0.020605268986747412,-0.057708575604898484,0.10871196921181638,-0.4448326850575389,0.052725701373256835,0.7983818967195937,-0.0035164690149985934,-0.06614680011073894,-0.012894892842220472,1.21875
0.011653653570134896,0.21054613683928977,0.27775015312264134,-1.0865115401581142,-0.08877874300047103,-0.03927300536605621,-0.10992129833499006,0.20737325192742287,-0.8464555614361655,0.09982195632401518,1.5203737871478562,-0.006713784727746887,-0.1254811366015399,-0.02466123317513867,1.2265625
0.006302482770221682,0.11657588164043003,0.15371524773936512,-0.6014882477526818,-0.049312085294579075,-0.021742925215621683,-0.06083002292718252,0.11466954022295937,-0.4678092826849423,0.05554249562970329,0.8416695579977205,-0.0037127898637168404,-0.06972564076280226,-0.013569562808869902,1.234375
-0.003774188819411748,-0.06050559387435431,-0.07971420732993295,0.3116068272371985,0.025177610135421604,0.01129063381045281,0.03163024464971465,-0.05995288782356632,0.24333284923956625,-0.027827284496016826,-0.43571519032926254,0.0019450716808335072,0.035252409347419286,0.007261182934334194,1.2421875
-0.007176373903145054,-0.12028709585382313,-0.15854420587067075,0.6198309813737956,0.050465891469592,0.02245556488685024,0.06284161543110438,-0.11887593625544303,0.48213160367460883,-0.05595910847216529,-0.8654243292447074,0.0038611833676419393,0.07069075334140132,0.014251204623416293,1.25
-0.005258406594280324,-0.08657283876867874,-0.11415261857546499,0.44607691093577273,0.03633645298270563,0.01617004216055156,0.045218696369911604,-0.08562976229870868,0.3465605209014496,-0.04007452653432953,-0.621693867100737,0.0027871904573456567,0.050716197622598096,0.010276120673521273,1.2578125
-0.009743395741972735,-0.16543513284215938,-0.21813679877222364,0.8526885006911444,0.0693677381487527,0.030856733191944527,0.08637445355657544,-0.1634741854848481,0.6646511899505109,-0.0771732704030652,-1.1924129903544345,0.0053029541497833415,0.09743301803473449,0.01960065951066845,1.265625
-0.017885653600035877,-0.30860071240318265,-0.40686970586121324,1.5907957635065746,0.12946124304602605,0.057537244392070766,0.16110116129035715,-0.3046809386751972,1.240246589713107,-0.14451901793606195,-2.226170670476616,0.009875347485343597,0.18223504003493599,0.036470845184363734,1.2734375
-0.012290104008678337,-0.2103050626612568,-0.2771478545707816,1.0838223328941343,0.08808890196108633,0.03919939128394869,0.10970028287304928,-0.207611486756441,0.8446379337622504,-0.09818400491448186,-1.5152653461879948,0.006736672052047412,0.12393684038866293,0.02487937829300652,1.28125
0.006916609131801612,0.12723158013539831,0.16816605883804842,-0.6569386105392523,-0.053950959292521805,-0.023766569406375098,-0.06663328567418247,0.12538333801798263,-0.5115120296937302,0.06075643584277969,0.9212133148520905,-0.004051445959171874,-0.07614700957570905,-0.014850351881890447,1.2890625
0.017355165906067182,0.31064582900999416,0.41021868839542674,-1.6029876410074058,-0.1311825442811977,-0.058010645386601556,-0.16240664165193175,0.3062370401697519,-1.2479680527959394,0.14711163305260952,2.2436717079874877,-0.00991860326933865,-0.18489002922920036,-0.03640800524723967,1.296875
0.009965016911279836,0.1806641965863388,0.2387615771647323,-0.9326967944374447,-0.07646815583930247,-0.033795013827979455,-0.0944747737858985,0.1780411422757004,-0.7263476026661795,0.08591463157634611,1.3057771568617105,-0.005764134708355704,-0.10787936468071503,-0.02111105223627116,1.3046875
0.0008226097850580983,0.019903972188578645,0.026519529267712578,-0.10355630783403035,-0.00873805834135108,-0.003793455321572307,-0.010492689949600089,0.019602657708044726,-0.0813941660368186,0.010204762894415846,0.147198369977177,-0.0006204285377636048,-0.012602968458128933,-0.0022327895579727624,1.3125
0.001464052394649581,0.03123603864419252,0.04127885075438003,-0.1620931054319253,-0.013450375109871003,-0.005858871011715617,-0.016354906773216896,0.030764789115502254,-0.12655012726943698,0.01546053161199092,0.22835860648615655,-0.0009824253116842321,-0.01928797802380582,-0.003584605428176633,1.3203125
0.004224660344881055,0.07993413363737728,0.1055393692919837,-0.4134582226857364,-0.033872370196715414,-0.014904963882216628,-0.0416660951317385,0.07859449232039667,-0.32143193355954747,0.0382727272787522,0.5769198770425165,-0.0025454968541591414,-0.04806241728755052,-0.00929531501568688,1.328125
0.0014523594998912222,0.031365642905143216,0.04162645657979516,-0.16298067286641355,-0.013323051378157601,-0.005821627882302926,-0.01623706083428061,0.030597832830131864,-0.126560653100278,0.015323269023023915,0.2250425444209436,-0.000996878616936701,-0.019151213152201894,-0.003574626327907467,1.3359375
-0.0030644148794369617,-0.04794386682381474,-0.06302958716885708,0.24635644137523127,0.020079095442937168,0.009006352695660238,0.025119525681825697,-0.047558686386614854,0.1919447702770588,-0.022028424310732864,-0.3465337648164192,0.0015411445250371858,0.02793095837030841,0.00574326188355906,1.34375
-0.004836199302145092,-0.07905027171357829,-0.10434710975146536,0.40726243326282285,0.033087321629747396,0.01482882730565053,0.04131629882441995,-0.07829528509477955,0.31796790405487907,-0.03662944613191159,-0.5704721838030881,0.002540801612442263,0.04634726047467661,0.009420029563867147,1.3515625
-0.005016594961387208,-0.08225098844830399,-0.1086872425280394,0.42418247773582984,0.034405530363036445,0.01538583152343201,0.04303764796063206,-0.08160765161713195,0.33124891158694575,-0.038068011530598946,-0.5931525994939948,0.0026469272883127147,0.04819038809553418,0.009834985761042194,1.359375
-0.0047364902642369885,-0.07745231374068608,-0.1020473359409318,0.3994410321423125,0.03243401241546417,0.014420421700637695,0.040516541955824874,-0.07677843500491424,0.31053289687903857,-0.03573757155189408,-0.5567257080327525,0.002494484458629075,0.04532079053424632,0.009264206578290381,1.3671875
-0.002603822685855761,-0.04010691278643496,-0.05240236036151617,0.20632221644663964,0.01666080435522634,0.0074257801968870265,0.02082463629271781,-0.03961568356172772,0.15924255786789754,-0.01808334745190236,-0.28524898089759176,0.001298670136265287,0.02314346467124415,0.004823278536760017,1.375
0.0008922856250983319,0.02126558901043219,0.028585738999698226,-0.11073009148659746,-0.009341311983054676,-0.0040115822881472245,-0.011393361223358033,0.02106610148026568,-0.08676007453800443,0.010879325289854323,0.15791889366169687,-0.000665647886832082,-0.013341304129894411,-0.0024116224972365614,1.3828125
0.0015340607142207223,0.03252372653904626,0.0432093453845444,-0.16878373083452256,-0.014158943304099312,-0.006111699858178191,-0.01721041611859842,0.03202045738444535,-0.13101307824701747,0.01620302214289019,0.23833813003086257,-0.0010255820307795854,-0.02011124429174294,-0.0037027779407725813,1.390625
-0.002356680817026359,-0.03582441635288039,-0.047137450662242904,0.18398846107010142,0.014664152151999909,0.006633412609804857,0.01865391975952185,-0.035559190118199586,0.1436977905172777,-0.01602925766384466,-0.25578720571142594,0.001160079840291312,0.020408414149614692,0.004359428852322022,1.3984375
-0.004298497741882356,-0.06987232693352402,-0.09209683467418708,0.3594664030405213,0.02901714321193473,0.012999073289086177,0.03646627595715663,-0.06915431629939972,0.2805126788112401,-0.03213016733264005,-0.5026606450196237,0.002246712264809957,0.04064833391231527,0.008349782655606486,1.40625
0.0016824464609257019,0.035265265004583816,0.04671100076776648,-0.18316925555479163,-0.015261973126326253,-0.006613860912015285,-0.018525414868184962,0.03458799633306442,-0.1416579501289406,0.017362035319788506,0.2550358075799848,-0.0011177853436004721,-0.021660734769918432,-0.004031813370766223,1.4140625
0.008186208928361511,0.14950118701834053,0.19760320434200238,-0.7723035251534272,-0.06327764424526569,-0.027949146469310217,-0.07817422251429483,0.1472587504392871,-0.600929077885048,0.07116642920618245,1.0795137404067272,-0.0047707550932358875,-0.08937707630703612,-0.01745965379631447,1.421875
0.004048656808914874,0.07678789917381493,0.10166434322559015,-0.3967846617318774,-0.03255527485439513,-0.01437030442899072,-0.04009049802913368,0.07550052573796562,-0.3091733642225554,0.03689862362252513,0.5554499258698105,-0.002443289051476137,-0.04621255215242973,-0.008896694655941641,1.4296875
-0.004749618283702463,-0.07767464588493847,-0.10239961199473369,0.4001906325823776,0.03246959992488719,0.014510151158404476,0.04059795347258892,-0.07688363621147114,0.31195574614592736,-0.03588970673390745,-0.5591265661095527,0.002498846778003091,0.04544546965686886,0.009260232224301748,1.4375
-0.0036380953586466996,-0.057966360512748734,-0.07655336412459442,0.2985537541715054,0.024160029181442385,0.010862269833425642,0.03023964665371398,-0.05745779040000049,0.233306142924954,-0.026640249941414673,-0.41705167029124124,0.001870653960390811,0.033833985137297434,0.006922543980635576,1.4453125
0.003732801330684667,0.07158616679367191,0.09457044136298294,-0.3695524083630495,-0.030250768405062755,-0.013344293769024742,-0.03737548940423001,0.07030251576160532,-0.28800980369682916,0.03435150749084748,0.5181087459366613,-0.0022718931841783155,-0.042921695843300814,-0.00831404777031712,1.453125
0.002639008429071191,0.05219835078293615,0.0691760926237735,-0.26953478156486854,-0.022009613198937513,-0.009754655416349957,-0.027123753278044505,0.05114881186895057,-0.2111395497948035,0.025230420120112233,0.3783178703569678,-0.0016539108530524071,-0.0314590040825256,-0.006006710877410657,1.4609375
-0.003947826736097742,-0.06382470263233078,-0.0840012579044225,0.32841186592149707,0.026620432281296468,0.011901794105130523,0.03342533640750194,-0.06323373638694847,0.2554825690364632,-0.0293421844713428,-0.4593842115156147,0.002052708148634352,0.03716790801989392,0.007660583144957889,1.46875
-0.002810644924093714,-0.04403847773667262,-0.057964454132583866,0.2257749958350269,0.018006413907881005,0.008201768144533437,0.022882404800727497,-0.04353564055274618,0.1770217449738007,-0.019957191772725397,-0.31689043782823767,0.0014165868593610496,0.025283565564628307,0.005319260956002866,1.4765625
0.001970588945532061,0.040032582973183004,0.05315188889266022,-0.20780285146207847,-0.01735814508807512,-0.007514337125428968,-0.021096637005282626,0.039529226755432925,-0.16104135791991794,0.019622118830015356,0.2901358294186982,-0.0012728149615233108,-0.02454089513631628,-0.004600959897598026,1.484375
-0.0006382158538199063,-0.005569373806108815,-0.0068888353646509885,0.027895840773040477,0.0020801261269858605,0.0010027697981707703,0.002853310499963899,-0.005519371477106578,0.021185534644781883,-0.0018998491811275358,-0.03849844093633277,0.00018799346452105274,0.0026146128066022113,0.0007540563456412669,1.4921875
-0.003631185917573061,-0.05796450314604931,-0.07623615726112337,0.29839738112549435,0.02421964730575131,0.010824432791980927,0.030298005037960353,-0.05739419436269501,0.23187529260825213,-0.026571134391339672,-0.4165017348319602,0.0018677880408578397,0.0337170800685074,0.006936866181873044,1.5
0.0027436095118499445,0.054115031695263445,0.0713587660990146,-0.27966346692738725,-0.023036103810599194,-0.01007049466301399,-0.028305633288191013,0.05304357062579639,-0.217487641250579,0.026229610392453195,0.3925111448137688,-0.0017129161724488522,-0.03275954342984595,-0.006232756303606229,1.5078125
0.007923787393798802,0.145130560108953,0.19145950585153218,-0.7490096101742147,-0.06132549460894681,-0.027076497926091885,-0.07587935056451275,0.1428409880321197,-0.5833156630644971,0.06907616627977752,1.0501628966391239,-0.004621749785696115,-0.08669383874925936,-0.016952743362989235,1.515625
5.63328062643962e-05,0.006836137424024792,0.009209746621043196,-0.035788785504179035,-0.0030341996082320724,-0.0012927334936436053,-0.0036089648647394863,0.0064951795190624235,-0.02860631786454138,0.003951612144799188,0.052981353622918934,-0.00019978592793365473,-0.004651642313504737,-0.0007043465392722121,1.5234375
-0.011935163542407428,-0.20396642825218572,-0.2688497345564974,1.0510769491422935,0.08560176608070752,0.0380383666827491,0.10647952500565888,-0.20139549406974866,0.818631975215827,-0.09527438653760405,-1.4687592388439974,0.00653790626604038,0.12029913576476299,0.024098361506437224,1.53125
-0.015020768042915562,-0.25830192816562075,-0.3406513713611595,1.3310671157440839,0.10828703251098316,0.04816607184861112,0.13479040635990724,-0.25494155300027654,1.0381235860383113,-0.12083740712694657,-1.8622064475029316,0.008271230418458987,0.1524215017712994,0.03050851565026702,1.5390625
-0.009101365114276965,-0.15440389803279475,-0.2035594337219656,0.7953641477641211,0.06455193333776356,0.028752276177615617,0.08052197009295813,-0.15238372617303986,0.6204824601956683,-0.07192258606634978,-1.1127465192035633,0.004948004097874593,0.09076056248402742,0.018287127996106555,1.546875
0.0021902730073604924,0.04399756357040701,0.05843769508593004,-0.22768731600840908,-0.018806212235117904,-0.008281604878998358,-0.02302762884240981,0.04329073346384287,-0.17798181354606854,0.021498414786082214,0.31944683296246185,-0.0013942416095168708,-0.02684912627345899,-0.005057370529266178,1.5546875
0.0142650139037835,0.25636495625996525,0.3387128790286351,-1.3229120911972116,-0.10813766447887349,-0.047877604918736785,-0.13387083773936914,0.2525478593598056,-1.030926033923171,0.12146870377432639,1.850886571903969,-0.008185270423503343,-0.15266971308550997,-0.03001536830626247,1.5625
0.016396742758381124,0.29402280654636703,0.3881318343510646,-1.5170575243803779,-0.12407156604968526,-0.05484787355623061,-0.15350481879062164,0.28951403983855784,-1.18029180464447,0.13912047456623924,2.120514379019598,-0.009392480979075765,-0.17492127393968665,-0.03441156764323387,1.5703125
0.007083156442698738,0.1302601114620121,0.17188834304717945,-0.67249564286924,-0.05519592763626561,-0.02426788852343493,-0.06801249562875711,0.1281493579002339,-0.5220277081848623,0.06198302976601586,0.9389635432734513,-0.004156490075587892,-0.07785311758477903,-0.015162879849982606,1.578125
0.0019378357408233382,0.03960668013713998,0.052521081903539976,-0.20522891231340765,-0.016978965932492342,-0.007386172439973785,-0.020777277866658433,0.03904940782434585,-0.1598677695428282,0.019379795607208178,0.2875336684611885,-0.0012540308415570078,-0.024172812857095462,-0.004556604182782164,1.5859375
0.005713320042767861,0.10601474662709764,0.1403265920962009,-0.5477500041570313,-0.04484219416785073,-0.019812806616675352,-0.05552140624225096,0.10454192630655092,-0.4279091844486905,0.05070322330871027,0.7683046921030198,-0.0033739097915008753,-0.06353067664946654,-0.012391069114176699,1.59375
0.0015074232172942086,0.032363564058924384,0.04283101195786124,-0.16742224280043255,-0.013832324474388915,-0.006056939502975165,-0.016956409561776922,0.03160229479553409,-0.13085836224980957,0.015964380549020395,0.23586720560314975,-0.0010181645183980933,-0.01980678398041315,-0.0036881104963455914,1.6015625
-0.014170982376349998,-0.2431656627912302,-0.321076516287597,1.2538917761826016,0.10207894771611872,0.04538447745928906,0.12710073327696728,-0.24025471979631638,0.9772480774474085,-0.1138256823714126,-1.7533521366419311,0.007791134072388433,0.14352790114917202,0.02875928873851972,1.609375
-0.020298355815992312,-0.3510620231876555,-0.4632694723623239,1.8099990368983148,0.14747932889714357,0.06551268288819774,0.18348453818326244,-0.34648226212577815,1.4099773549090202,-0.16460711191534638,-2.53168617536146,0.011239411678547907,0.20743974707516635,0.041431959181634115,1.6171875
-0.010300426876997282,-0.17539271659122765,-0.23107275177588993,0.9035857580294161,0.07361487801103642,0.032708060163195996,0.09163071563785376,-0.1730775971244414,0.702918842107253,-0.08187679350888954,-1.2635285176164013,0.005620257704855349,0.10330393071166148,0.020723524088472,1.625
-0.0021419883926177513,-0.031959556644794794,-0.041743731969518486,0.1638868099936905,0.013263370179912227,0.005931797072220185,0.01658331526970591,-0.03159244876000014,0.12664116538579157,-0.01433912282410331,-0.22776654816148278,0.001034147068792492,0.018300442114234997,0.003840289626559928,1.6328125
-0.00029779599310094935,0.00032831027593886665,0.000690475645154454,-0.0025108306467788184,-0.0004589446104077183,-9.344313418272818e-05,-0.00035318984767997126,0.00029744229109771205,-0.0019389387003302548,0.0009304425748608041,0.0059517635448736094,4.333088825296615e-06,-0.0008639651295825542,7.369116814608162e-05,1.640625
0.008136719284334716,0.14853950380947373,0.19620811080185813,-0.7669753474768319,-0.06294539535156043,-0.027743000810127476,-0.07772208284307212,0.14642498350382352,-0.5961785416365519,0.07076950187458743,1.0742676557592115,-0.004734132803376961,-0.08872890549901484,-0.017327254210596894,1.6484375
0.016179843032222738,0.2902469891747303,0.3831869670572326,-1.4977104290043406,-0.12247778823503934,-0.05416315825469309,-0.15161419772055623,0.285932044498052,-1.1651325244389095,0.1374026863659048,2.094359893747549,-0.00926731103262713,-0.17266248627512193,-0.03400087969555057,1.65625
0.003724726713221109,0.07162516063892954,0.09453561468458292,-0.36976717796558684,-0.03028546419748034,-0.013349172608811292,-0.0373604804267001,0.07015836381777787,-0.2875665213840334,0.03435019045151456,0.5169710904916344,-0.0022758719086179804,-0.04303329188189183,-0.008316437840213632,1.6640625
-0.017395342230267685,-0.2997982614223252,-0.3957004810007929,1.5459368780463294,0.12601550456185048,0.0559423267650205,0.15658161936050816,-0.29600847575909245,1.2036224139934608,-0.140469539455019,-2.160286942530402,0.009604761556727058,0.17704138015375687,0.035364526686642146,1.671875
-0.013750644807690279,-0.23612675026498695,-0.3114501177474416,1.2169696589796286,0.09902449282097465,0.0440281038841923,0.12324204089116424,-0.23304602735218435,0.9477317103661836,-0.1103279730685665,-1.7003280966382495,0.007567472216293735,0.1391642883935752,0.02790417909879349,1.6796875
0.012206109930975779,0.22001322883601251,0.29087119666539263,-1.1362788362492713,-0.0930711516112505,-0.04109347048162958,-0.11503114502017857,0.21679205035848986,-0.8842194913584249,0.10446857763081265,1.5879708643729706,-0.0070271731564919395,-0.1312606105782833,-0.02573152269957432,1.6875
0.02215151325942619,0.39491544919426874,0.5217973481706126,-2.0383915063164006,-0.16664204439649702,-0.07371542011182923,-0.2063735267154099,0.38928439403532866,-1.5868877698944106,0.186702712932377,2.8483801855201905,-0.012625837654998197,-0.23488411148138202,-0.046329709140767325,1.6953125
0.0041055204392907935,0.07773925307952247,0.1030298791929714,-0.4020091105782009,-0.033064628417224705,-0.014532178058731976,-0.04068175547830482,0.07658737266930203,-0.31334816561904427,0.03728832828914829,0.5618167220903287,-0.0024796148234356354,-0.04680915511222237,-0.00904928130517493,1.703125
-0.010614351510218454,-0.1809911345587588,-0.2386106497229331,0.9327867560179262,0.07587168694764895,0.033735034280145536,0.09449597672103976,-0.1785778828425834,0.7258841825815511,-0.08449323623714074,-1.303160699978529,0.005800358182502211,0.10659141845141025,0.02140133379690867,1.7109375
-0.002491565746503501,-0.038159434878646016,-0.05020727827851581,0.19615100413569436,0.015766590935174078,0.007091271945283867,0.01990852644543654,-0.03784481996814967,0.15280332499283777,-0.017182539454535385,-0.27283049320025005,0.0012357972904573642,0.02194332477416074,0.004641779008618995,1.71875
0.007132462400654344,0.1310205746001546,0.17289831897011945,-0.6761829313167756,-0.05542140803310214,-0.02446008384182904,-0.06846153838180448,0.12896493400813994,-0.5261988461364037,0.06246791789362613,0.9478477933909005,-0.004171651163041486,-0.07830850499765687,-0.015242979052700426,1.7265625
-0.00073999191423164,-0.007341234625155959,-0.009860128208791286,0.03788060697561831,0.002862873680633237,0.0013591064387350872,0.003853489918762744,-0.007445678565452516,0.029478705155110446,-0.0027502980035212315,-0.04989634595519079,0.0002552984982060817,0.0037650656018343256,0.0010133773918766383,1.734375
-0.010404144728698602,-0.17706042070914826,-0.23372085882218258,0.9131622847637809,0.07436446703607925,0.03303354647411218,0.09259108233680549,-0.17489034618532312,0.7109041266158099,-0.08274382973917298,-1.2757956801341526,0.005679136730090039,0.10442097778807605,0.02095147758682017,1.7421875
-0.005734686732797195,-0.09477223217414524,-0.12488270985084376,0.48818523964914523,0.03976775253720901,0.017712475984014528,0.04963641470944515,-0.09387615585417172,0.38053744536402656,-0.04403049105465485,-0.6844793549726885,0.0030417814290851597,0.05565826098329085,0.011259498528199562,1.75
-5.884078325264935e-05,0.005055985625722117,0.006814064408717515,-0.026855821992359887,-0.00227460324303795,-0.0008903630098720546,-0.0025811241874122573,0.004554943643863137,-0.0200552118095725,0.003014162088446915,0.035926404916642604,-0.00014911342740610875,-0.0035380650483472394,-0.0004837628501260354,1.7578125
-0.005863542087211542,-0.09713277332258717,-0.12820449424980523,0.5004242345439801,0.040653191089641966,0.018146860790900467,0.05068448191970469,-0.09607985838414577,0.39026162796515096,-0.045024371897450385,-0.6990090921323847,0.0031239479947597075,0.05698032584549811,0.011534977084300655,1.765625
-0.009630116843867102,-0.1636107881516853,-0.21573815489775633,0.8430018102018132,0.06852174578648677,0.030494379660725098,0.08531872118788472,-0.16143882944971805,0.656638548545029,-0.07626686468574319,-1.1776544034766818,0.005247287335856967,0.09629969899691504,0.019344936311769204,1.7734375
-0.0014258922841219085,-0.01958437480318186,-0.02533721172730768,0.09958150073596858,0.007829233440068768,0.003598881399177531,0.0100543416676212,-0.019290966899775372,0.07775999868424388,-0.008433615258528301,-0.1392647407226202,0.0006348213430138125,0.010858789577325193,0.002398755311175763,1.78125
0.005324021295783759,0.0991223108614291,0.13128747921835007,-0.5125103032845978,-0.04210978995677904,-0.018539097753886423,-0.05192699936607955,0.09770536999782686,-0.3990502631869147,0.04745756909795215,0.7172585020870739,-0.003160725450623482,-0.05950477815806304,-0.011550255559697402,1.7890625
0.002866537978172908,0.056098843307575905,0.07440074792783297,-0.2901652855725247,-0.023943494810027825,-0.010513532582695304,-0.029454924392119018,0.05514967427910154,-0.2265259076577795,0.027212381886130933,0.40779753551320186,-0.0017814734021131015,-0.033978171592999616,-0.006474590584757898,1.796875
0.001679339443623801,0.035228554516451675,0.04709058331514588,-0.1829069972430021,-0.015166820461352285,-0.00663466233828491,-0.018611302214658666,0.03458006539233407,-0.14316992025285172,0.017414130823261095,0.2570405517287913,-0.0011173862944516065,-0.021635598779824367,-0.00402680513322187,1.8046875
0.003885237467529208,0.07385065275113856,0.09811790093158147,-0.38251817538527666,-0.03144160855476227,-0.013827899048049952,-0.03873877427108149,0.07272163069724072,-0.298103342686722,0.03560134005016295,0.5347394331730051,-0.002354350496044483,-0.04457650489619476,-0.008576681044373721,1.8125
0.001789696333284965,0.03700837072765992,0.04889648341770957,-0.19153636973569815,-0.015864346310581656,-0.006913053655726814,-0.01925719873621141,0.03626851838136682,-0.1492025758357202,0.018206612056164397,0.268959011344026,-0.0011664601608923362,-0.022715750618691896,-0.004217278930754406,1.8203125
0.001274778636099085,0.028111939212068594,0.036627311920299235,-0.14437955037501718,-0.012045474698837395,-0.005229758085343925,-0.014436855949882709,0.02734699474022516,-0.11266511535935961,0.013959582402077229,0.20507112469678532,-0.0008730390716197612,-0.017360385118103908,-0.003139717024564676,1.828125
0.008511850934554883,0.15537412280363058,0.20485920054576295,-0.8011527382039858,-0.06565597962969004,-0.028979660569298304,-0.08102698653667209,0.15293302663569824,-0.6234807140393649,0.07385264666255666,1.1221964490986434,-0.004949296506259278,-0.0927408009144746,-0.0181215710169738,1.8359375
0.008427504515596086,0.15379919996722347,0.20325796144612138,-0.7944230215609831,-0.06506900954422637,-0.02868924670757188,-0.08039616357536494,0.15152536713171952,-0.6170329217494446,0.07310768367166966,1.109647232464834,-0.00490997939084137,-0.09181518704612827,-0.017972412489816028,1.84375
-0.0055101523788503096,-0.09122837096875458,-0.12021194461040466,0.4690360043228714,0.0380775428657997,0.017028638675488577,0.04759545130458927,-0.09019252549915074,0.3669394649580946,-0.04225048524670026,-0.6576066857198126,0.0029265885521877768,0.053386097005211346,0.010846626837667215,1.8515625
-0.009312159352886394,-0.15798909256028515,-0.20854449280998844,0.8140155056840209,0.0661958602888363,0.02946324296452975,0.08252351843574078,-0.15616731354566085,0.6344038925927404,-0.07365750631670051,-1.138255834553927,0.005067036550583755,0.09292935094689059,0.018719679068584582,1.859375
0.006143724701769393,0.11375480285200058,0.15035248459912073,-0.5875038721720969,-0.04822636133766328,-0.021268506252174742,-0.059522145564915474,0.11190705936111763,-0.45781476415963723,0.054302854097003375,0.8217829328742188,-0.003626019516093089,-0.06813571370062967,-0.013259611446889082,1.8671875
0.009873703261176333,0.1793278672421932,0.23722654781549365,-0.9262081152964582,-0.07580898308555878,-0.033497497134661665,-0.09387870730279871,0.17675814116591737,-0.721515280729964,0.08515339527223707,1.294304405346732,-0.005727604746495117,-0.1069542228878132,-0.021015782903434265,1.875
-0.012004917944730895,-0.20529141594322728,-0.2705004764820812,1.0576668245781502,0.08618662986655545,0.038298061650219754,0.10710237637108945,-0.202508768295207,0.823384364598344,-0.09595687187962455,-1.4790935962702159,0.006576212388024667,0.12107655378889427,0.024222584353661637,1.8828125
-0.02443654272314658,-0.4238428905637544,-0.5591834131980815,2.185571909058242,0.17820631155762426,0.07908645945456767,0.22137624685742632,-0.41812108495057526,1.7014832704110046,-0.19884193248842047,-3.0541743589379307,0.0135706166898558,0.2506555343543131,0.04997990610594239,1.890625
-0.004882372310394088,-0.08000270793186699,-0.10537957528487502,0.412492115600242,0.03343542581080927,0.014919035610589436,0.04178791668168506,-0.07915257256487139,0.32086440823851675,-0.03695949893310952,-0.5746159016687398,0.002572769949644659,0.046902489699367216,0.00957749151397175,1.8984375
0.01578347050380323,0.2835046035809532,0.37437281776099157,-1.4623500434402754,-0.11949226954811976,-0.05289905166060262,-0.14803863296081654,0.27914639550229303,-1.1387713040722487,0.13412384804104827,2.045391050282098,-0.009054066228752702,-0.16848562713125664,-0.033179370188284006,1.90625
0.00715549139120286,0.13192797515471227,0.1740942722672232,-0.6803660016674681,-0.05554179458885165,-0.024595268918043218,-0.06872750455440137,0.1295353350696462,-0.5296590812901403,0.0627122349353447,0.95147332726958,-0.004201679587051394,-0.07861518896492216,-0.015363257229774942,1.9140625
-0.014269456659558241,-0.24487861654112997,-0.3233581015945745,1.263237296308314,0.10301477915551713,0.04569848641276641,0.12810887077712482,-0.24192728660437451,0.9839690129360001,-0.11465493881381605,-1.7650303679526331,0.007853036006277592,0.1446639671348119,0.0289481852248428,1.921875
-0.019323439727975414,-0.33397896817809936,-0.4407490904500256,1.7223699527517538,0.14028007841232232,0.06227272421829839,0.1744584379136001,-0.32946942980232147,1.3414527123384756,-0.15651484888716122,-2.406157915367549,0.010699068800029899,0.19735110119009072,0.03940543464233882,1.9296875
-0.006362098158198982,-0.10633599479532915,-0.13994726348349154,0.5473613657913203,0.044282347825033416,0.01976619361233853,0.055347999287691886,-0.10474250033999467,0.42597501979059554,-0.049236689834202735,-0.7633892301339789,0.0034127219149487635,0.06224422649971711,0.01259795196090524,1.9375
0.010054370538691236,0.18201591225498878,0.24083569462166918,-0.9407612524516505,-0.07717576560495114,-0.034023018216731885,-0.09535749500046997,0.17964758149496687,-0.7329869309655318,0.08664285125452582,1.3167395062063751,-0.005812038990668133,-0.10891187587686671,-0.0213301277867534,1.9453125
0.019287776944149727,0.34416923337113503,0.4548518543490983,-1.7776357964606089,-0.14553641385032362,-0.06425695343387192,-0.18008937426062827,0.3394700025172473,-1.383650201746249,0.16307190327243953,2.4856198606342277,-0.01099975288304716,-0.2052240542532772,-0.040392687314159834,1.953125
0.01606470015241576,0.2876384919549194,0.3801371017883931,-1.4860418438328762,-0.12175674731862086,-0.05370341464824105,-0.150547296085613,0.28361324348409755,-1.155550395117465,0.13640855009867758,2.076211316044162,-0.009194082885712341,-0.17169464601559503,-0.03373577355569995,1.9609375
0.004254356274433158,0.08028789399630845,0.10631792534976874,-0.41595108802175906,-0.03425405145145984,-0.015002014923408552,-0.042112269905206105,0.07905761069235191,-0.3228228153107642,0.038627696298438347,0.5798492595216621,-0.0025610425267773916,-0.04855848907691484,-0.00934778912920293,1.96875
-0.00291226007359958,-0.04557943072400844,-0.06008097166299511,0.23427106181742846,0.01901054800294886,0.00851573710214813,0.023824455769347812,-0.0451177779065795,0.18215665373553688,-0.02077349728419445,-0.32704237633949035,0.0014722757008576845,0.026296963984786655,0.005461763250848714,1.9765625
-8.014012873584729e-05,0.004314090405750698,0.005389400050223562,-0.022030915105639395,-0.001875979622950418,-0.0007677061403239553,-0.0021094510059256368,0.003965357347358362,-0.01778257137429286,0.0026329123797203253,0.03357032242446508,-0.00011478812091569071,-0.0030861439562499173,-0.00039001201705078523,1.984375
0.004022180508245911,0.07673586618714232,0.10082421313625838,-0.3950350968474187,-0.03233400504856499,-0.014283282320309546,-0.03990678337945531,0.07519547917974359,-0.3079106565338677,0.03666311041181982,0.5549127481623412,-0.0024292321276135,-0.04581410950266187,-0.008885425792121272,1.9921875
0.003861605222542974,0.07413507163548416,0.09768870824060015,-0.38193601635868324,-0.031192119327457267,-0.013820706028850976,-0.03856505411637025,0.0725300529466872,-0.29784758876537193,0.03541566446249973,0.5346866966460525,-0.002351944137739263,-0.044145038513507935,-0.008558800254598313,2.0
0.0022772493640625694,0.0461485044606668,0.0610860992677955,-0.23828685996828045,-0.019471581114425995,-0.008626567392834692,-0.02397601254377217,0.04496876642094101,-0.18595970354361416,0.022311261522730844,0.3324908729816899,-0.0014629749129306845,-0.027677644099102523,-0.00525877549412407,2.0078125
-0.0016294720023684098,-0.02274713584129138,-0.029877900841576606,0.11688884235326463,0.009325128084139296,0.004203711827561455,0.011974363049651104,-0.022898146723115843,0.09149456159327246,-0.010018031021265496,-0.16378410981430697,0.0007401242853112887,0.012897269481885498,0.002835693833560818,2.015625
-0.007888356079744759,-0.13284905895854715,-0.17517191337485824,0.6849708897470365,0.05556280904330125,0.02473419782575972,0.06940828389026195,-0.13132326208258652,0.5340430174319689,-0.06180575054957345,-0.9566588830535239,0.0042622906786073216,0.07806831255379885,0.01576811340311223,2.0234375
-0.0075158470964979815,-0.1264481897130258,-0.16615970177251446,0.6513915610177182,0.05296306956643041,0.023544365585110655,0.06592839882839117,-0.12470476614716126,0.5064551095340813,-0.05879148952992948,-0.9091514392667757,0.004051594297454099,0.07437922079441016,0.01500127995933235,2.03125
-0.0030271593388263704,-0.04769778966103361,-0.061712062707799754,0.24407330300969585,0.01988795847130901,0.008875764966421291,0.02470276951667851,-0.046859495366030963,0.18869246907266818,-0.02172423138083418,-0.3416613723687382,0.0015236152404870175,0.027759857770081012,0.005738040703895114,2.0390625
-0.015977146241861213,-0.2750554745507737,-0.36217423829620365,1.4168634829234925,0.11549441498210608,0.05134350291573941,0.1435438304048932,-0.27131493854383604,1.1042381956593272,-0.12880464031020603,-1.9844781035795258,0.008794739191521921,0.16249731066856302,0.032497744971049895,2.046875
-0.04424574663973433,-0.7714748124939942,-1.0182551451260091,3.97903108626667,0.32433120912107344,0.1440055633409907,0.40300401693466653,-0.7612377819171796,3.1018879710716103,-0.3625579724124286,-5.566662674135648,0.02468333532282756,0.4567420152124687,0.09090577524328307,2.0546875
-0.045326561985035686,-0.7906246216510318,-1.0439371935411574,4.078845710457764,0.3323564624684956,0.1475552307697001,0.41301808899204884,-0.7800861686558077,3.1787885969896412,-0.3714940261277329,-5.7018573366167775,0.025309324567555226,0.4679813963932435,0.09313978810627567,2.0625
6.388069983853785e-05,0.006452471493194361,0.008151740215201137,-0.03342459457172277,-0.003194673852882431,-0.001244130432530046,-0.0034664623078587225,0.006296653912922657,-0.026098361403462375,0.003950933747992806,0.05159024342799107,-0.00017765376500109586,-0.004845346124105674,-0.0006757582247463762,2.0703125
0.04886130573176855,0.8637421979068933,1.1396549422533377,-4.45684612181969,-0.36412224924844167,-0.16124696429648339,-0.45137129882113625,0.8518458628424976,-3.4714637553366186,0.4076605731109854,6.235891528963029,-0.027598089012753093,-0.5133380814995077,-0.10156963297197676,2.078125
0.059759291275798807,1.0554695833917809,1.392888800266468,-5.446290201780887,-0.4447896312836984,-0.1969977898519441,-0.5515748110284636,1.040866513074905,-4.241550656544483,0.4978876237466305,7.617875781036375,-0.033735420643424587,-0.6269402997442092,-0.12413396172565698,2.0859375
0.046720373409501116,0.8263939083154421,1.0912933756041143,-4.264627949661485,-0.3481709113869054,-0.15423091808044537,-0.4319992501899314,0.8151353768701357,-3.322655267058692,0.3900107112939861,5.967186953515751,-0.026414492755198797,-0.4908452525913797,-0.09716673204639864,2.09375
0.030733004738680462,0.5453257106512558,0.7209708754614921,-2.814769283140302,-0.22966381041582826,-0.1017980065287351,-0.28514873991047446,0.5381621133770894,-2.1953735710730897,0.2576789824744941,3.941342579158668,-0.017428812806355075,-0.32397051536111204,-0.06406320607389619,2.1015625
0.0009953254249942885,0.023047950188443748,0.03128807122478511,-0.12018628507112797,-0.009768830051452548,-0.004336822742819861,-0.012030859618689988,0.022757147483615025,-0.09571639594889082,0.011628636271657047,0.1697034322964482,-0.000727098477066235,-0.014174280111508362,-0.0025658984116558553,2.109375
-0.036358992315255925,-0.6327109350320148,-0.8351412284607198,3.263431504684593,0.2662072310931266,0.11806984961138671,0.3308565806095486,-0.6246947159817965,2.542569698927799,-0.2974104027331963,-4.568310725740309,0.020242923954587263,0.3747422176210748,0.07462530003516289,2.1171875
-0.041475359900859,-0.7223390634848496,-0.9538309389600826,3.7263605246327605,0.30389044411833677,0.1348089937210286,0.3777268143836332,-0.7134443851119014,2.904220339804564,-0.33977823883298763,-5.217973652842389,0.023106743728073097,0.4279358151052353,0.08517274238316319,2.125
-0.01104178273841989,-0.18780968591099492,-0.24809141303278318,0.9690308060807572,0.07885925924923712,0.0350323158519713,0.09832358697835096,-0.18600904992310244,0.7556959814749643,-0.0880277866873459,-1.3589883201678423,0.006012497980008674,0.11096602642223038,0.022263216424618183,2.1328125
0.0057331454261794505,0.1066725374375485,0.14079224458495032,-0.5501921328099386,-0.04518486304511475,-0.019932244343058483,-0.05565686910043904,0.10482258624270822,-0.42766691142870844,0.05079316451946707,0.7689823057368093,-0.0034008549877977048,-0.06370191930224722,-0.012396793095610294,2.140625
-0.010385968750309442,-0.1766977493603364,-0.233133016751358,0.9111962875436351,0.07398594584776222,0.03297144954997755,0.09226395526431141,-0.17444068566936763,0.7115651182809415,-0.08250466201453896,-1.2738184537206554,0.005664782029302821,0.10425211058832438,0.020933434772651912,2.1484375
-0.02300646052985599,-0.39860283296433224,-0.5257587984955635,2.055283942528402,0.16739478429581858,0.07438753546752962,0.20804692032187752,-0.3931828327395606,1.6024639537591123,-0.18690498182462176,-2.8733375471841236,0.012760642339204301,0.2357433201752725,0.047025214605383496,2.15625
-0.013096722340370355,-0.22456196264034814,-0.2958183036918628,1.15738765836565,0.09426322574325258,0.04188859104689229,0.11708943044394161,-0.22149430406132234,0.9016375299374952,-0.10491994840239495,-1.615943928975497,0.00719403646747828,0.13249105633108527,0.026546269252455873,2.1640625
-0.0025958375739566857,-0.03997227639846845,-0.0522525275914162,0.20565806436148085,0.016661178217711015,0.007444454838903474,0.020756161108014745,-0.03951222844153389,0.15955073974079081,-0.0179962911636012,-0.2834985294972355,0.0012935493478041817,0.023023095900888007,0.004844991547745388,2.171875
0.0010730189174757304,0.02450786151091944,0.03280795938588864,-0.12702693962932166,-0.010510830713596755,-0.004556130489974678,-0.012934060752049987,0.024089975234540914,-0.09952609712004244,0.012430011421320426,0.1817846886475902,-0.0007654856568023788,-0.01527114818607671,-0.002747548427357434,2.1796875
0.011502191294352105,0.20761884070637762,0.2746090418491044,-1.0723515327075808,-0.08766347454082887,-0.038712998560993445,-0.10872951222356732,0.20482476331275307,-0.8360485199498255,0.09873704224073877,1.5032026224964474,-0.006621204124918368,-0.12395635402517172,-0.024330324730192435,2.1875
0.018283000221951624,0.3267519777881971,0.43158501600276944,-1.686910818096324,-0.1378534903338889,-0.06096681781649758,-0.1708913965244236,0.3222532811220003,-1.3149052945377697,0.1547652504741943,2.3616770730250334,-0.010431732011926119,-0.19465988408155332,-0.03836591417483618,2.1953125
0.0026131097554556197,0.05155130477404379,0.06766175601579177,-0.2663859870632924,-0.02207146235541649,-0.009646708603562166,-0.026791763334139435,0.05051964582826981,-0.2079502741079432,0.024982516092906748,0.3731875543288322,-0.0016307225814137826,-0.031503110798967504,-0.005972007667767426,2.203125
-0.014982964065215454,-0.2577058141636356,-0.3406914263385845,1.3290126207479775,0.10801723829899229,0.048032830260846496,0.13488435747423105,-0.25451872115239416,1.035182336589512,-0.12070835147717734,-1.8597317780828515,0.008257450418939959,0.15184278488262162,0.030410918583859955,2.2109375
-0.002659746393741933,-0.04138862165160374,-0.05449041608390443,0.2120422520445116,0.016946829884010174,0.007655105799048505,0.02159522415771946,-0.0408133479104135,0.1652743936420275,-0.018737924570466278,-0.29785742020043526,0.001334767159132574,0.02366482640081614,0.004939250974786478,2.21875
0.02626299134890076,0.4669725062090761,0.6170133339995476,-2.410851076950927,-0.19695458835165974,-0.08718661051341556,-0.24420575306839243,0.46066031407452385,-1.877016009515862,0.22068214292422894,3.370511538541912,-0.01492654386426371,-0.27749474881559133,-0.05484820865838298,2.2265625
0.035673360699953034,0.6327912781864741,0.8355501038355346,-3.2654946845332913,-0.2666844229163927,-0.11810361657206539,-0.33071156725233025,0.6238099972151858,-2.541667839205525,0.2986430413837381,4.564849099844385,-0.0202293290867358,-0.3756120248383195,-0.07430442051330285,2.234375
0.02175329883234665,0.38833931348101736,0.512406414314973,-2.003924746665925,-0.16378015598468335,-0.07250444966572478,-0.20283699100849786,0.3824648146435757,-1.5593794608869163,0.18344594212389337,2.799765460672445,-0.012409304405535922,-0.23075577004853137,-0.045544442026616824,2.2421875
0.004594714141265501,0.08656551106224171,0.11414720912564383,-0.44736843610928495,-0.036704063715170314,-0.01622578639577611,-0.045187734225178834,0.08500025178823964,-0.34863873875089685,0.04138541122188886,0.6241779502530951,-0.0027562984360234213,-0.05199065829280643,-0.010077772965941513,2.25
-0.009637703442531505,-0.1636485983968484,-0.2157916698089709,0.8436005439917078,0.06875203212711571,0.030486908817997548,0.08554415702633249,-0.16167789383443756,0.6560283066658467,-0.07638492816392572,-1.1786976583326756,0.005247707158272668,0.09642875014595588,0.01937976210723901,2.2578125
-0.024620519369284617,-0.426763560172644,-0.5629146865634478,2.2016784087552783,0.1795890340607001,0.07965653019817676,0.22308262756316619,-0.4212916498732306,1.7143362178871724,-0.20026345416859226,-3.075907734624401,0.01366448741653998,0.25260541841574974,0.05039717257204283,2.265625
-0.033832734202587526,-0.5886210633938874,-0.7764585585224046,3.036813475334764,0.24765356694451135,0.10989755156877981,0.3075546040199252,-0.5808389576790364,2.3652226073176217,-0.27642098980285884,-4.242628683197911,0.01884152440357115,0.34855697580302897,0.06944536524638835,2.2734375
-0.030331198596443593,-0.5273097098425884,-0.6954346053840359,2.71987447925835,0.22171123706251755,0.0984327083846395,0.2752957976950583,-0.520098401728062,2.118151206420178,-0.24747109956145172,-3.799215502732138,0.01687870832978883,0.3120239448487638,0.06218650589066972,2.28125
-0.02093194043760386,-0.3622311913995375,-0.477618980230427,1.8677648685054322,0.15214901506600909,0.06760142269927265,0.18899014273530038,-0.35728426329287605,1.4545737863636323,-0.16973215009333437,-2.60912405117338,0.011596498004166917,0.2140229996377851,0.042747009443819844,2.2890625
-0.013968650608819867,-0.2397338023599425,-0.3161902773052878,1.2358010972811118,0.10057364927427292,0.04474784097766348,0.12512989199353786,-0.23669785636124002,0.9630518543275788,-0.11211528197163279,-1.7280356421484848,0.007678042384607873,0.14137026340040248,0.02833657784886309,2.296875
-0.004911756294691584,-0.08051681333939166,-0.10623151591359335,0.41440980894071755,0.03352689571815883,0.015038770063919949,0.04203709800854002,-0.07970422751538109,0.323917424446953,-0.03720283341839759,-0.5813724549712896,0.002586269114552642,0.046959883609472335,0.009576867298263679,2.3046875
0.013361294956645443,0.24047042275329783,0.3174950773561736,-1.2416823638906924,-0.10164486286821171,-0.04488388706611077,-0.12569087783301494,0.23702819933947575,-0.9656989990986408,0.11393605072980494,1.7338487858263754,-0.00768100601548695,-0.14336287006417273,-0.028210166319635598,2.3125
0.032929276131152756,0.5842442565712009,0.7714204379389012,-3.01519153443245,-0.24634678972452553,-0.10905047560388147,-0.3052933965677046,0.5760994989014486,-2.3471126642137823,0.2758479382575913,4.213967001071122,-0.018676864347653796,-0.34716104654545415,-0.06863097119444087,2.3203125
0.0353867778643708,0.6275317767765811,0.828466457285645,-3.2382170691873298,-0.26442631241238607,-0.11711219726845704,-0.32779878905996,0.6186124154052279,-2.5213479283416924,0.2962339631047941,4.5264812857827845,-0.02005718654497703,-0.37276753972975263,-0.07369499835009917,2.328125
0.01546948068424949,0.2777149607262698,0.3662702847551033,-1.4330741607638793,-0.11700218107213436,-0.051821640830332576,-0.14489218193023798,0.273399365350489,-1.1160692156112917,0.13142055648194287,2.0034941189997,-0.00886203865382771,-0.16528812219625,-0.03254242500152139,2.3359375
-0.008235322937285527,-0.13881829257678388,-0.18374761750912944,0.7159816287320295,0.05832266028710046,0.025876972947166725,0.07275169743379879,-0.13744254535749076,0.5573478695597319,-0.064791204465745,-1.0002933258568192,0.004460649356541711,0.0817116308358681,0.016455293953172367,2.34375
-0.013124488955661737,-0.2249514174251976,-0.2968790446281369,1.1598819287339643,0.09436992627225282,0.04190179728733102,0.11754969889584398,-0.22211602510975695,0.902740871314983,-0.10523966630544568,-1.619773279631101,0.007209093460746215,0.13272797615225063,0.026583242003827102,2.3515625
0.0006116643990783254,0.016183916839781067,0.02210197141140221,-0.08473023020674804,-0.007291797081937811,-0.0031127106928438633,-0.008716977958344033,0.016131757205237716,-0.06715771771098095,0.008508953617232778,0.12204603186085164,-0.0005056740839765653,-0.010320588583770496,-0.001812248574323673,2.359375
0.01132707093989945,0.20443844502689992,0.2704401799432126,-1.0558416424590276,-0.08648518357814303,-0.038217758774931485,-0.10713012667059346,0.2019367013067339,-0.8235964554881652,0.09719740448921818,1.480998849973147,-0.006520757659475269,-0.12192997155259348,-0.02397220219153666,2.3671875
0.0036645418542032566,0.06988648514709751,0.09220891107956232,-0.36119859587991043,-0.029738732516077417,-0.013069124323789693,-0.03665014276026442,0.0689717998095315,-0.28175943913600204,0.03372417044464041,0.5089583942064789,-0.0022133039686266236,-0.04210461119189115,-0.008103486111058772,2.375
-0.012979820271419529,-0.22250606498910366,-0.2937577887400708,1.1471661155181037,0.09334762652884383,0.04153046066693049,0.11622574165526067,-0.2196673911204445,0.8939843502032685,-0.10401519300949845,-1.6025679014204108,0.00713297179060019,0.13122272099766247,0.026329739109176277,2.3828125
-0.018264516405886406,-0.31525833787018703,-0.4156685757715507,1.6251848743876263,0.13238447965352132,0.0588612805665869,0.16462159482304156,-0.31116655990872116,1.2664685319498479,-0.14766380887159902,-2.273067342998635,0.010091917827048675,0.18615277859539228,0.03721698535541928,2.390625
-0.009179211678022816,-0.15548203580493125,-0.20459845624709133,0.800940060189547,0.06521030466234487,0.029036908016826513,0.08111305068474152,-0.15353851946736854,0.6241243101269338,-0.07246532248997303,-1.1208657181436545,0.004980104494300316,0.09146650751459312,0.018389234069094113,2.3984375
-0.00338215933077176,-0.05363261198244022,-0.07037113477784339,0.2758748793904241,0.022398857858088487,0.009995203982512949,0.027961740117444556,-0.05310060840700775,0.21503613550352188,-0.024591469478034138,-0.38619047791316713,0.0017233388633428502,0.031178487319624228,0.0064236837140842235,2.40625
-0.009771183125288834,-0.16599268802496278,-0.21871618526236852,0.8554793251734505,0.06963770351977451,0.03094100736454952,0.08667614502525303,-0.16395342505260468,0.6667696241709994,-0.07750391438068434,-1.1971491971863002,0.005315226979877912,0.09779775960499973,0.019666675883271877,2.4140625
-0.01245289183189069,-0.21299002235397807,-0.28071443561475257,1.0978858344767994,0.08936268528858543,0.039730423673730045,0.1112268806171143,-0.21043632568194007,0.855781461746106,-0.09959216285723001,-1.537164658553511,0.00681810951096262,0.12560548677527672,0.02519673160905865,2.421875
0.0010949593467937146,0.025358639944750672,0.03363635354710735,-0.1310350886931949,-0.010898793873017041,-0.004714148212604956,-0.013173391774885747,0.02439779264470932,-0.10171994352741603,0.012618348900794944,0.18172359722704534,-0.0008000267777962576,-0.01568283317691584,-0.0028314232798749422,2.4296875
0.015514127088537649,0.27880863618483775,0.3678712423011562,-1.4377850044272769,-0.11748059937123807,-0.05199851091311476,-0.1454408329915953,0.2742437624143147,-1.1199619936333958,0.1319139708402318,2.01084560731798,-0.008900092721699443,-0.16586468630129944,-0.03262364004167273,2.4375
0.014064792753204257,0.2531674102272847,0.33395795280830726,-1.3056487123599883,-0.10671524966002141,-0.04722295823765961,-0.1320733916888787,0.24906451088808193,-1.0167081437876833,0.11985542134394642,1.8267043807953305,-0.008077464696829925,-0.1506507611359608,-0.02961745271887082,2.4453125
0.007371211220743623,0.13536035762820958,0.17843202828989047,-0.6985995875574705,-0.05729157575200087,-0.025258325070585796,-0.07066630439022434,0.13307692764513804,-0.5428876392141011,0.0644295605213392,0.9767323284758834,-0.004310126852216292,-0.08088001840165276,-0.015797226482799936,2.453125
0.008579460662404908,0.15636898223341994,0.206176313037257,-0.8075581419366004,-0.06628282777649915,-0.029209779163962443,-0.08173103069004527,0.1540615770412686,-0.6273960725438288,0.0743455961344417,1.128895253933872,-0.004984905706368679,-0.09339802427218277,-0.018286930968661505,2.4609375
0.0070704969908784564,0.1295141784869896,0.1711111533504445,-0.6696500491181318,-0.05499584664412096,-0.024227399901115866,-0.06776893347271809,0.12796147041346068,-0.5207597622029337,0.06174375582594737,0.9377004496231904,-0.004130809565481651,-0.07748347197596439,-0.015127426943330495,2.46875
-0.005135968079173498,-0.0851624818339026,-0.11170338605475198,0.4371702934843742,0.03542775519971684,0.01583522615904502,0.04426105182187965,-0.08347873825391137,0.34053754942817727,-0.0392423694770029,-0.6088333022272333,0.0027327159772689196,0.0497912917794331,0.010115444979156795,2.4765625
-0.013437394876623763,-0.23085494900867817,-0.3038860277083641,1.188801374968511,0.09678321326303198,0.04304918789994689,0.1202754702930925,-0.22723714803206999,0.9258132782269136,-0.10776439268335422,-1.6602307249757562,0.007395061986338921,0.1361304793040004,0.027240297944621225,2.484375
-0.01149572130577793,-0.19644225838254392,-0.2587311134616638,1.0120081496090099,0.08233347862499651,0.036640903641413106,0.10233757056434373,-0.19359155416724783,0.7876573023114447,-0.09159446530407672,-1.413361832204023,0.006297666624499769,0.11569403218332702,0.023193373518317482,2.4921875
-0.013648663722013794,-0.23410959504667006,-0.30867376035562016,1.2069815373028625,0.0983412724821262,0.04366457560380621,0.12219676072855264,-0.23103900033002145,0.9383542457809549,-0.10946364681269265,-1.685689304472824,0.007502734611832505,0.13806469260586773,0.02763510094598112,2.5
-0.018531027737683906,-0.3197790891538644,-0.42198244089595693,1.6494045465762728,0.1345899937968089,0.05965144321213528,0.16718045087083555,-0.31583418645587535,1.2823179114404024,-0.1499209225981088,-2.304242203928677,0.010244707528589064,0.188940873391621,0.037733102903307614,2.5078125
-0.006154379022561086,-0.10219534595128946,-0.13517609990797533,0.5275184163750893,0.042997916806447045,0.019051913182350912,0.053628507765070554,-0.10146527769905092,0.4092539914413602,-0.0474893189139084,-0.7356406435787964,0.003290747607905262,0.05995505419867648,0.012162888770858577,2.515625
0.017747815148723544,0.3177670746607626,0.4190123843056047,-1.6388469782325503,-0.1339843488295866,-0.05932739431630695,-0.16587985244490452,0.3128020299481086,-1.2768256782794867,0.15030943827792548,2.2934671951794448,-0.010140749887216728,-0.18911731996599124,-0.03724276843541254,2.5234375
0.02574406580512603,0.4581993611418567,0.6047775623622219,-2.3640241924724443,-0.1932571978767253,-0.08554011407940275,-0.2394735687817875,0.4515531012750216,-1.8408954777467632,0.21649815158126595,3.306823498345394,-0.014639248837537092,-0.2724413657098373,-0.05379302775301023,2.53125
0.018912036696259966,0.3381981303485684,0.44681763857885826,-1.745557872955193,-0.1427456332680968,-0.06312678027931963,-0.17686305193381238,0.3332537292904985,-1.3587452265562485,0.16004280082935904,2.4410610003636313,-0.010806534489895244,-0.2012593710765763,-0.039671203418801294,2.5390625
0.01880867821226461,0.33634096684157055,0.4444047324999094,-1.7358824173728442,-0.14197076640002648,-0.06275952394800655,-0.1757883777082565,0.33134977155425255,-1.350557937344975,0.15918504972481118,2.426898019263485,-0.010747942379745004,-0.20011617740317458,-0.03940490906736678,2.546875
0.017823749858056917,0.3187297057344025,0.4211466278305587,-1.6453436559765586,-0.1346683580857984,-0.059484676430710544,-0.16654861105414515,0.3141478009663354,-1.2793303810505963,0.15085285262737988,2.299120042629773,-0.01018919633781462,-0.1897129439302708,-0.03733119223980074,2.5546875
-0.0049587119848221615,-0.08179802643584624,-0.10732511826841801,0.4198393669908822,0.033881595034999566,0.015236218556657419,0.04257309152262974,-0.08057791587130375,0.32932263941270823,-0.037806572236511245,-0.59036937601144,0.0026138775187660884,0.04773372923113711,0.009721598452883475,2.5625
-0.0334880801849505,-0.5828615370556083,-0.7686750592478522,3.0046402546486783,0.24497056639893106,0.1087466880765882,0.30429443822716395,-0.5747711449941306,2.3417235932752556,-0.2737714185372404,-4.204314174606089,0.01864251294822908,0.3449420801013388,0.06864250577390626,2.5703125
-0.03700432996271148,-0.6442621662756058,-0.8500563300347664,3.3228799781274874,0.2710878425933423,0.12023225271223513,0.3365532927734255,-0.6356259602303337,2.588260804283116,-0.3027050730986253,-4.646446301074024,0.020618262555381902,0.381572384750649,0.07592796360928844,2.578125
-0.02229837768700915,-0.3857852760224835,-0.5091238848901455,1.9903962281597092,0.16240980504001346,0.07201519668621681,0.20170612610595412,-0.3808343374327928,1.5496936899305798,-0.18106046043393845,-2.7821820310348806,0.01235551560661822,0.22842837657017998,0.045563803506120854,2.5859375
-0.013194185272753933,-0.22599332697622418,-0.29817218646603744,1.1653429491363352,0.09505605237935391,0.04219362391960971,0.11819677287837055,-0.22311973388773665,0.907254146993856,-0.1058500994583331,-1.6304373951721933,0.007239397180596059,0.13356527892412193,0.026727336131504124,2.59375
-0.005443918527859135,-0.089935090006528,-0.11870689607891936,0.4630133649153826,0.03762872911748771,0.016782175488549524,0.047003704852306004,-0.08890171645658708,0.3602501671709861,-0.04167511203763883,-0.6479474765213974,0.0028902797494673883,0.05266353650696394,0.010689084675242719,2.6015625
0.012436403679252802,0.22421906232973915,0.2955708901545687,-1.1565305780377044,-0.09467461761257241,-0.04187749268270949,-0.11710209001674146,0.22077074356399232,-0.9019540796120142,0.10642767941941797,1.6214760634868288,-0.007143078475524379,-0.1337572681106024,-0.026234541599582353,2.609375
0.02562384701549315,0.4558748701144969,0.6012555725829631,-2.350874290858277,-0.19217767779244338,-0.08513119915392552,-0.23807240148514447,0.44918788458389564,-1.8327968570834623,0.21558281937184487,3.2944763327170192,-0.01454516879841363,-0.27114888031134227,-0.05346765524895856,2.6171875
0.020412701180002196,0.3641996379593608,0.4807043181191796,-1.8791740647256456,-0.1536127130348673,-0.0680152694970555,-0.19028277042035258,0.3589943695888224,-1.4648510417778449,0.17236840754104824,2.6319125356481816,-0.01162356374738636,-0.21680157495107522,-0.04273887982693226,2.625
0.011520219749908,0.20789325770180409,0.2748440594243512,-1.0743214340432068,-0.08788595558810794,-0.038821670691432636,-0.10880345316305688,0.2050836215809516,-0.8369162953721632,0.09870812407436616,1.5025990000320122,-0.00663793098082464,-0.12412863279769185,-0.02440528878076754,2.6328125
0.01103932703528348,0.199480019950276,0.26374503548946293,-1.030785385271474,-0.08438076991149285,-0.03723728716232435,-0.1044560010962217,0.1967966014441192,-0.8023829126699811,0.09471968164859343,1.4419040802260867,-0.00637163770437215,-0.11908949188673225,-0.02339340160660382,2.640625
0.007521986500605718,0.1377482500468714,0.18208682872513798,-0.7114942311532817,-0.0583905419049916,-0.025714845529858813,-0.07213990034974956,0.13578754830818657,-0.5533359612878376,0.06563025417488409,0.9969002851846095,-0.004394415930830657,-0.08239707850120993,-0.01608340939539031,2.6484375
-0.002146398121735573,-0.032081598862422,-0.04202263378407606,0.1645575968199114,0.013101758645684771,0.005974715144702023,0.016619831189398877,-0.03175765946087165,0.1293158720157074,-0.014355345477195202,-0.2293225941280197,0.0010364151075279286,0.018349234146428115,0.0038959804819728248,2.65625
-0.002892349681354951,-0.04511194300792135,-0.05900313868350121,0.23128849199634965,0.018619321748298927,0.008393869597436373,0.02344616545477121,-0.04463134578508113,0.1810942163686077,-0.02050068294900687,-0.32501767472854165,0.0014497107904241724,0.026086539346269737,0.0054074521366045845,2.6640625
0.0013044684857905523,0.028779257401862535,0.03860306863079501,-0.14974909239333623,-0.012391877991782516,-0.0054082438412060155,-0.015085774104655612,0.02811519546909021,-0.11630951513893528,0.014258251347806962,0.20712565463411958,-0.0009152069729242355,-0.017686310608240916,-0.003273724564378145,2.671875
-0.011299450989285184,-0.19256641203388683,-0.2537009966420498,0.9925671899350987,0.08085546028744242,0.03590432369699509,0.1006021524139545,-0.19030532269836126,0.7732479860133714,-0.09002463223464471,-1.389592792663986,0.006164433734169284,0.11360970642388613,0.022790876872743292,2.6796875
-0.03111140668030823,-0.5407472427825437,-0.7134908088963863,2.7888522234216038,0.22741484638547982,0.10089707232087403,0.28248182580039355,-0.5336377855719473,2.1726228094696993,-0.2539958267217859,-3.90066152858412,0.017302840402801594,0.32006032109227744,0.06374776485918913,2.6875
-0.023650884777691925,-0.4098454471490204,-0.5408610735803292,2.11365420351676,0.1723051205102612,0.07647102823833585,0.2141211476481381,-0.4044217057151598,1.6465389464653037,-0.19232742717247656,-2.955509684697275,0.013121312627179119,0.24241228554788308,0.04833604232602566,2.6953125
0.006979455420913163,0.12826448325703163,0.16938595854781976,-0.6620463375553205,-0.054183801144451954,-0.023953703279875106,-0.06689517941356113,0.12625685054887367,-0.5159697934930373,0.061089473171353374,0.926462496395201,-0.004086202442039394,-0.07667455868992452,-0.014951228360916556,2.703125
0.01908736503846566,0.3410671067759989,0.4503294082605096,-1.7599069648666148,-0.14380190694115272,-0.06365031534639666,-0.1780535210389455,0.33604240379115935,-1.3709774541764772,0.16131081227280725,2.4609257340115485,-0.010895266131745554,-0.20288869192106093,-0.039960663909726524,2.7109375
0.0037155276945944667,0.0710427945223878,0.09384164402190338,-0.3671889729441615,-0.030241762184342963,-0.013232521160644207,-0.037111813286778185,0.06974659440707819,-0.28552459455555557,0.034188954747677705,0.5131290590988946,-0.002260399446901801,-0.042830299115800725,-0.008197430084476865,2.71875
-0.004927730856884158,-0.0808232447689792,-0.10689891233524516,0.4166038637635575,0.03367293452841296,0.01510690817763276,0.042170228131315164,-0.07998725795282306,0.3251572587700562,-0.037291453281255646,-0.5808456681551076,0.002604549499061778,0.047229983732439786,0.009654221783472583,2.7265625
0.006244753872329765,0.11546049991558013,0.1520290527933348,-0.5953657609965372,-0.04885983180716915,-0.02155640255449406,-0.06028132202984365,0.11356307891595922,-0.4633885114922846,0.05513140946491199,0.8360735915928772,-0.0036658370897793948,-0.06908191400018932,-0.013437715220769857,2.734375
0.011620596479960265,0.20991414842705022,0.2770196912057007,-1.0830460989499988,-0.08860449093746198,-0.03920886853149091,-0.10961017383024763,0.20672710879257997,-0.8433539487728591,0.0995827115921833,1.5164124297079555,-0.006692910990052153,-0.12507978622819768,-0.02456152394042794,2.7421875
-0.0013592358228799153,-0.018153745148692824,-0.023553744001755812,0.09238564089842931,0.007317758257332884,0.003357937654679639,0.009370784344258207,-0.018042764404072046,0.07199783779014542,-0.007801066680453559,-0.12941507219056061,0.0005905354999496732,0.01005772191659332,0.0022273058402192546,2.75
-0.012586130757529936,-0.21548921739781474,-0.28398824117235283,1.1102258201321091,0.09038526160935191,0.040199839750548895,0.11233754406433423,-0.21248453585068874,0.863936799149418,-0.10067001344082246,-1.5507752452174417,0.006904033299651037,0.12699356558204053,0.02541387512058192,2.7578125
-0.0066697529993034075,-0.11166578467772915,-0.1471660176301004,0.5753290020424798,0.04676713813815701,0.020825938586021886,0.058163736954305635,-0.11005399148637586,0.4467081920984066,-0.05174641724075671,-0.7997031412543915,0.003592095892178838,0.06544888508133795,0.013218458591685014,2.765625
0.006465599822903042,0.11910124589484905,0.15756639590711058,-0.615253105762933,-0.050384786336879116,-0.022246273441454634,-0.06229593402325378,0.11743945773170716,-0.4798403937660315,0.05688588217495232,0.863039062833023,-0.0037934256477187376,-0.07134579629647834,-0.013900115672346985,2.7734375
0.011645947746486732,0.2102876321582843,0.2782660727861989,-1.0865615798133652,-0.08886531999558443,-0.039264302033434464,-0.10992130642100434,0.2072137061024787,-0.8456441281650741,0.09975098570011134,1.5168029971088683,-0.006723727145548473,-0.12539715035718255,-0.024623333491108682,2.78125
0.007542763667680099,0.1383434404683746,0.1831569964875451,-0.7153699115022343,-0.058574807607184476,-0.025836801628399977,-0.07229160035422731,0.13610775123795188,-0.5561875224133938,0.0658214741309728,0.996773523245004,-0.004423349523937946,-0.08269883427746155,-0.016153767700071306,2.7890625
0.0034621595182043573,0.06656141923937757,0.0878824856994109,-0.3440433411892216,-0.028281214626865763,-0.012443494566384678,-0.03468880528752793,0.06527037779697534,-0.2671329982408088,0.03201752288883034,0.4807023304862151,-0.002115884500884094,-0.040083823665569306,-0.007680287048550875,2.796875
0.0037102103828510146,0.07076006590577263,0.09330986214678001,-0.36548252917511553,-0.030089247677694952,-0.013226968967358116,-0.036908375883311334,0.069530139737164,-0.28352247591401725,0.0340219837731017,0.511557555828776,-0.0022472906365357454,-0.04257700264244835,-0.008164005906859964,2.8046875
-0.0002892671053755716,0.0005344133983521006,0.0009468472008628299,-0.003873795612632058,-0.0006324283575946583,-0.00011606084339655287,-0.0003905016052595321,0.0004225884028234915,-0.0018451983931013743,0.0009752867858887371,0.004402414028743102,-8.164817077918498e-06,-0.000983376550580226,6.201141734243108e-05,2.8125
-0.013029590141317764,-0.22312828762173326,-0.2942371094365088,1.1501203123810246,0.09356630823443071,0.041625900125379166,0.11640447513038932,-0.22016897596364843,0.8958987171364183,-0.10435120802443819,-1.60800884002776,0.007146527219769838,0.13163259761884524,0.026343881920746843,2.8203125
-0.01878653554901004,-0.3241943470983897,-0.42797734155940126,1.6725869450989195,0.13626867297423909,0.06048432807673041,0.16935282397155768,-0.32000924802650077,1.301875051661693,-0.15196086428069897,-2.335693344224317,0.010388462110969936,0.19159728034574008,0.03825318944469342,2.828125
-0.005742317510072818,-0.09504607102593414,-0.12555241844229073,0.490674982348706,0.039841253609095,0.01771999281975089,0.049723792057226844,-0.09412767185755098,0.38161690951879834,-0.04404253129347348,-0.6836290381017752,0.0030608597573616647,0.055713373561381126,0.011322891472793485,2.8359375
0.007924370283049138,0.14502438179875882,0.19169780562385633,-0.748736830901723,-0.06131612241255691,-0.027082758470159795,-0.0758197898465394,0.14272496180935862,-0.5832577131504199,0.06906158606391077,1.0470419403444886,-0.004624190014806715,-0.08670417694628764,-0.01693711002495375,2.84375
0.003776772501340486,0.07209728886086837,0.09559972576450879,-0.37296129439709763,-0.0306439494276807,-0.013474258783931384,-0.03781991772450876,0.07095557615578887,-0.2909753170691264,0.034753825847782166,0.5225332094159139,-0.0022925527620406227,-0.04347469269078403,-0.008385001434163335,2.8515625
-0.003575789971313163,-0.05712955563317277,-0.07517094558401743,0.2941711232656235,0.023827901586896873,0.010650066999803927,0.029804564708958772,-0.056508891796298956,0.2285030231405005,-0.026144937569526763,-0.4083353199723308,0.0018442229552842675,0.03323630828901803,0.006839448058104769,2.859375
0.0015309615657374104,0.032616139030748316,0.043209555837389876,-0.1687809426395701,-0.01394335468498788,-0.006087679911256303,-0.01693093590701904,0.031832431348710014,-0.13108590572326587,0.01604226724671907,0.236678079161605,-0.001030151179426649,-0.019920116869931816,-0.003675669405628683,2.8671875
0.0035390860142643634,0.067924302293526,0.0899486401624988,-0.3516606281945462,-0.028890422814066653,-0.01268556895332296,-0.03539693882162335,0.06659628241349745,-0.2728283771188651,0.03266400484005695,0.48860298970081734,-0.002166522445239055,-0.0409245646033147,-0.007834396934326143,2.875
-0.008098660075039052,-0.13661589022889337,-0.1800865307429409,0.7033319776199749,0.057177749381309526,0.025467156595286634,0.07134971786742533,-0.13497169564984024,0.5482325237025831,-0.06359133284177207,-0.9853782817915302,0.004379008541331378,0.08026546780736007,0.016186667514850837,2.8828125
-0.012195583505093319,-0.20869525032657565,-0.27547489529269553,1.0758325325744962,0.08755747970064995,0.038926847475758135,0.108956277783726,-0.2058897296914794,0.8377920089867793,-0.09749286754349741,-1.501981355181102,0.006693950582235145,0.12302623962426204,0.024656617733110495,2.890625
0.0019357457015847326,0.03958344573657223,0.05223586987954173,-0.20472702931914294,-0.016967178760296166,-0.007374261132678104,-0.02075728948308384,0.03897687056333713,-0.15885623079491076,0.019399376996255862,0.2889140388300372,-0.0012476344412000822,-0.02411116262352941,-0.0045217306743860364,2.8984375
0.012837470433375539,0.23119662302528196,0.30544312881113256,-1.1937128761354854,-0.09769143458367363,-0.043120639074912724,-0.12087224229403461,0.2278740921261751,-0.92833738851891,0.10959015002538144,1.6683207564379547,-0.007386000077110324,-0.13772273433913884,-0.027050275221900063,2.90625
0.010689244518452103,0.1935175828804284,0.2558479380394299,-0.9994626367170213,-0.0818291768563641,-0.036109954888095194,-0.10116908657620503,0.1906959670921878,-0.7776370102477448,0.091838077619952,1.3958589901767902,-0.006183536049044709,-0.11543515559996595,-0.02264123500415767,2.9140625
0.011524712816064183,0.20821887318107704,0.27505770991806555,-1.0747111212067646,-0.08794236083280443,-0.038873364539303866,-0.1088109054639981,0.20523533628770757,-0.8374467494632705,0.09878130538711372,1.504323308449799,-0.0066451139432681175,-0.12416950318587482,-0.024397687797936687,2.921875
0.01573392980071206,0.2821633939057043,0.37243842169841745,-1.455883618898544,-0.11902148186058097,-0.052672642146834585,-0.14744634212492108,0.2781633791619588,-1.1345828854694753,0.133619784185904,2.0394780257236818,-0.009002933988000695,-0.16799021622877094,-0.03310477752607082,2.9296875
0.005190572637287605,0.09690959338961794,0.12795329722062698,-0.5006388865817233,-0.04103776350054226,-0.018103217931590775,-0.05068821128592773,0.09537175254844604,-0.39004188803470735,0.046377645903636404,0.702051971552235,-0.003080341555081843,-0.05813012275929374,-0.011306030874821172,2.9375
-0.015046423035248047,-0.2586423582868245,-0.34110170067547024,1.3331873305208575,0.10863326861792565,0.048223630969737065,0.1350714361867168,-0.25539334944608993,1.0383109085058,-0.1210656239525818,-1.8645493038443908,0.00828445787376086,0.15268738866875625,0.030535640833567135,2.9453125
-0.021216864881427617,-0.3670743508777079,-0.48398146128377934,1.892640960687184,0.15426605822815964,0.06842838736091798,0.19170911503023297,-0.3623276380934846,1.4734059921668807,-0.1721162360735102,-2.646697398523064,0.011748295026181072,0.21696869114598152,0.04330721277688884,2.953125
-0.01256446317602378,-0.2150906367107609,-0.2833337899690785,1.108692681677019,0.09025151372984393,0.04007017797167003,0.1122506107041083,-0.21232067461896817,0.862567064864198,-0.10052542156444422,-1.5492529962399413,0.006887569911106891,0.1268466022882891,0.0254293291306647,2.9609375
-0.007785501152783918,-0.13107081037728022,-0.17265480099136887,0.6752457849896158,0.054877273531076076,0.024439384065632848,0.06836026683248662,-0.1294232036090412,0.525759777919536,-0.06097050708181211,-0.943411916228349,0.004203413601761798,0.07705555352891137,0.015539045327581668,2.96875
-0.009968306356535743,-0.16929143410596517,-0.2234185481713782,0.8726540952271381,0.07099815514201181,0.03161772270985435,0.08843709030230074,-0.16725390629936004,0.6805464435330534,-0.07900377562871536,-1.2206287294647473,0.005429399396977003,0.09975405487594514,0.020045324684188234,2.9765625
-0.0063431104009940885,-0.10558299805654857,-0.13948443954989317,0.5444131066810717,0.04418081018648434,0.01972401547886133,0.055230247251339334,-0.10453361896514872,0.42504618640089165,-0.0490142373108322,-0.761387249356869,0.0033936270356119207,0.06196585773883776,0.012571525575141239,2.984375
0.006634481052073438,0.12231347209122885,0.16137563199466592,-0.6310844866526005,-0.051781132841056,-0.02283943150006665,-0.06385789258281073,0.12029924057393176,-0.4911014214895818,0.058316364496709315,0.8839770820093671,-0.0038953190454118504,-0.07319856700439649,-0.014234724513359609,2.9921875
0.017456136388035,0.31241202517032285,0.41240422394947324,-1.61192950986954,-0.13180869735634,-0.05832539634015216,-0.16319471894920123,0.3078961480700742,-1.2552844503864797,0.14783432424161844,2.255939864986269,-0.00997651529838405,-0.18590788193524443,-0.03660942388572737,3.0
0.014808037592280996,0.26593547587900757,0.35115508555160435,-1.372529896774905,-0.11226118089889385,-0.04963615840397187,-0.13889536741807312,0.26207000361389754,-1.0683421836221618,0.12594866011046527,1.9193852474465898,-0.008492775096014354,-0.15834149733148456,-0.0311450584086924,3.0078125
0.002344769041514692,0.0468764256257317,0.062148444752921354,-0.24291451745565526,-0.02010084751317501,-0.00874751988062773,-0.024502501735538248,0.04605141866117913,-0.18822212537097313,0.0228297429988045,0.33826757087257764,-0.0014894557249913935,-0.02850340484870817,-0.005378333294949749,3.015625
-0.005041644037302916,-0.08307107022028774,-0.10923597969723405,0.4271639702471848,0.03461367645061204,0.015499585834907558,0.043267483218697236,-0.08197778489093692,0.33310597971571715,-0.03832406413759616,-0.5977191667043041,0.002667439240493654,0.04851378770491594,0.009882729895305087,3.0234375
-0.003201642648344426,-0.05075261310819293,-0.06657524577796681,0.2605548838822339,0.021106780417968467,0.009464170401593378,0.026341740104893204,-0.050032873079324885,0.2024894989530167,-0.023117810368588954,-0.36268273852673416,0.0016375574863578713,0.02939217636364972,0.006050483193642391,3.03125
-0.0035158927476605702,-0.056168638967654415,-0.07383199252010844,0.288689085119832,0.023399692031233137,0.010461894341414157,0.02922606788795758,-0.05546361352197656,0.22423127433973603,-0.025705295701842382,-0.4019544954349853,0.0018111338852086999,0.032617313637781434,0.0066871958999724585,3.0390625
-0.006699652072956593,-0.11207172234759319,-0.1476782163332806,0.5769945411047425,0.04683266207885265,0.02088337244508297,0.058473892327073396,-0.11071847330976978,0.4493093246962067,-0.052044397958182484,-0.8070294550028863,0.0035949693397090404,0.06571884863946462,0.01328757527623893,3.046875
0.001323544907911509,0.028971134038094027,0.03845535499890425,-0.15055599918414309,-0.012526237782632416,-0.005414033430539414,-0.015171502895712561,0.028287100398870384,-0.11681883468570725,0.0143546666275311,0.20925379295778296,-0.0009167353400293264,-0.01785930893883174,-0.003280876052717621,3.0546875
0.015689057605574944,0.281589188070859,0.37172263941335204,-1.4530846222428664,-0.1186924096773132,-0.05252192845001499,-0.14703977008050859,0.27729192318990864,-1.1312241955961306,0.13326225539998257,2.031880550309467,-0.008990355077369484,-0.16747680068413232,-0.03297693994924165,3.0625
0.013234583930392285,0.2385338193824009,0.3147010867963814,-1.2302700984402435,-0.10050104858655437,-0.04450506369414774,-0.12447230948163042,0.23477450349629392,-0.958057805526853,0.11296078944087735,1.7223922247977315,-0.007608974555611372,-0.14189011971600063,-0.027895130893103758,3.0703125
-0.0037350713818476394,-0.059859195722568065,-0.07905273801191622,0.30893830381036547,0.02497214316944049,0.011126833231421841,0.03133040322065854,-0.05931490244553748,0.24020942465782624,-0.027507394993810465,-0.4291132770586007,0.001931434366712488,0.03489770214446597,0.007194638122067761,3.078125
-0.010664228219310656,-0.18177556691176586,-0.239642062761883,0.9371193322073843,0.07619602824463484,0.03387495147310367,0.09488554386375217,-0.17931681816771577,0.7292694087160799,-0.08485725069192163,-1.3084574185607563,0.0058256753412412885,0.10705373034395127,0.02149329207788216,3.0859375
-0.008466951942626626,-0.1430284975669856,-0.1883751544933339,0.7367177875744821,0.05994039429222781,0.026685930504813857,0.07462956999825876,-0.1411566350019758,0.5735933727815482,-0.06660378760782204,-1.029832119581969,0.00458591665561295,0.08407701489199096,0.016903226086625422,3.09375
-0.014933812146281053,-0.256535605874313,-0.3383775437459703,1.322293579858156,0.10775034839650381,0.04786596209842444,0.1339813583976346,-0.25329992635492354,1.0300429663562454,-0.1200675371195015,-1.849179879723928,0.008218554647697785,0.1513937456154502,0.030261139226270436,3.1015625
-0.019682982736716224,-0.34014641992108613,-0.4488418199441513,1.753838826941178,0.14286272634620903,0.06342003567173808,0.17762588859109216,-0.33573135154685146,1.3658927871288817,-0.15940326305966823,-2.4514501594730027,0.010894187455064347,0.200932870200367,0.04011862515323403,3.109375
-0.004888001338727464,-0.08037271084152701,-0.10578628130291431,0.413789198933287,0.03341515327599162,0.014934634844862325,0.04181541688558578,-0.07934530172785147,0.3221171387581689,-0.036995319414124345,-0.5767390764135052,0.0025852691571669976,0.04687705583566153,0.009580144894504487,3.1171875
0.011782468918008097,0.21257130026634088,0.28109575424019567,-1.097688420586222,-0.08997852723837706,-0.03969076026347184,-0.11126057133605022,0.20957959254913444,-0.8540201838735312,0.10100378790700568,1.535145811929483,-0.006788196531802681,-0.126837755511864,-0.024855042117415238,3.125
0.009505423489581505,0.172635046212009,0.2284142154525343,-0.8919818057517562,-0.07321919951076462,-0.03222331644193926,-0.09034631753894004,0.17004996795883834,-0.6927008583694219,0.08216586831341245,1.2449914452023896,-0.005516944485395262,-0.10318643687152312,-0.02013616422162413,3.1328125
0.004690140572023703,0.08802128816273991,0.11654770846352842,-0.45522676717041505,-0.03748457591802599,-0.016451874407488347,-0.046046934145451204,0.08655298576555848,-0.3532398608139256,0.042215256018978506,0.6349514389137519,-0.002809675871163791,-0.052950044692343226,-0.01019157886466833,3.140625
0.012258690208488356,0.22107866310059973,0.29182956909069224,-1.1407390357670157,-0.09321585423403239,-0.041270693291008145,-0.11544014953250309,0.2178114033027607,-0.8889278756997744,0.10475770653376355,1.5971458633495323,-0.00705417753832095,-0.13164144406363412,-0.02587159917705097,3.1484375
