AF3,AF4,F3,F4,F7,F8,FC5,FC6,O1,O2,P7,P8,T7,T8,time
0.03289879982664312,0.5840382942038087,0.7706086814120443,-3.012766488977215,-0.24605099938886488,-0.10897373556689614,-0.3049738843668155,0.5754821921707022,-2.34576819063501,0.2756475628925117,4.212969483992356,-0.0186616921067196,-0.3468087447319667,-0.068528551787176,0.0
0.014794802394472074,0.26604192093254597,0.3506883493050967,-1.3720329533192372,-0.11213779329885269,-0.04961920090077603,-0.13872636289190687,0.2616538731613231,-1.0671980543863793,0.12576355656460103,1.9176354681230543,-0.008495231204602953,-0.15818966835051246,-0.031098671853697683,0.0078125
-0.010160611522115054,-0.17252559313702978,-0.22808258832293693,0.8899639862937258,0.07251823107267784,0.03226821178551976,0.09038835467249644,-0.1707575979597299,0.6941932504057337,-0.08075389895466693,-1.2462401927538693,0.005531060576786385,0.10179508883520332,0.020449514680345927,0.015625
-0.016221436984343647,-0.27927951310115967,-0.3685065762995464,1.4402161542811485,0.11744927905229761,0.0521729964534693,0.14597944980389377,-0.27564294122988153,1.121288326758789,-0.13089887730393135,-2.014123613925139,0.008945921358262807,0.1649839335903564,0.03294765878361079,0.0234375
-0.010722050129745845,-0.1828783504208114,-0.24076868642599275,0.9428903373152965,0.07684584370721428,0.03410287925280898,0.0954358242490656,-0.1803113369533336,0.7326935259996095,-0.08539986447713603,-1.3159365215989323,0.005861346376166075,0.10778016120797343,0.02159472957967577,0.03125
-0.01431216476864659,-0.2459718687358908,-0.3239683865253237,1.2684442162173488,0.10340012722229358,0.045839024466274206,0.1283905495527078,-0.24262193241220378,0.9863081608066769,-0.11509394058433974,-1.7704512817160665,0.007878401529895305,0.14520852624716407,0.029040287633292815,0.0390625
-0.0175520191372943,-0.30279748645551613,-0.39917956558351353,1.5612433180986462,0.12723268338927113,0.05647516081271608,0.15812364587270333,-0.29877667274307973,1.2153788101853897,-0.14182042974487286,-2.1815951632621853,0.009697293095625182,0.17886099591303026,0.035729716873467744,0.046875
-0.0017314103438000642,-0.02483132837146104,-0.03231809263053853,0.1266691356458191,0.00999296641119205,0.004606721017121113,0.012795817854060972,-0.024491167793677153,0.09884137045825256,-0.010797492895208089,-0.17672415240790015,0.0008081977740885845,0.01391296864839303,0.0030111200471170554,0.0546875
0.01699503920777392,0.3041336590602923,0.40198547266145257,-1.5704996845311836,-0.1286366251451137,-0.056841908836792174,-0.1592111372163291,0.3000806898061023,-1.2229232123253713,0.1441981583717585,2.1974945223865046,-0.009713671228850475,-0.18119443147242958,-0.03568246442281772,0.0625
0.012069637620859714,0.21773105762134556,0.28772083515633395,-1.1240848789672309,-0.09212368568976319,-0.04073877362294151,-0.11397359637269687,0.21463541552022508,-0.8751154424946802,0.10338730305934354,1.5741553298767585,-0.006950363141761189,-0.12981076209946427,-0.025473630579503557,0.0703125
-0.0052819552164388205,-0.08686775598761076,-0.11477487184707509,0.4478980261801001,0.036337409866526324,0.016176607793370223,0.04541820594638743,-0.08613040297970759,0.34986329358584073,-0.040256927058095165,-0.6253885615383402,0.002792338365269454,0.05097526667997282,0.010392063381153354,0.078125
-0.008226480532461018,-0.13860552491726733,-0.18316563989441098,0.7144420790061269,0.05812418931394264,0.025904487860256512,0.0725224421516051,-0.13714796307096686,0.5578136281252645,-0.06464167615475785,-1.0001146501045077,0.004446817973975377,0.08160666062093433,0.01645998039461476,0.0859375
-0.00143828849475812,-0.019656994761449668,-0.025835498434654394,0.09993028270251214,0.007904450963659646,0.003698780425610538,0.010237959379638855,-0.019528007107602975,0.07849803540503246,-0.008476179495115114,-0.14077358155597977,0.0006418801768473647,0.010888242500777965,0.0024242843520791593,0.09375
-0.002937111020331484,-0.046159356739066716,-0.0605665688365189,0.2364157570277071,0.01906299929354646,0.008606471286896412,0.024013489408139133,-0.04554014145834312,0.18375651214648359,-0.020893006855719067,-0.3301636301099336,0.0014898071116275292,0.026540790418407668,0.005519534090000377,0.1015625
-0.0055771204902716354,-0.09236389983094896,-0.12161545309073049,0.47531628666348547,0.03864362688889595,0.01722372632711268,0.04822749322511814,-0.09125552490688355,0.369613319669473,-0.04274595063957126,-0.6635164460325065,0.0029674025664988136,0.05401798892731938,0.010957470860573205,0.109375
0.00366621114700245,0.0701859754988738,0.09278279770591305,-0.362711109382639,-0.029780047231519825,-0.01311039487576384,-0.03667140897014394,0.06897151004690855,-0.28255071144465577,0.03373958889489857,0.5085543825201672,-0.002232179918747573,-0.042340591727736084,-0.008149984299869444,0.1171875
0.01334484151286032,0.24011853060425714,0.31703231875681304,-1.2392265072622457,-0.10143696946552481,-0.04484685190493481,-0.12552710507057624,0.23664717839293178,-0.9649057252677296,0.11382983644922638,1.7349407107894819,-0.007666283962856317,-0.14316410182902628,-0.028119662353993907,0.125
0.009553441549389368,0.17339731143780648,0.22912310669981562,-0.8952628094372667,-0.07338797708223874,-0.03241146300089325,-0.09071494923715906,0.1709015121116367,-0.6972481499693002,0.08248677337513143,1.2536322132504996,-0.00553190994760465,-0.10362363624075097,-0.02026478853379233,0.1328125
0.002014289278665476,0.041034736774230966,0.05475210421821662,-0.21293705997001228,-0.017594112136555467,-0.007693698644677435,-0.021561913383771825,0.04033063258293403,-0.1661139999681007,0.020144157368972133,0.29705963106608235,-0.0013023911440148764,-0.025093117050230766,-0.004719860901465381,0.140625
0.003172878388230419,0.06153149030667599,0.08188019705589325,-0.3187603783985849,-0.02615025895454597,-0.01149161450489239,-0.03225257300720244,0.06046877473893186,-0.24834429917245143,0.029707673334855876,0.44338986054878265,-0.001961201657236379,-0.037157206183280896,-0.007145896279581544,0.1484375
0.005653655364615853,0.10521970945532386,0.1389681277266502,-0.5430513996934563,-0.04448208570027927,-0.01962278308690733,-0.05495195954185903,0.10335636851141007,-0.4223011698231909,0.05014472612586499,0.7585627300717595,-0.0033535655973095627,-0.0628876913473978,-0.01223505314742339,0.15625
-0.0010996824479998122,-0.0132969309312503,-0.018121307805142237,0.0696959220409154,0.005468141874976101,0.0025121154731507474,0.007176689667361177,-0.013788209946453666,0.0556823264106104,-0.0057777980298304495,-0.09649780977287005,0.000444441973523408,0.007579087034370345,0.0017782463378277964,0.1640625
-0.011679149188295018,-0.1991239508972931,-0.2632311691170121,1.0281304701429137,0.0836816055069204,0.037192458022714855,0.10430299138562064,-0.19704431605157507,0.8021389134359362,-0.09325607238710396,-1.4378748816026499,0.006386493680283074,0.1177688387601758,0.023633463993687057,0.171875
-0.014974275011583412,-0.25720618190687944,-0.3391979024236131,1.3262927064079575,0.10806050689908989,0.048012832757171046,0.1344537421599056,-0.2539712216144984,1.0333946499476072,-0.12045748720055532,-1.856196112050777,0.008238187038516611,0.1520168780828332,0.0303891646528306,0.1796875
-0.010755070282558983,-0.18329803893731866,-0.24151633221543306,0.9444519928852879,0.07694953265712186,0.034200574950639544,0.0957028670251539,-0.18080630209971385,0.7348425164895956,-0.08556722379348224,-1.3201488931287213,0.005876532535992523,0.10805850096984186,0.021646225637285937,0.1875
-0.007537012295144775,-0.126756401960936,-0.16739667695335764,0.653589003778629,0.05322493829082505,0.023638018853001097,0.06623656568306882,-0.12511700218095942,0.5077980118502997,-0.058987220946633,-0.9099072102141554,0.004076251699604291,0.07455585279018623,0.015011674983017928,0.1953125
-0.00790713904561406,-0.1331929960497532,-0.1760568812350694,0.6871275854309769,0.05592333075850284,0.024830514643177024,0.06964298309219609,-0.13158153119457205,0.5341210436884759,-0.062034107922560526,-0.9561275876960338,0.004282960584613444,0.07836271961568843,0.015789322246295298,0.203125
-0.003129511229142515,-0.04941332777903686,-0.06494340358038063,0.2537663870921545,0.020474636073422217,0.00919217130909914,0.025698340081876967,-0.04878468083414325,0.19709892339005902,-0.022442431412740643,-0.3522179663149732,0.0015953410130376685,0.028501822744020522,0.00591591226590238,0.2109375
0.011125552614759913,0.2007337013785706,0.26579048017513957,-1.0381248509319088,-0.08507785293169325,-0.03749478780818606,-0.10521338805391552,0.19821664088673796,-0.8085223686073861,0.09553706287208304,1.4520913479987956,-0.0064130098269743535,-0.12007590213516937,-0.023540968423503048,0.21875
0.020447465773295967,0.3644024432699849,0.4819213624761156,-1.8828335383582229,-0.1541198456376599,-0.0680694236718307,-0.19077931219386676,0.35970018461413733,-1.4659257099839733,0.1726524483575194,2.6319890559609633,-0.01165138850838162,-0.21725231220351265,-0.04280602935673769,0.2265625
0.01067765841675473,0.19298296146739324,0.2554680901326577,-0.9978117418020334,-0.08186103782336791,-0.036121182145752155,-0.1011285285667521,0.1904034823179739,-0.7764948673488403,0.09180910396683112,1.394433261112955,-0.0061692608408068375,-0.11550353577125572,-0.022626334329093105,0.234375
-0.004824419506231518,-0.07902496498108692,-0.10378906428653267,0.4064729952620838,0.032906677775836134,0.01464294293025241,0.04109847091622826,-0.07815768330751333,0.31690449541192084,-0.036413564224210396,-0.5674907190557145,0.0025346092243685894,0.04604051497444402,0.009406992345144815,0.2421875
-0.0031780473462683727,-0.049979487419671675,-0.06561708663169201,0.2571916668742312,0.02079704282351081,0.009272328007832934,0.025979179817341286,-0.04959501850134635,0.20037275663134943,-0.02274329708580367,-0.35730028600864977,0.0016118356799337394,0.028961926724744926,0.006021116828272213,0.25
0.009154071860210073,0.16651980331843838,0.22003273664218395,-0.859889195317622,-0.07048684659431467,-0.0310817140495126,-0.0871198653058492,0.16403143479167084,-0.6692664799498029,0.07925942953056078,1.2031024481297685,-0.005311163441315525,-0.0994815848763688,-0.01944406275239675,0.2578125
0.0075559847256584135,0.13839104899151417,0.18265969410937447,-0.7147618935547984,-0.058689629932190374,-0.025788794681205603,-0.0723135366720013,0.13623789014354207,-0.5555054204041106,0.06591989083539368,0.9971329764583459,-0.004413013516331079,-0.08278189850034608,-0.016136288351478473,0.265625
-0.007617675073804853,-0.12783763552614422,-0.16920323930030562,0.6598960205117328,0.05373606266364153,0.023950515698610887,0.06706262519381599,-0.12670609892847978,0.515150685419758,-0.05972154440021142,-0.9250702286460951,0.00410619775811169,0.07543785935107411,0.015211003180494183,0.2734375
-0.013953580548184347,-0.23874699717566547,-0.3158669883232573,1.2335034788525878,0.10080976203142543,0.04466402560896631,0.1252349693259036,-0.23640709535777296,0.9609766286658629,-0.11215067050290498,-1.7242457090529646,0.00766044107852146,0.14157301463156896,0.028287933834873928,0.28125
-0.006369104914095983,-0.10558558724819371,-0.13980237719526487,0.5463102909071108,0.04465462463485699,0.019742634252118602,0.05555436294258493,-0.10490301251608668,0.4250723284970459,-0.049367861610690913,-0.7619809333415428,0.0033992394131081086,0.06253349614647224,0.01260180896561994,0.2890625
0.0005426832987034131,0.015374675835988161,0.020377005320325093,-0.07941313758790759,-0.006693661878082615,-0.002906768777988363,-0.00796582448346351,0.014866985778837,-0.06187206214432467,0.007831259077539458,0.11157363156186352,-0.00047882335678227367,-0.009601127030971527,-0.0016812915351805287,0.296875
0.002178903169097828,0.04381288254948416,0.0580999351503556,-0.227339641324699,-0.018892562654199543,-0.008200206588990339,-0.023006250608512194,0.04319592587502144,-0.17644897327508052,0.021397500631028615,0.317563833841817,-0.0013911448420289932,-0.026737461833889767,-0.005054211391178459,0.3046875
0.004230040073561678,0.07983082437184141,0.1056463090052327,-0.41321875424749077,-0.033997522924739364,-0.01488096171062626,-0.041812843240826444,0.07874687936685851,-0.3215380936406652,0.03842975661720137,0.5786137696743625,-0.0025389745231864645,-0.04813725551406666,-0.009290027102389456,0.3125
0.002216640153576829,0.04444960678014594,0.059173259923858225,-0.23062863348177223,-0.01905117139386328,-0.008317272025155331,-0.02333752818724239,0.04387320789476445,-0.18029060680863995,0.021800103804300364,0.32428525905899097,-0.0014081249565311628,-0.027190895234012292,-0.005133466375299144,0.3203125
-0.009915254975986307,-0.16873836914454718,-0.22199891791781712,0.8689470383529184,0.07067100575719525,0.031394334028363696,0.08796699958441405,-0.16635938307535036,0.6756860131971728,-0.07859966842593388,-1.2134670203631293,0.0054047925858056334,0.09916787322783512,0.019934023456926464,0.328125
-0.019581975436188573,-0.33849903763769745,-0.4462428538788686,1.7446905471058296,0.14214850770443338,0.06307897565913928,0.17663770301033618,-0.3338741240915192,1.3581895423427928,-0.15857286120937045,-2.4382384849219294,0.0108348432258798,0.19986356464443464,0.039909274397478385,0.3359375
-0.01020864125663119,-0.17374062988678493,-0.22902858625393863,0.8948349073569853,0.0727851649322458,0.03238925889912948,0.09058063832108838,-0.1714526368155806,0.6968862786144914,-0.08096039011256946,-1.249865782387731,0.005571007270718971,0.10220947983970276,0.020539712688235304,0.34375
0.011158717922391738,0.2015542964828932,0.26646421945330806,-1.0414180748593556,-0.08529561814582294,-0.03764293428546807,-0.10552139529378651,0.19877690466416334,-0.8110279911736783,0.09584458419012697,1.4571746365201173,-0.006431984371497628,-0.12038925799309647,-0.02360946706152462,0.3515625
0.0222380692211973,0.3960884846735009,0.5234834007130434,-2.045035014440803,-0.1672291238270438,-0.0739930878159151,-0.20718551840486393,0.39072751306471754,-1.5929983012799782,0.18745585989101501,2.8603188000668114,-0.012658444774552236,-0.2357885578061694,-0.046496535922528066,0.359375
0.014593720128812685,0.2619263738091303,0.34625008457737655,-1.3523805844879793,-0.11065514602084343,-0.04896284544015704,-0.13702827883362467,0.25827900723647207,-1.0535734431091073,0.12417769920041558,1.892286498863585,-0.00836770423077703,-0.15613237742446415,-0.030698570537258555,0.3671875
-0.0012217163404648077,-0.015666913617318954,-0.02056318940183052,0.08028442604364382,0.006281405811128151,0.002896273971785342,0.008123453881244153,-0.015747707623656418,0.06307804349485445,-0.006648686903050593,-0.11120975455194783,0.0005140250244290406,0.00862252339056581,0.001984556694690453,0.375
-0.01138587205537745,-0.19413657608608,-0.25637363859617696,1.0011849236445076,0.08140010961075998,0.036256226634769774,0.1014761203368268,-0.19191022822391937,0.78143202221136,-0.09075332587096294,-1.4002968863338159,0.006222803682661585,0.11451604113499893,0.022996726705682237,0.3828125
-0.009272292127939317,-0.1570012071541317,-0.20746945078261436,0.8098772980682407,0.06582686679202435,0.029344738079272736,0.08217546567434958,-0.155325511774425,0.6324639339512067,-0.07332394085273879,-1.133172030215644,0.0050366476374197194,0.09254222656460193,0.018624399518696565,0.390625
0.0007206541454535087,0.018662672495014434,0.024242246294014072,-0.0958442679913241,-0.007948402599156735,-0.00342876531519272,-0.009535756015557114,0.01789892391640968,-0.07408697531177867,0.009346701262852971,0.1347013550362192,-0.000575351767649658,-0.011513758379441762,-0.0020558257224913695,0.3984375
0.006225522558846993,0.11543644632235894,0.1520429302538374,-0.5952096997387004,-0.04861617172110648,-0.021476066772224234,-0.06014932251224851,0.11339165782158357,-0.46373667113626565,0.05492556042320092,0.8334246414659526,-0.0036688791358881184,-0.06882778183291559,-0.013449763538198871,0.40625
0.0033668534365719443,0.06501954267339119,0.0859666585032517,-0.3360678328618056,-0.027525224395206726,-0.01207763493255502,-0.033952924201264556,0.06384101976270434,-0.26144560071160555,0.031239162791582963,0.46940955030448267,-0.0020665212929011725,-0.0390046619998879,-0.007514601608070489,0.4140625
0.0032314512649365824,0.062391398047643,0.08290172211380642,-0.32299474125006467,-0.02655784930674082,-0.011633737229519188,-0.032652731207371236,0.06137876258664464,-0.2508669561634277,0.030049701485355552,0.4504315428799368,-0.001991727394654589,-0.03757878279553605,-0.007194128925588014,0.421875
0.008814090441399464,0.16045927270300744,0.21223222563391667,-0.8283038651900119,-0.06783588655725475,-0.029986705654776014,-0.08383856965474051,0.15805026866433503,-0.6451292411277916,0.07626931771407902,1.1590259160617375,-0.005123725171527551,-0.09580643307953475,-0.01872630100694451,0.4296875
0.0039176967544534294,0.07450093846063822,0.09851047154038571,-0.38450293297572435,-0.031621427206723486,-0.013968745941157433,-0.0389060706645205,0.07322876434557932,-0.3004250279657871,0.03585082006894983,0.5400447832290723,-0.002365944237723893,-0.04489564569759632,-0.00862932069587176,0.4375
-0.015316279051359112,-0.2635431752275214,-0.3475749805078552,1.3585285997842973,0.11061829680281815,0.049118191683358514,0.137609624736325,-0.2600169320960784,1.0570796495000618,-0.12327758905441906,-1.898655207153642,0.008443862731549087,0.15545281965325553,0.031104242808581973,0.4453125
-0.024600561782458064,-0.4267728985783779,-0.5628072423384615,2.1997141524046735,0.17927759393115128,0.07958952774113175,0.22279795631551016,-0.4208387272862702,1.712747558538666,-0.20013947050599737,-3.076681374736682,0.013658560823067037,0.25219343190047655,0.05027679671418205,0.453125
-0.011555612961404062,-0.1973991007243366,-0.26020482470478845,1.016821675597113,0.08278342769773643,0.03679811491944515,0.10298810086085786,-0.19469612783539186,0.7916433575194801,-0.09217454788548342,-1.4217072506452317,0.006325407048485545,0.11626876705814208,0.023290290475492633,0.4609375
0.0010742087890118176,0.024768006894371586,0.032738727476426456,-0.1284213364776798,-0.01065078044860621,-0.004647616498236529,-0.013013024482851266,0.024214109603155596,-0.10034653865219358,0.012397499619517322,0.18156165391484225,-0.0007739382351465015,-0.01535021553236429,-0.002826129060212822,0.46875
-0.0020390553620042652,-0.02990473153644486,-0.03944933203298522,0.1537547261458805,0.012363207270573892,0.005561576962121394,0.015595551319182664,-0.02981791236771532,0.11990836007420975,-0.013371102864104006,-0.21342887281426712,0.0009731166236083811,0.017099887609729823,0.0036333517997982744,0.4765625
-0.0019502475604343985,-0.028448970452758866,-0.03746798545694305,0.1460760952933713,0.011695463762608166,0.005292556606724982,0.014903493831670937,-0.028457484127711492,0.1148420285440053,-0.012695045147903483,-0.20446106331486189,0.0009222961880100009,0.016230549437879025,0.0034973849853706844,0.484375
0.012829258313629037,0.2311765893195454,0.3051417051176678,-1.1931119080798163,-0.0976479779886441,-0.043150014326353965,-0.12069625952582347,0.2275403804310582,-0.9277633111835882,0.10958718477197714,1.6680042859865334,-0.007379823282037849,-0.13770648659342835,-0.027017466111933237,0.4921875
0.021201562088738878,0.3781500824894636,0.4992843188554748,-1.9514840319949744,-0.1595933847902505,-0.07057682753125318,-0.19761501159466616,0.3726700596022361,-1.5189720341828812,0.17887459769551142,2.729616897331623,-0.01207959344498148,-0.2249038177495268,-0.044322344779622845,0.5
0.010678044396296835,0.19302516706563858,0.2553952730460928,-0.9971905837144844,-0.08172682803764202,-0.03604499576171178,-0.10109681427231514,0.1904435153602222,-0.7765676586522731,0.09175567508222303,1.395304202044651,-0.006164674695153135,-0.1152364723062254,-0.02259241413556267,0.5078125
-0.0001925551223341705,0.002012934785123083,0.0033745145184079506,-0.01186600302374748,-0.0012533072366952142,-0.0004046787102487386,-0.0012844886372627435,0.0021513157969083293,-0.009472330885151935,0.0017545548288012739,0.016956317256353964,-5.848265774755796e-05,-0.0019772416473198403,-0.00014401416997068911,0.515625
0.00022036497081845174,0.009485947085060396,0.012772599374653242,-0.04952014627259388,-0.004248226661978568,-0.0017743116782610888,-0.005012407124441292,0.009305797409253464,-0.03879361880498156,0.005186152869277796,0.07073861125471718,-0.00028991238724388363,-0.006299219820923443,-0.001006991556971832,0.5234375
-0.0007971874529186525,-0.008328798752136638,-0.010955042169037388,0.042744053343771085,0.003296508585024572,0.0015742212271604367,0.004288746490098951,-0.008334680658203576,0.03277906877380104,-0.0031753505262966473,-0.056080892986770596,0.00028694682707785656,0.0042862117125307755,0.0010892041839940902,0.53125
-0.007840004293001957,-0.13218395636149052,-0.17405952578709263,0.6810600235841706,0.05536883601303851,0.024676121545055354,0.06884550090794987,-0.1303531243896784,0.5295614788137741,-0.06141431973206905,-0.9484157758534663,0.004244617621800844,0.07763327427390118,0.015635302201159516,0.5390625
-0.008405721451047751,-0.14199319073383695,-0.1869128643392168,0.7315648650560431,0.0595055594666207,0.026484547156878632,0.07406585483711238,-0.14016917707432777,0.5692754409475003,-0.06609151109108644,-1.0215086017296984,0.004552366976962824,0.08346085454608689,0.016803563005378306,0.546875
-0.0009363859426952514,-0.010392994637208202,-0.013852341686978104,0.053500194690258726,0.004187803829918295,0.0019329629200963536,0.005658212560500888,-0.010848575821361015,0.04244373737558948,-0.004299850970512327,-0.0765568305596567,0.0003446484712314232,0.005587950069316645,0.0013875608307136384,0.5546875
0.00298434980913299,0.058601264553761696,0.076712595862571,-0.3022291146681671,-0.02487670312303907,-0.01092039807310505,-0.030226254882699314,0.056958418848696214,-0.23342741741992207,0.028121910978261694,0.41865830251526254,-0.0018590409998365017,-0.03524066509454683,-0.006689215072205441,0.5625
0.00039778161734773326,0.01292868217968178,0.016743696360603445,-0.06744501280676725,-0.005726778938889437,-0.002398389992521884,-0.006529842204066909,0.012135933000161461,-0.05069985178889849,0.0067026797255388525,0.0902146097596048,-0.0004003892903769814,-0.00822762708016086,-0.0013471874914542067,0.5703125
-0.004550371601198137,-0.07416991999174948,-0.09767147158097945,0.38152074801994657,0.031001859655579566,0.013832124961398554,0.038777486083835085,-0.07345739070093636,0.2974754697344076,-0.03425785094540685,-0.5350804062353685,0.0023827958082236274,0.04337812479233099,0.008844492877345357,0.578125
-0.010514675727329918,-0.17895951081741826,-0.23587333330342766,0.9225855019849257,0.07522172634028997,0.03336681908776912,0.09344128615264631,-0.17667117255101167,0.7176121370742631,-0.08363386892727434,-1.288543789974372,0.00573556142972394,0.105548729230751,0.021146178627017048,0.5859375
-0.01210768663822852,-0.207007095808787,-0.2730043029098964,1.067357888315456,0.08693376740344566,0.03858813528950494,0.10801371551844532,-0.2042778572919941,0.8307543271868043,-0.09681244989920383,-1.490530560299628,0.006633741869261305,0.12214858439001798,0.02444823379245011,0.59375
-0.004191641193377272,-0.0680075470366858,-0.08953804968133838,0.34991537478911955,0.028242521265322677,0.012639122477866572,0.03534380576171788,-0.06717988558521906,0.2730482114714442,-0.03125253195275089,-0.4886917175049618,0.002188461523831023,0.03964236965191093,0.008109092168102405,0.6015625
0.0029217792309287624,0.057000525934605396,0.07545005381996857,-0.2947659472109268,-0.02434455120512474,-0.010688047102573822,-0.029884171285634455,0.05605747290565145,-0.22939884824319876,0.02766274728206504,0.4136073199382692,-0.001805552587681228,-0.03448752558379974,-0.00658669207092995,0.609375
-0.0006794752418890741,-0.006321410799098022,-0.008136316003974102,0.03222985393220266,0.002447881002488884,0.0011443553370716793,0.00325942579236952,-0.006335149235472355,0.023810678984873483,-0.0021548745292932,-0.040869746554656465,0.00022410364709333428,0.0030690674162883944,0.0008552239152181794,0.6171875
-0.0014539267471388377,-0.020173457367436837,-0.026154935516437588,0.10296727123556174,0.008194475096362836,0.0037470601046817108,0.010377864433966225,-0.019762638816943207,0.07864120101628576,-0.00861587380446554,-0.139626618593181,0.0006629103977314278,0.011163527916048955,0.002464291741660961,0.625
0.013306992964261827,0.2390589708834541,0.31636433765592425,-1.2352691055209066,-0.10112548385470774,-0.04461998299261675,-0.12515940797997255,0.23601715768139223,-0.9623053175945219,0.11351308582553209,1.7287906944961693,-0.007637840241587195,-0.14267551588087535,-0.028034640416022872,0.6328125
0.025754132799095393,0.457993858093163,0.6052678857210068,-2.3641822995965773,-0.19325084163344877,-0.08547633173740311,-0.23941849253785405,0.45172820070613545,-1.8407097956087428,0.2165178921392276,3.305988847074094,-0.014642960114902553,-0.27242440166152365,-0.05376509148622147,0.640625
0.01574338214126516,0.28238094422072013,0.37302607804004057,-1.4570698425327255,-0.11915694796051082,-0.052711544076244336,-0.14752045005453426,0.27824959193833343,-1.1345235782821705,0.13367454855637362,2.038539491571982,-0.009021734093787351,-0.1681448497662111,-0.03308268098516366,0.6484375
-0.0031673914808337997,-0.04987438533584101,-0.06578078045497633,0.2568298399448879,0.02065970910662783,0.009290879635285777,0.025997829016932608,-0.04949986821025546,0.20052854752015664,-0.02278113978163821,-0.3586187638354625,0.0016066812854029413,0.028858438801641188,0.00600748811943551,0.65625
-0.00740036549677878,-0.12431864980827005,-0.16396217524109344,0.6398808929136104,0.05181867505376064,0.023199932469503297,0.06477665141944669,-0.12288226468368188,0.49995762133444405,-0.05772685518512292,-0.8969065963601219,0.003985443665526168,0.07291878520077674,0.014767633616889453,0.6640625
-0.000702172225167382,-0.0065329828988498345,-0.008476964998076411,0.03235768306346326,0.002301614511732071,0.0012309228548354305,0.003341908699679051,-0.006795557838534371,0.026974844438390225,-0.0022747053946377714,-0.04791504681967016,0.00022001922635600011,0.003171217626822611,0.00092188337976948,0.671875
-0.0020926776732714376,-0.030805117822459892,-0.04076877585776179,0.15880717952162432,0.012819814497307933,0.005737587189703083,0.016236148862146835,-0.030885231966944808,0.12420541337606292,-0.013884819606298731,-0.22209926864140597,0.001002252505818208,0.01778777348068384,0.0037768049280858156,0.6796875
-0.014536456257020222,-0.24938673178895626,-0.3296015619113168,1.287146636303939,0.10502128123110806,0.04650580038279614,0.130526441627441,-0.2465407347399463,1.002154929723873,-0.11697091701581375,-1.7981043206923355,0.007996304188428777,0.14749973319510135,0.029477044611834567,0.6875
-0.0227324769282952,-0.39341776705557663,-0.5198321021734218,2.0298912458620015,0.1656072406223161,0.07341851531953791,0.2057668049470121,-0.38856551612811946,1.5810909524654355,-0.18478077906827295,-2.8376894326779474,0.01260257369287175,0.2328351699941224,0.04641791688465478,0.6953125
-0.014157802206871947,-0.24286707431400073,-0.3208463694757533,1.2526772327329476,0.1021105044258343,0.04537428134820774,0.12707638344966019,-0.23993084326092326,0.9760925558553496,-0.11374098127598671,-1.7520277456894842,0.007786874572515938,0.1434617953586469,0.028711195304472824,0.703125
0.0026564529992025047,0.05235302230210872,0.06946930153054827,-0.2709163977163908,-0.022273351536228007,-0.009746419244390726,-0.027315468796875318,0.05151016097582737,-0.21130424238732273,0.02542982596111075,0.3789657514259782,-0.0016588726760749007,-0.03168561310533262,-0.0060423561482607704,0.7109375
0.005729402755580756,0.10619795053365827,0.1410837454428919,-0.5493719933083087,-0.045037710086644714,-0.01988466758916937,-0.05570337238064771,0.1048261029864973,-0.428947549300888,0.05084783758264535,0.7692681677422286,-0.0033885702717843936,-0.06372489460814544,-0.012421150716170441,0.71875
-0.006241029254537014,-0.10408102500037336,-0.13656205517915412,0.5353056879454322,0.043438492306819676,0.01932453348883899,0.05405027788587761,-0.10260204856749532,0.41606085999769904,-0.04820031754342201,-0.747044688490948,0.003333773982791786,0.0608936876486808,0.0123084952178144,0.7265625
-0.0061399805193764635,-0.10226797614824717,-0.13462999698631875,0.5265085634745428,0.04268280590580481,0.01904462922175541,0.05322791172583763,-0.10093286130500569,0.40985700903064565,-0.047368542590634576,-0.7344984683451594,0.0032811445776583428,0.059840818422780835,0.01213600826551697,0.734375
0.015074730728524159,0.27033755345109134,0.35708243715686727,-1.3955194831699285,-0.11419886341749232,-0.05043441066547138,-0.1413274658918807,0.26661449007072174,-1.0867544265344462,0.1281368035114556,1.9528575427934725,-0.008631283796245802,-0.16105613257460327,-0.031670403758282104,0.7421875
0.02715248090167773,0.48246878712182545,0.6373086333255928,-2.4903029760680364,-0.20353393747191892,-0.09003096143625,-0.25217856357169194,0.475930291958066,-1.9393032921548699,0.22805520608053337,3.4827981796111427,-0.015417547002323794,-0.28681393968130037,-0.05664260860614605,0.75
0.01397307297556801,0.25113361628247993,0.3318559118924845,-1.2966747572742388,-0.10605938035134442,-0.046892858897365094,-0.13129543884023423,0.2476068426377886,-1.0097440515951595,0.11902407717042118,1.813649351185678,-0.008019561227901333,-0.14956451489110234,-0.029438647719288776,0.7578125
0.0018229538575663046,0.03795320530454959,0.05003386540270057,-0.195785928346198,-0.016141785181488934,-0.007114905257126478,-0.019778461902898618,0.03704006869693197,-0.1527196243701717,0.0184981653424103,0.27556720671960616,-0.0011975101894899495,-0.023042871280203978,-0.004330860689003018,0.765625
0.004633338702113679,0.08737387584381574,0.11513300274577891,-0.45027866526453747,-0.03689647858007251,-0.01631316269968052,-0.0455288171550454,0.08567089284914436,-0.3509269088441799,0.041747672203404154,0.6317918143679597,-0.0027764704335816784,-0.0523240068862588,-0.010117608511935156,0.7734375
-0.00046951187796228673,-0.0024140857319266394,-0.003150610615663771,0.012017877452885933,0.000759717880338979,0.0004703061064013678,0.001296339818972059,-0.0027891060284947855,0.010220463174040849,-0.000429073376423548,-0.016660831129466067,9.171528879182446e-05,0.0008050489937287061,0.00043927224855851057,0.78125
-0.017729105813041657,-0.3057646846738571,-0.40343666477464984,1.5760165660576695,0.12827821407050488,0.057075318715103136,0.15968481869171525,-0.30190485446596715,1.2295416682377214,-0.1431630989940934,-2.2057175223720096,0.009790755145860084,0.18051803419050905,0.03611564214987298,0.7890625
-0.020188277595025287,-0.34909126078611197,-0.4605979606865186,1.7994264432338798,0.1464234411415388,0.06511030496896031,0.18227055137220552,-0.34458076144241045,1.4033357823940726,-0.16350367195408333,-2.518006119846395,0.011175313518615823,0.2060697842685975,0.04121321168068514,0.796875
-0.0073920399236061165,-0.1244187168493038,-0.1638191018293472,0.6404762717937607,0.05186504398610956,0.02313594361277777,0.06483064156756123,-0.12283816742140592,0.4993260913593187,-0.05769778356558671,-0.8959964594989127,0.003987584093670546,0.07279652297375659,0.014765831679976494,0.8046875
-0.0044517471772476825,-0.0727205109028656,-0.095491506616431,0.37396181759687613,0.03026003017408069,0.013500554824404962,0.03782615444825564,-0.07174882470358204,0.2906300798656462,-0.0334373934157519,-0.5217347867249951,0.0023353518022472264,0.04228068035350603,0.008651905419575398,0.8125
-0.006215843813700894,-0.10342965797064288,-0.1364590818303804,0.5332751923340446,0.043438305087331076,0.019279822786882145,0.054038851593865324,-0.10215349393374136,0.4141739651061748,-0.04806905153308166,-0.7425252616014367,0.0033258839280869584,0.060782763715750934,0.01225800884837128,0.8203125
0.004834287079001325,0.09090299365005963,0.11963821600584242,-0.4684125740935479,-0.03823028448849944,-0.016958498464800246,-0.047319969232489455,0.08936320156068765,-0.3662327313521812,0.04332789424303955,0.6591291712123133,-0.0028834982307771487,-0.05426688843271479,-0.010582416943257705,0.828125
0.009409689015999147,0.17114444846780333,0.22587008433534858,-0.8830476241908977,-0.07213721748405522,-0.031923795393447016,-0.08929644881244216,0.1685546068869487,-0.6886561540264667,0.08117733648526296,1.236385677790641,-0.005456779553682767,-0.10194498215071494,-0.02001212415542411,0.8359375
-0.00723865243234029,-0.1215659933897877,-0.15984331931953744,0.6254625319323665,0.05085052181307709,0.022721887788317307,0.06344985686633746,-0.12001290922428862,0.48756263604630207,-0.056514335395544395,-0.8772662234292435,0.0038934364460445755,0.07143869891116762,0.01441467017863969,0.84375
-0.010266960786639287,-0.17469682719339463,-0.22988030629777173,0.8993734079835941,0.07318233449352962,0.03265049646112397,0.09116615149304995,-0.172434547207599,0.7015229713205011,-0.08149703190941354,-1.2608750440348793,0.005592643481498626,0.10295428344804972,0.020661269542272386,0.8515625
0.01839741924272873,0.32915255619330674,0.43473968301611865,-1.6985427677624176,-0.138745939668016,-0.061402761122679304,-0.17198223319614664,0.3244065734546806,-1.3227310925786622,0.15568242466709908,2.3758983375570604,-0.010511809378534857,-0.1956608689858624,-0.03861253295518751,0.859375
0.03172933455814829,0.5634087258271063,0.7436837938384813,-2.906160762123812,-0.23727892742474518,-0.10516293029291814,-0.29435967140949265,0.5554344620367583,-2.264009466843764,0.26595237481761647,4.067665687317586,-0.017999029348605422,-0.33455726544547293,-0.0661711019566375,0.8671875
0.0016354112222598536,0.03446291554856132,0.04555548456623633,-0.17793629354259222,-0.014775665527556001,-0.006469124070469617,-0.0180750922610296,0.03372122758115865,-0.13821445959546655,0.016945320975561052,0.25102305364720773,-0.0010867623651060572,-0.021105303115377755,-0.0039209544873199395,0.875
-0.023525954081077737,-0.4077469220390688,-0.5381766160725241,2.1026375152220984,0.17119079374454238,0.07606853559434298,0.2129977778995384,-0.4025628158346239,1.639321399176297,-0.19120252779843636,-2.9413664017545282,0.013052071292499622,0.24093364882772617,0.048147169409259914,0.8828125
-0.0059976322046257574,-0.09973706257896922,-0.13173850258026376,0.5135762506786893,0.04153557708274428,0.018598422369796332,0.052172819118522666,-0.09882553380080551,0.4013966067046493,-0.046138436086538205,-0.7197040103141885,0.003203589716025301,0.05828684353118925,0.011918113082301842,0.890625
0.01587909673853296,0.2846466287731242,0.37582484147850953,-1.4694652003632922,-0.12017963631629557,-0.05314994897707768,-0.14872381510740607,0.28054390345419616,-1.1445949257787673,0.1348605004057228,2.0555128036042447,-0.009087872870849325,-0.16957958620979158,-0.033363906911985555,0.8984375
0.0029295927635613708,0.05703242835895839,0.07578734919711493,-0.29559121487793133,-0.024350609769298485,-0.010698287876590768,-0.03000559668074603,0.05635735783503398,-0.23114058911327623,0.027670650022777812,0.4152506810448683,-0.001812099109032823,-0.03460662709737359,-0.006645853272809433,0.90625
-0.01962060142990572,-0.3391999453955339,-0.44718125262575714,1.7485440841568822,0.1424226166842133,0.06324002091952728,0.17697678802190486,-0.33449137473304974,1.3613655140604861,-0.15894851663582094,-2.4439452358601415,0.010856613609934751,0.2003377078005978,0.039985007353267495,0.9140625
-0.017799173704118453,-0.30711509065415127,-0.4051785691819162,1.5835505561177083,0.12893758117483775,0.05726290088222621,0.16037682734775233,-0.30311927163998553,1.2334790062985612,-0.14387341689604122,-2.2137246632591805,0.009833059217530079,0.18134525476553925,0.03626694844288847,0.921875
-0.0037435791093411077,-0.06015098780522974,-0.07931031154351127,0.3096268380572267,0.02496798062790136,0.011174904585785527,0.03140862290762465,-0.05956690306251454,0.2413264971701413,-0.027545544187733285,-0.43169934041109,0.0019380945570358658,0.03492104878806859,0.007225463167989364,0.9296875
0.0009671155342576061,0.02254078139031162,0.03015037234167462,-0.11746732518146022,-0.009895177480990508,-0.004259767375026184,-0.011908494694566165,0.022202359864645745,-0.09151480580156747,0.01143987938858961,0.16531966518088317,-0.0007090123930603658,-0.014122683885511638,-0.0025378948694627632,0.9375
0.0025543278498731414,0.05051473404212879,0.06722169906849446,-0.2618871098741521,-0.021602214146838185,-0.009451242049059248,-0.026525902116207603,0.04978031115839858,-0.2040085146407841,0.0245510635542697,0.36573427269518244,-0.0016066489528815183,-0.030636669077396296,-0.005846664953054307,0.9453125
0.009493888583704868,0.1727224754172611,0.22815397055131612,-0.8915038604370242,-0.072820065651675,-0.0322068866685595,-0.09015883338098321,0.16999092563029722,-0.6943248184265111,0.08195820078252236,1.2458858588966055,-0.005510052533307515,-0.1029191678548001,-0.0202013504947175,0.953125
0.01190453233077852,0.2152652568383698,0.2838630382477487,-1.1101072400093555,-0.09058401368128004,-0.04012052496633104,-0.11222410412792828,0.2117263011287996,-0.864480598248058,0.10191448594731042,1.5533871119567686,-0.00686265498343279,-0.12801007367279763,-0.025182245719690587,0.9609375
0.004488144762886379,0.08490705303304268,0.11179039340307366,-0.4376656498006411,-0.03579065671664771,-0.015795129830785404,-0.0441876928580932,0.08323036576626429,-0.34034220437819557,0.040546368244744294,0.6140845266000237,-0.002694178872837257,-0.05073484832893021,-0.009845412603909259,0.96875
-0.001174878293411767,-0.014764995492946416,-0.019464947037416865,0.07584499873187135,0.006016470799462448,0.0028070733530706623,0.007735435656253517,-0.014883032833830976,0.05996555655113063,-0.006334931241856832,-0.10495248418673858,0.00048615641858352885,0.008249707465234792,0.001872076482531789,0.9765625
0.001049173505282849,0.0241100225892176,0.0320969995303143,-0.12520854620248742,-0.010418567679669746,-0.00445157737119749,-0.01266129255747181,0.023642948475832495,-0.09713792680763499,0.012073074105437741,0.1759584701036456,-0.0007591787202190777,-0.014932657138007795,-0.0027090800808730236,0.984375
0.0012695402761472299,0.027813224821545524,0.03710673263430164,-0.14451481666250968,-0.01203113375424093,-0.005176895615992419,-0.014651667776463128,0.027447941576621393,-0.11315982070599039,0.013957505358599144,0.20395286268065088,-0.0008736487781026943,-0.017249885805605693,-0.003156446263797477,0.9921875
-0.005840342957887748,-0.09707376431779775,-0.12765410968836136,0.49956158432165637,0.040462881286861416,0.018087317652705312,0.050565440855587666,-0.09574595177195695,0.38854630208367896,-0.04481559387597947,-0.6978153143946122,0.0031191999888024553,0.05675562542375775,0.01152700088180359,1.0
-0.009672675979300578,-0.16417787199467998,-0.2162422052329516,0.8456589211940116,0.0687124300711098,0.030591907403855322,0.0856814705427883,-0.1621467790169515,0.6592450509484141,-0.07655224998874814,-1.184790762860758,0.005257463729237265,0.09662181716024532,0.019428066273546207,1.0078125
-0.002797835021244678,-0.0433059386622931,-0.05688687071137433,0.2224049837446206,0.017920672907227805,0.008024289969626744,0.02262009822448619,-0.04306840718139719,0.1741953279981988,-0.019763241833367393,-0.31321746860919886,0.0013892813035247715,0.025027399046447057,0.005223937499456052,1.015625
0.0042739224169375005,0.08069417087964399,0.1065874053358176,-0.4169463132324871,-0.03427152623497433,-0.015139695484087107,-0.04217967599393989,0.07934767623811428,-0.3246775327126394,0.03868732112675998,0.5842245529209356,-0.0025703691804383998,-0.048589504091850234,-0.009357037519111891,1.0234375
-0.0002408360737839322,0.0010984656791037735,0.0015874491097618662,-0.006620779606857053,-0.000911152902773212,-0.0003014774563174915,-0.0007147723267682027,0.0010234728360495294,-0.005585033844613743,0.0013630524306666636,0.011380437514158277,-2.1668947991276377e-05,-0.0015882299280330463,-4.726769794705123e-06,1.03125
-0.009285060497466394,-0.15778137784531449,-0.20785780634188147,0.8122653677367466,0.0658600844493768,0.02936091400643458,0.08220337121240424,-0.1556208038499672,0.6328461164295238,-0.07339462570919283,-1.1364794946127021,0.005055460053095612,0.09256046731978995,0.01866125569920979,1.0390625
-0.007603398305367453,-0.12800893462445043,-0.1685237165411751,0.65862594431067,0.05343617670647082,0.02383807953241608,0.06669734631822744,-0.12631000700520972,0.5135153216700357,-0.05944386535395264,-0.9222833248124915,0.004103597683431027,0.07507287837105396,0.015144503353572638,1.046875
0.004600494490344996,0.08661048420246908,0.11436585311520509,-0.447417410510656,-0.03666778912955268,-0.016173352169802733,-0.04525983991804723,0.08520794496463054,-0.348553638415944,0.04152394152909005,0.6278170117904496,-0.0027502958437248897,-0.0519575525854238,-0.010079914673529066,1.0546875
0.012135629387526568,0.2191381791753768,0.2889127380864722,-1.1298956092200632,-0.09231195903735032,-0.04087273957413007,-0.11434054439014749,0.21569604109400828,-0.8804904819690154,0.10386715505225266,1.584460942466768,-0.006981612928488964,-0.13042788677942332,-0.025625329072620877,1.0625
0.00618405805369823,0.11466116562794153,0.15111639037513375,-0.5908920854966411,-0.048356367553772955,-0.02136668826334547,-0.05975374457025677,0.11258602430998259,-0.4602711758406886,0.05463704690926499,0.8290974788467562,-0.003645158165685232,-0.06847627516770217,-0.013321773291278262,1.0703125
-0.004874257111113469,-0.07964119090092525,-0.10498051271791085,0.4106241232867489,0.03335962510278673,0.014890781354059362,0.04163772673600139,-0.07888129117053384,0.320198224073875,-0.036862390742269775,-0.5735652719141143,0.0025607695828450774,0.04672924963555866,0.00950703056543883,1.078125
-0.00711590967148543,-0.1191505385327306,-0.15698611444771118,0.6138123354323162,0.04994340863989185,0.02227445105249086,0.062211385948958794,-0.1177073489372429,0.4785861757980406,-0.05543634128133082,-0.8582876224916053,0.0038226137488637166,0.07014753929352617,0.014138059307124138,1.0859375
0.0014518218681840102,0.03120496832540593,0.04146404378549003,-0.16202828494812754,-0.013405822256400354,-0.005781454744454525,-0.01630487265344146,0.03055503190396882,-0.12564262054499561,0.015427024239134071,0.22598623219204972,-0.000985263786877791,-0.019093603032305305,-0.0035342029521163152,1.09375
0.008952700713330892,0.1628396145447795,0.21540189927683984,-0.8412942730770594,-0.06888559858414045,-0.030385229810963497,-0.08507880736754646,0.16041417103081404,-0.6551089948849621,0.0774723538149498,1.1751066299280672,-0.005197867692924889,-0.09728247789631711,-0.01902311654793422,1.1015625
0.005833271116176179,0.10800680091248532,0.1432662183488936,-0.5585535846581917,-0.045796640899650604,-0.02019493122339938,-0.05652997797971365,0.10651881111155014,-0.43573995332889043,0.051645868415556385,0.7807011252717512,-0.0034467005804323615,-0.06479829616807058,-0.012616750836098374,1.109375
-0.0028258996240948884,-0.0439831659804131,-0.0574800360040887,0.22588316679554188,0.01827749145794657,0.00818256489815004,0.0228234548558705,-0.0433419473115353,0.17511166391531913,-0.020011342092627397,-0.3143249385495652,0.0014164476759309312,0.025445653100364923,0.005239456664981985,1.1171875
-0.006988101676090142,-0.11695109852635618,-0.154217210280683,0.6029475407944221,0.049041668984183766,0.021834236519506573,0.061018340968229945,-0.11554080023230102,0.4698104962110623,-0.05444470158001605,-0.8411659529265472,0.003753683151987892,0.0688025540525523,0.013862464933728676,1.125
-0.0061906043547057706,-0.10297948250893843,-0.13601386435759422,0.5310466840265154,0.04306192693880925,0.01920394294802949,0.05379030616718621,-0.10196019598312801,0.4146783840314087,-0.047827337042688337,-0.7417578786308968,0.003306855433212196,0.06041325353562335,0.01227002883279991,1.1328125
-0.005212233916287886,-0.08596985135585179,-0.11344673488774076,0.44275884227018036,0.03574100906854228,0.015970750578956593,0.04486566023548424,-0.0851190755109541,0.3458025797263234,-0.03970646612433762,-0.6195341931856907,0.002760161514703044,0.05012745972496184,0.01027051335798869,1.140625
-0.003786360108216756,-0.06098956322059051,-0.08029887665633346,0.3133234546086515,0.025173022057515277,0.011298609388935114,0.03175668328204175,-0.060337035194277445,0.24456967961047452,-0.027885066905860668,-0.4390447475885238,0.0019601503091003715,0.0352479069862917,0.007302379733091976,1.1484375
-0.0006915896115756727,-0.006536514026342161,-0.008428485791063794,0.03248866729810954,0.0023399368435309473,0.0011726745831005787,0.0033331514757806682,-0.006618657272605864,0.02565085026068049,-0.0022713223423438487,-0.04576682277265126,0.00022087737652799806,0.0030544757336803297,0.000887063914892539,1.15625
0.0015507771555670982,0.03290078599250297,0.043572479961520146,-0.1706737862088819,-0.01417750253034198,-0.006171055701327369,-0.01723108331071903,0.03225365427306342,-0.13274134090877335,0.01627641526716596,0.23933595379872358,-0.0010378599663797546,-0.020259169597377353,-0.003746223066932007,1.1640625
0.0037798636720644593,0.07200763078450172,0.09527710858931179,-0.37270831374655433,-0.030654994008637984,-0.013469722350198906,-0.03769311223911015,0.07090430735147848,-0.2902018470301526,0.034725558960132935,0.5217096637130104,-0.0022887578754993082,-0.04348116587693091,-0.008359769615681113,1.171875
0.008849511027679833,0.16109244657124963,0.2129263784792272,-0.8325946686315182,-0.06814012991616832,-0.030065153026429824,-0.08424400589502258,0.15883784042885668,-0.6484296467577667,0.07668576203153755,1.164251853735403,-0.005137400759429751,-0.09628070954967162,-0.018858700004219596,1.1796875
0.009324548879216068,0.16959012245004923,0.22390086754459151,-0.8756178864864463,-0.07154970180440481,-0.03161960596929164,-0.08857275530327673,0.1671113687878252,-0.6823935973067073,0.08060016763669815,1.2262853640040814,-0.005403301590053351,-0.10113708529755529,-0.0198423753059854,1.1875
-0.0039798971986871115,-0.06402847330276147,-0.08480429574731176,0.33086495125771176,0.02694313542416169,0.011956924766107534,0.033580608416917054,-0.06350102667134706,0.2566552888458942,-0.029518169572865533,-0.4578354180867352,0.0020740604834767105,0.03754781114619833,0.007677750217077584,1.1953125
-0.01911917853470347,-0.3299942757980767,-0.4357688611991494,1.7029084054391277,0.13881445602988599,0.061557330148219,0.17246088564105116,-0.3258910439842081,1.3256088241675197,-0.15477022737985427,-2.377462052992415,0.010575688961232746,0.1952127944118688,0.038971325519086934,1.203125
-0.013865299843361528,-0.2376950697503031,-0.3134014025978106,1.225659220588075,0.09976343332643288,0.044352484536797986,0.12410459829660853,-0.23477942496009546,0.955034649333081,-0.11123972977037583,-1.7146840567521677,0.007612465756764711,0.14036354157494338,0.028086803899276362,1.2109375
0.007694840821292394,0.14106920730320766,0.18689802005845751,-0.7285866971122041,-0.0597114808145525,-0.026297594361942858,-0.0737810655691212,0.13888189079465943,-0.5667246786184941,0.06715474428456877,1.01652297983872,-0.004505594598652197,-0.08424926699950289,-0.016479782769187535,1.21875
0.017352050233817785,0.31060480396008,0.4105112799679651,-1.60258724477108,-0.13099528366742375,-0.057957339685292736,-0.1622895248464966,0.3061375674390008,-1.2481200108715491,0.1469706825777151,2.241641859338466,-0.009923707838895929,-0.18477129040383256,-0.03640810881168942,1.2265625
0.00556598473584423,0.10339692995199913,0.136699972535628,-0.5338639988555663,-0.04380312352526453,-0.019327793930719938,-0.05406965083342531,0.10178932212235352,-0.41570003624371915,0.049381386114915625,0.7483372753133853,-0.0032958409969079706,-0.061988134168568916,-0.01203023449781613,1.234375
-0.0070865126096305705,-0.11889563677426139,-0.15677338076450903,0.611811484894607,0.04965384665462368,0.022165767145208144,0.062000835357216545,-0.11745948198005626,0.4776313786565781,-0.05528289347012451,-0.8566805884850082,0.0038089080975460513,0.06973121296578681,0.014106179327882344,1.2421875
-0.006061693832167168,-0.10090955738741231,-0.132903087070488,0.518693266179885,0.042063439394442015,0.018827929561344787,0.05264871880280458,-0.09969283971136964,0.40520635158664625,-0.046770376502281455,-0.7279445262030336,0.003232732008928238,0.059042416061574184,0.011992072883654788,1.25
-0.0007470051816887805,-0.007731926886204381,-0.009792653065486689,0.038633181197609744,0.0028929830035395497,0.001406101959539705,0.00403242346470374,-0.007670313632580117,0.029976368812722188,-0.0028240439259572623,-0.0539096018466186,0.0002576446127340546,0.003766576805346646,0.0010418354093397594,1.2578125
0.0005110915647570424,0.014288127416370294,0.019315067409083363,-0.07467319246579068,-0.006376325845959245,-0.002737973834689888,-0.00752672025784381,0.014145328294080342,-0.05903666061266177,0.007584614005946203,0.10671500739567513,-0.0004434677642209479,-0.009309589768623273,-0.0015603606471946228,1.265625
0.0042225343747599965,0.07982110821033245,0.10572992955515076,-0.4129976001994133,-0.03396774603033832,-0.014934817973229167,-0.04184846539714616,0.07867217776180917,-0.3216464841725288,0.03839455321797176,0.5783599262720758,-0.0025400925916848156,-0.04806688990661502,-0.009293936610341813,1.2734375
0.010580387666036648,0.19194246377976615,0.253480166207057,-0.9912460593124023,-0.08108916045634704,-0.03580201597645136,-0.1003971865701484,0.18903123730312432,-0.7710054804454852,0.09109914560906153,1.3855131058406966,-0.006124849405683189,-0.11438452241466261,-0.022482853571734053,1.28125
0.005351241562136664,0.10010542265271141,0.1319621310333771,-0.5167563038011255,-0.04234071214611171,-0.0186576559918848,-0.052320357765862635,0.09834648580295569,-0.40171865988495575,0.04780646670747461,0.7236113511992518,-0.0031832066051987137,-0.05989118025024316,-0.011653671383138777,1.2890625
-0.013128890002195293,-0.22483390788615512,-0.29709373708318804,1.159942461700786,0.09445405428074623,0.04195047583585115,0.11749479229444877,-0.22210636017139387,0.9033734060498778,-0.10519229695036697,-1.6190186334880394,0.007212141091545658,0.1326789774289233,0.02658676318333284,1.296875
-0.0222043822820558,-0.3844594683242519,-0.5076615550489243,1.9830399940318328,0.16160337091722254,0.07171887434580093,0.20088337465990128,-0.37949595381510537,1.5441913732001193,-0.18030642467442956,-2.7706671697561096,0.01231649405881663,0.22722965665610032,0.04535471062210063,1.3046875
-0.00766580051943233,-0.12905702812817163,-0.17021656434914623,0.6648499743169155,0.054050578178887095,0.024051075701342635,0.06742535068282195,-0.12754770636836973,0.5175398318796504,-0.059963327504685894,-0.9291560578598567,0.004145671147153702,0.07575972905469625,0.0152959865373978,1.3125
0.011090485930382081,0.20049557057864945,0.26499254019504787,-1.0353034934217835,-0.08467608061009035,-0.03744650700912542,-0.10475605749051457,0.19753188943179043,-0.806915219121476,0.09524373413703145,1.4481040351008014,-0.006396275600779759,-0.1196136268704072,-0.023465794416087853,1.3203125
0.009357650363011635,0.170127596284677,0.2248479553651793,-0.8781229609876532,-0.0718558098981273,-0.03176674271024454,-0.08887585168700093,0.16755910285851153,-0.6846934437808738,0.08084625725759782,1.2291091132425578,-0.0054274786882147225,-0.1015120769468518,-0.019875631686295202,1.328125
-0.005308754058593453,-0.08747857311509431,-0.11527327117953307,0.45106842362913085,0.03658938547932721,0.016312970772003558,0.04570186379976527,-0.08654714945899546,0.3511056509136301,-0.040576304543085334,-0.6300676012851077,0.00280768673868259,0.05131646032434926,0.010431330208433318,1.3359375
-0.008020181919360032,-0.13518882350900013,-0.17812992427198582,0.6968007096681798,0.05659720032917501,0.02520516288375268,0.07057062001182658,-0.13352627749823145,0.5434786203729948,-0.06303064432963341,-0.9750254991642695,0.004330485758210716,0.0795814320984092,0.016030907312660003,1.34375
0.0034375355060189193,0.06597429958168147,0.08755390140993888,-0.341319894748737,-0.02815415762997724,-0.01233751337469835,-0.034564666336950774,0.06499140581514315,-0.2647171920322316,0.031792239890062884,0.4766293627059962,-0.002102983931914352,-0.039778120846933246,-0.007637216769485308,1.3515625
0.010304620666284214,0.1866037745082907,0.24675848595592983,-0.9635759991280936,-0.07890768557467977,-0.03482746655149841,-0.09756100950454827,0.18397628550737966,-0.7500072456138906,0.08863502275863655,1.3477896317574372,-0.005958483544823507,-0.11133677738352658,-0.02182328254485771,1.359375
0.005891322631337831,0.10915661379743119,0.14445140021716082,-0.5641349920855775,-0.04624380373429754,-0.02035606060700096,-0.057080669640955276,0.10754190651696291,-0.4395720487481738,0.05215213672509125,0.7891932397796562,-0.0034797796767273535,-0.06540699212814072,-0.012724112043310795,1.3671875
0.0005452813801554029,0.01533786252801017,0.020566741661161136,-0.08035147846875652,-0.006724726054165696,-0.002847393341827017,-0.008082993098836174,0.01496036796881714,-0.06252970522051235,0.00797696522936515,0.11202504060622775,-0.0004777291061516957,-0.009759905992446081,-0.0017025205316862073,1.375
-0.0001808606766443872,0.0026973715678941554,0.0037329781005268218,-0.014730061041427324,-0.0013719908072368585,-0.0004931740497616927,-0.0014526189268440186,0.002378172034211778,-0.010759266920687254,0.0020100274882236396,0.02104813079746213,-7.064819587632021e-05,-0.0022121507241477678,-0.00020063273164722074,1.3828125
0.0007082283560965333,0.018380677874949247,0.024255858578163675,-0.09501964871214741,-0.007937347080384382,-0.0034340636818787013,-0.009592372934649976,0.017722900226286985,-0.07328020937098233,0.009341544987681222,0.13471352167993317,-0.0005713212110804822,-0.011477555550844253,-0.002020207192033948,1.390625
0.00266254059563826,0.05260913370790119,0.06948062963879158,-0.2719118028826494,-0.022396719396376184,-0.009853282657913229,-0.027508684270609873,0.051531098345086665,-0.21158902694006182,0.025464554499792482,0.3817286164896273,-0.0016691246759692022,-0.03185601397405425,-0.0060536945052684695,1.3984375
0.003969081488287568,0.07536077902526313,0.09968496833238352,-0.3900835726832406,-0.032084665700973056,-0.014121922035853834,-0.03948013379372827,0.074148931232295,-0.3039507975324696,0.03627958604658407,0.5459468086759317,-0.002398299621972724,-0.04548497994129025,-0.00875317746055067,1.40625
-0.002501309876428402,-0.03844445935119396,-0.050511107743526955,0.19699729131378899,0.01579405208124669,0.007123406217434898,0.0199794993890226,-0.03799898931075797,0.15311926917112112,-0.01723109912609161,-0.2743701295607305,0.0012451635061660176,0.021941282510512222,0.004632698556179754,1.4140625
-0.015283033149417508,-0.26303466836476364,-0.34702341909643014,1.356053907774679,0.11039765224544726,0.04905281677448541,0.1373774477781352,-0.2595163757383986,1.0555339634820182,-0.12301752826510359,-1.8942045538516392,0.008430686884674798,0.15514309347386815,0.031056591149334196,1.421875
-0.01896304315757636,-0.3276406987998078,-0.43228741681326616,1.6893135069132619,0.13762721571540693,0.061118600158845425,0.17114043767945594,-0.3232631633971553,1.3152809358008386,-0.1535200960122353,-2.361231241459868,0.010494012742835963,0.19351536101784897,0.03864859747465648,1.4296875
-0.005309821073366615,-0.08760741821801685,-0.11548792001743373,0.4510434838095412,0.036568728177861075,0.016332484561290498,0.0457320075637521,-0.08660214528976519,0.35185319206269916,-0.04054764925292958,-0.6310033242932116,0.0028144691999401716,0.051299817907903306,0.010423495469558878,1.4375
0.012240689749969195,0.22090678501948588,0.29163036547136534,-1.1399127922781367,-0.09330365605181874,-0.04123907497433929,-0.1154079620678973,0.21757103297666663,-0.8866914066096253,0.1047034505387211,1.5942385243316528,-0.007051725341327319,-0.1315295420782158,-0.02583469818570806,1.4453125
0.014962616912247116,0.26871755020911703,0.35478936927820187,-1.3863039313688483,-0.11341589819425954,-0.05016809289310807,-0.1403753200527194,0.26473682714375707,-1.0792809609595844,0.1272102425161601,1.9393053187034612,-0.008581751193513265,-0.1599134058819857,-0.03145779106019502,1.453125
0.0014133942872782976,0.030549327537332787,0.04057272985351179,-0.15824758141782097,-0.013146603806594208,-0.005709513075211924,-0.01599300814156046,0.029929783573513155,-0.12350346630911427,0.015057840958007385,0.22065153609915075,-0.0009679918810546699,-0.018814910620703677,-0.003480379935416646,1.4609375
-0.011748532653279372,-0.2006847296734579,-0.26469353866451945,1.0342990014763405,0.08423191262111758,0.03748233260797628,0.1048221670830224,-0.1981550228643873,0.8057466424617683,-0.09383625854602301,-1.4481663589667928,0.006428288996659905,0.11828672444438894,0.023705714945959425,1.46875
-0.008962756838357717,-0.1516064545572241,-0.20006049155885822,0.7816021845487628,0.0636495749355022,0.028344381884304385,0.0792636522803621,-0.14985693781939569,0.6093946703143477,-0.07072655497359882,-1.0934890608177816,0.004864262767857894,0.0893205796187014,0.017960012362200378,1.4765625
0.005269275410069751,0.09848793730184557,0.13015467158699787,-0.5082667655809858,-0.04157397235340893,-0.018352293645706796,-0.05138592662053741,0.09682279039325052,-0.3959623021480577,0.04707324672143123,0.7126937717099031,-0.0031313152863794505,-0.05887533721184333,-0.0114454779137985,1.484375
0.011717892791514653,0.21168017855776133,0.2798178185754605,-1.0926456118469876,-0.08926398686451731,-0.0395152968148895,-0.1106415547844345,0.20859193664002607,-0.8520038445637765,0.10043286088821438,1.5309444200452704,-0.006753514075419014,-0.12604732789662407,-0.024781353696023547,1.4921875
0.0037055848523098152,0.07074693216647246,0.09385399102368225,-0.36613170318597865,-0.030077588053849396,-0.013243638114907245,-0.03713502356267631,0.06966701256426003,-0.28573986235633253,0.034118082903228326,0.5142228435653002,-0.0022494992937731853,-0.04263087029906993,-0.008217976890294338,1.5
-0.003906954426016854,-0.06311553727392105,-0.08296457408833019,0.32439449574407725,0.02615373645204564,0.011717734486946116,0.03280623257353003,-0.06237429124053943,0.2530950904190055,-0.028905533595405597,-0.4526957610281643,0.0020297442524470476,0.0366278391359593,0.007540686801550182,1.5078125
-0.00038377081976191625,-0.001199045094728219,-0.00136696673819943,0.005329015253120114,0.00012846248139224988,0.00016466102119768404,0.00058642756335723,-0.0013622753212299008,0.004659186644440349,0.00021727566459399698,-0.006773878976721985,5.019896039126525e-05,-6.965024611638076e-05,0.00027840938687224157,1.515625
0.004726634525502458,0.08870998077206926,0.11721452228270406,-0.45812030402233084,-0.03760257281523415,-0.01659140975987861,-0.04628360564010513,0.08725267459660328,-0.3569212610419436,0.04251528816326244,0.6421855666734019,-0.002822426591581131,-0.05328533847627173,-0.010286260752634035,1.5234375
0.001943846137612709,0.03986276025912289,0.052762988779984595,-0.20628919028530135,-0.017074392898842817,-0.007471385136669098,-0.020839869855262934,0.03910241536090758,-0.16073974315068254,0.019520001528974838,0.28993330781155224,-0.0012606144964401038,-0.02431437401618693,-0.00455291802287128,1.53125
-0.001981380668236401,-0.029192189228656917,-0.038152989996643925,0.14911660248341083,0.011820906868916216,0.005395494515215505,0.015046778559688381,-0.028863710912929323,0.11684808958026224,-0.012960827485328164,-0.20938736875365685,0.0009413880424706363,0.016527654609305643,0.0035325118689992076,1.5390625
-1.1530543877646072e-05,0.005399080071199882,0.007684455715692678,-0.029833351888277078,-0.002787668189356946,-0.0010553900715380724,-0.003075644135612138,0.005300302918484284,-0.022082115712265548,0.0033305871814752093,0.038830088798341954,-0.00016918613933145478,-0.0040152355815666575,-0.0005573100236688452,1.546875
0.0017342066230535806,0.036198749481640084,0.04812867887793371,-0.18800898595168372,-0.01561840089499779,-0.006768896708754485,-0.018996229097928773,0.03549109823669656,-0.14549923918494265,0.017806093431169345,0.261169902285153,-0.0011486190660068244,-0.02218933588507397,-0.0041458518591421575,1.5546875
-0.0036987725950678603,-0.05922809736108109,-0.07825452936229536,0.30535905310862177,0.024641681654484084,0.011056579910849067,0.031027124759910114,-0.05881058805669141,0.23845313073377042,-0.027136329337485818,-0.4259396098645899,0.0019121801117005573,0.034420874686829354,0.007129546175063369,1.5625
-0.012233481106341511,-0.20930865581964092,-0.27657298955508197,1.0797645094919919,0.08781856274874456,0.03907039569633985,0.10943957588439897,-0.2067797446261407,0.8413948142397313,-0.09782094209861311,-1.5077216405592753,0.00671459943582921,0.1233506672978603,0.024781785618509557,1.5703125
-0.014500218712166791,-0.24909220806681454,-0.32903633551445,1.284602485562112,0.10466748474267745,0.04652840901834461,0.13018273106264672,-0.2459065201218039,1.0005103443277212,-0.11663511745021034,-1.7948439004171763,0.00798528831098324,0.147013388099624,0.029418745470264174,1.578125
-0.0061110265932410625,-0.10139879821848802,-0.13393585663979912,0.5227117536282214,0.042676957701634564,0.01899286393155393,0.05305466035866801,-0.10030151063887478,0.4065889237327192,-0.047178595713156524,-0.7300173707227591,0.003261244768610017,0.05966605688855608,0.01202634172812152,1.5859375
0.006709883290926286,0.12398928812942771,0.16378880657524092,-0.6398039189307194,-0.052184699559600395,-0.023098372105683607,-0.0646759361591549,0.12191420213738961,-0.4990099560336483,0.05896836529217878,0.8955777809433542,-0.003948302086097751,-0.07388221021388496,-0.014471182065654143,1.59375
0.011015532436555113,0.19937752669006464,0.26354255745937955,-1.0289918873513255,-0.08408052879033605,-0.03721236631184886,-0.10414055358458987,0.19639601552131464,-0.8020840137656441,0.09457330716349006,1.4399564856211142,-0.006362542277143843,-0.11873210013309171,-0.023332193578749074,1.6015625
0.0034948340313221047,0.06697786265782928,0.08885837011299218,-0.3463199957035165,-0.028457932131306103,-0.012520024404718203,-0.03507406609146925,0.0660008777358933,-0.27057645506250555,0.032306586944374674,0.4859420480859938,-0.00212896844664033,-0.04038217620046452,-0.0077682482967480464,1.609375
-0.0030559617164561807,-0.04806481658135814,-0.06310874140152553,0.2473597488238479,0.01995877518156249,0.008921738510127553,0.02499726074778001,-0.047483579035406835,0.19166789209951085,-0.021859375814799208,-0.3436176415525583,0.0015521642023159229,0.02782680849629077,0.005768261735516738,1.6171875
9.272025970652541e-06,0.0058940879641523015,0.008049770261685166,-0.030824752522186027,-0.0028142397502429425,-0.0011996104767467177,-0.0031683398357921838,0.00557640547555309,-0.024327934495257646,0.003541101728856216,0.04456297169157536,-0.00017530925939725288,-0.0041636534202577095,-0.0005545802879414773,1.625
0.004026729783678152,0.07632189046233126,0.10116542109193462,-0.3948183162184696,-0.032599264118219305,-0.014343650157028084,-0.03996641455882345,0.07502263360915995,-0.30651622427963676,0.03673795890295798,0.5513519051858207,-0.0024344226114226043,-0.04603994890137476,-0.008827599732212164,1.6328125
0.0029504966469250733,0.057191259978484815,0.07614251555045061,-0.2971281877496386,-0.02463953342086183,-0.010709794349935506,-0.030040808603368285,0.056333307599127705,-0.22972260936099131,0.02779476334938251,0.41335198758075914,-0.0018268738533337788,-0.03482375976541306,-0.006598052614400067,1.640625
0.005558572793746234,0.10307622683317867,0.13670899189154745,-0.5338871010687506,-0.043918489803042304,-0.019235378853519516,-0.054064388168445415,0.10171140964894815,-0.4146509093020581,0.04942729546587339,0.7453010265289604,-0.003290902578720214,-0.06200608520821687,-0.012023178351000143,1.6484375
0.012419183345498835,0.2239181352269958,0.295848954237404,-1.1561955237864798,-0.09463633096639198,-0.04180384733225584,-0.11711034039957877,0.2207520510661856,-0.9001653661569559,0.10624222342047442,1.6174352740391997,-0.007148198380661173,-0.1334934369954662,-0.026236465172392788,1.65625
0.006953682836352878,0.12813940608114618,0.1689506619255365,-0.6610509079454991,-0.054142084773308716,-0.023930904855066715,-0.06689784275792637,0.1259927516921593,-0.5145350765223506,0.06098005937089328,0.9258990330645631,-0.004080811434348037,-0.07655256797724756,-0.014942579141721904,1.6640625
-0.013096383525858242,-0.2240973878060066,-0.296116633757833,1.1560894632510366,0.09419922148451154,0.041832617359273606,0.11717268857684263,-0.2215355247061227,0.9012047949960451,-0.10494843581167033,-1.6155632496943269,0.007183540969812334,0.1323141716842068,0.026507347180144948,1.671875
-0.02383095262468667,-0.4128502544052387,-0.5449862166008355,2.1291705563706516,0.17356373230186242,0.07706264267025947,0.21565909448105716,-0.40752719183109665,1.659003307869373,-0.19371048489680603,-2.9765747497531643,0.013219164630756706,0.24413393844877826,0.04869967972760014,1.6796875
-0.012224005233797509,-0.20914573645190032,-0.2758755374236425,1.0779059285929762,0.08769904843077453,0.03903083263883311,0.10916229757202175,-0.20639551306138765,0.8396954510385365,-0.09764086456842312,-1.5061902662618334,0.006706593490051446,0.12328132584681409,0.02472597948116319,1.6875
0.003378214084954987,0.06487104159167281,0.08571151872556228,-0.3354665597326747,-0.02762376209355531,-0.0121036166566406,-0.033882695574530844,0.06386214852950613,-0.2613314809002099,0.0313606044554825,0.47021082217561816,-0.002054707678372369,-0.03913855928368173,-0.0075036394695967255,1.6953125
0.005420739907421504,0.10088637703878267,0.1331100680642624,-0.5207776978218005,-0.04263840520923694,-0.018823705577508794,-0.05257973226522914,0.09924345540108202,-0.4058878937693296,0.04815514114859659,0.7290250845892944,-0.0032082846260843667,-0.06038209696745696,-0.011745509963798416,1.703125
0.0019557620373078324,0.040204840818311764,0.053163312303687295,-0.2074833732323218,-0.01699571368565772,-0.0075274331838831015,-0.020927500097892057,0.039371640366178615,-0.1627804081196321,0.01950676575340266,0.29141795644794044,-0.0012710347799492433,-0.02437597729261341,-0.004632998038833664,1.7109375
0.004147283609550937,0.07871111114448422,0.10425556896506274,-0.4063653667390043,-0.033266551499798146,-0.014728838718182124,-0.0411616269875757,0.07744933043524048,-0.318294680383761,0.03772771269081202,0.570055284124075,-0.0025045552055857415,-0.04730361154960616,-0.009173971547142954,1.71875
0.005594914022908683,0.10400697089062975,0.13771146033643938,-0.5374380411754219,-0.044076112320900265,-0.01942083997148621,-0.054404445196177056,0.1024216512174367,-0.4192915375907313,0.04973588643773129,0.751927486336444,-0.0033159145352772827,-0.06240499725953406,-0.01212448316532617,1.7265625
0.00020450197107150906,0.009275294992775388,0.012592766943057342,-0.04915200387400907,-0.004303419930132395,-0.0017144743851718062,-0.004893662925662769,0.008923696904534966,-0.037194937487978835,0.005128727332574505,0.06700742940364635,-0.0002891978698402506,-0.006231302536174928,-0.0009526042287408118,1.734375
-0.003108779329291851,-0.04885929902305726,-0.06415210304075981,0.25084913521497954,0.020190113802403927,0.009124336399700755,0.02544981014103892,-0.04840418879588573,0.19669992718787652,-0.02225700018119198,-0.3519003433091915,0.0015710975285190478,0.02831276174419937,0.0058867652020375225,1.7421875
0.0004195031710222071,0.013098420848234647,0.017633760664998624,-0.06840490559842986,-0.005823736243462355,-0.002458044737541277,-0.006945898737528197,0.012770549309524181,-0.0530033716100403,0.006953131582168196,0.09725293972065076,-0.00040537879714882624,-0.008394017359663998,-0.0014062914929357311,1.75
-0.00048655669807339224,-0.002931118929005862,-0.003657491721037849,0.014474250252599347,0.0009429637437823277,0.0005283670594844112,0.0014701926357687581,-0.003085321574183755,0.011427172856559092,-0.0006032451229924204,-0.018024527891704993,0.00010908423586458326,0.0010784279322419274,0.0004899608751687292,1.7578125
-0.009550066184553707,-0.16216473082684246,-0.213973423892205,0.835807652739654,0.06794668214082533,0.03023780693283891,0.08469076184331073,-0.16023228752123586,0.6520068860019697,-0.07565829490919919,-1.168574581789027,0.005198180780671516,0.09546306895087132,0.0192197056560447,1.765625
-0.01029413806277806,-0.17517984001386386,-0.23103202352531482,0.9027099255826281,0.07338889849047671,0.03264946599291787,0.09141967938105056,-0.17298146636442685,0.7039896221372027,-0.0817884914278154,-1.2629798233384748,0.005612031591373082,0.10315646975463692,0.0207190508786355,1.7734375
0.003975034830901972,0.0754490144739314,0.10004816209568074,-0.39035322034256104,-0.03213861240198434,-0.01413329733450421,-0.03959396254375945,0.074409378887559,-0.3043173510396535,0.03633193591550282,0.5466109033173733,-0.0024019418429815148,-0.045489562552103936,-0.008783593697481997,1.78125
0.012825899367534591,0.23088436556478303,0.305206453230729,-1.1920005177352044,-0.09752722743717528,-0.04313245552421188,-0.12071853391587244,0.227680252726862,-0.9289784911234961,0.10955436056750413,1.6683626116481556,-0.0073708295185518245,-0.13764601590439357,-0.02704233997454366,1.7890625
0.004455539448454586,0.08397090207303887,0.11094768084868584,-0.4336622203985439,-0.03556961032957201,-0.015695965322157227,-0.04379467459107539,0.08251050136023796,-0.3375235392685642,0.04027009774848095,0.6071303465156235,-0.0026702267350617983,-0.05044384653556326,-0.009728923045873783,1.796875
-0.00027231475073091966,0.0011082989758111118,0.0013339248133872775,-0.006035228976887038,-0.0006424433214958883,-0.00021875068328223166,-0.0004832111188963912,0.0006688194332839038,-0.004251868244529541,0.0011992793605095312,0.008985726207869534,-1.7026802748143006e-05,-0.001251518576318047,4.198056696650801e-06,1.8046875
0.012116767564820016,0.21876492181236826,0.28871309191474065,-1.1291766016840228,-0.09236433281807266,-0.040839957838410344,-0.11434048294014829,0.21549220414366677,-0.8796018706854658,0.10377494052563246,1.580356358224248,-0.00697656723250324,-0.13037095145413236,-0.025634141360964837,1.8125
0.017132178673185557,0.3067661133969306,0.40494363200763767,-1.5832629500810769,-0.12947470514592319,-0.057263224419396234,-0.16035269691570606,0.3023462610346327,-1.2332710396489632,0.14524643967844625,2.2153829166164694,-0.009792599341949572,-0.1826091636089111,-0.035982321589154265,1.8203125
-0.003971570414650152,-0.064004711252994,-0.08459445636075946,0.3298884111186158,0.026704513205555294,0.011949185441447316,0.03351305205626526,-0.06351170520631068,0.2573573043487843,-0.029456518885507384,-0.46048155245115335,0.0020639836229823997,0.03729939679492513,0.007667224797385476,1.828125
-0.0260503592432817,-0.4518864939957017,-0.5965402750426142,2.330965291553818,0.1900512395678818,0.08435009135422922,0.23620856414586866,-0.4461065170690557,1.81586909499553,-0.21216764132537172,-3.25880280351509,0.014467493832926878,0.2673380240786166,0.05330132936575505,1.8359375
-0.022142206588732997,-0.38336617382855465,-0.505607582907386,1.9764920133481092,0.16104704358479519,0.07154399149893949,0.20016943202640217,-0.3782137657964681,1.5393182140670294,-0.17979167616050848,-2.7636169914317024,0.01226927012293879,0.22659156116802184,0.0452047925811059,1.84375
-0.006148150251150098,-0.1025402314679051,-0.13447448007232563,0.5267325189351169,0.04266771196980318,0.019115520958845583,0.05324000521365135,-0.10095178810565919,0.4101379154015332,-0.047445195407413716,-0.7377585437450512,0.0032804208259620948,0.05995082329697064,0.01214029633193732,1.8515625
6.0520508733725885e-05,0.006566272376789584,0.009400249693994608,-0.035719669449392956,-0.003154073135900455,-0.001229889895817615,-0.003633689609790277,0.006569294925231108,-0.027812648435381088,0.0038777110405707007,0.04874039994595434,-0.0002063000903400783,-0.004654230952920677,-0.0006792972398675923,1.859375
0.0018792775321575287,0.03870345635864331,0.051303419660636826,-0.200042476058912,-0.016462397189064202,-0.00720739344856,-0.020160237291315462,0.03797746240010654,-0.15595228927066457,0.01889608858816115,0.2809437178369107,-0.0012236811480817451,-0.023497891803798056,-0.004414634726518765,1.8671875
0.006437690577074704,0.11892835111590924,0.1569123182552347,-0.6131020161037627,-0.05019388795129378,-0.02219609809757018,-0.06201401055483373,0.11694014237975646,-0.4774623758616478,0.05664396669708355,0.8601005304656425,-0.0037849974131349503,-0.07098562669037764,-0.013817412205761225,1.875
0.004598699180019574,0.08664095334753368,0.11435155420990747,-0.4469563486313747,-0.03668449232020089,-0.016191618333062194,-0.04522034850788125,0.08507863020704265,-0.34739619674960265,0.04147009434997085,0.6261719832164798,-0.0027557243258629215,-0.0519122755824967,-0.010022483362917035,1.8828125
-0.0015759371050602976,-0.021882096227949625,-0.028806159814021425,0.11225077215007156,0.008982497564136133,0.004070035225303616,0.011475717319678348,-0.021932264031643608,0.08817801039565627,-0.009608598175145385,-0.15767772855717435,0.0007143704000059518,0.012366671677553577,0.002708605985125838,1.890625
0.003458105400324868,0.06650259394356882,0.08788555250461978,-0.34386083652699406,-0.028235701051771474,-0.012425040988522904,-0.034710808812305996,0.06532023607003433,-0.2678557535842999,0.03205409895414315,0.4809152060534418,-0.002109131536961973,-0.04007988668123711,-0.007720479939511702,1.8984375
0.014373725092413232,0.25822821712697347,0.3410515278227875,-1.3328876979087037,-0.10904025770260997,-0.048243263138748715,-0.13500179069295976,0.2545228970754453,-1.0386127429661578,0.12240381630490837,1.8656066423868738,-0.00824186054101271,-0.15384228985522583,-0.030274409382936143,1.90625
0.010590552452390772,0.1917354526522368,0.2533753984710067,-0.9898964840759599,-0.0810979114538758,-0.03586042736867155,-0.10032470928967538,0.18893188527849036,-0.7711927007288127,0.09111109425581905,1.3858701625182335,-0.006119599812674895,-0.11449944147747002,-0.022433641069004872,1.9140625
-0.0049251752814722565,-0.08088061502199365,-0.10654931793408946,0.4164429662455622,0.033726497273733475,0.0150371148642011,0.04221374759349579,-0.08005594734245523,0.3244384412403595,-0.03730759360114763,-0.5818134518257652,0.002599228981005637,0.047138287029649256,0.00964037490655104,1.921875
-0.011284144240044779,-0.19264610088197553,-0.25418949997836365,0.9928579269790533,0.08078507535594508,0.035927032188043814,0.10066823908953958,-0.19027886737569277,0.7734918765165636,-0.08995345101558258,-1.3881339148233163,0.006176621938071629,0.11344033970426864,0.022773084579051805,1.9296875
-0.005036962604241215,-0.08293824921388265,-0.10925632494319477,0.4265058030151461,0.03451342851846484,0.015465190723601622,0.043225218292940674,-0.08188598236612236,0.3324793493494025,-0.038242052405325674,-0.5957920160007689,0.002666942083726894,0.04839900114319068,0.009855191987670342,1.9375
0.0018868189050207367,0.038716200770334414,0.051558901171680216,-0.20125722315504935,-0.016698013065248284,-0.007230293243749283,-0.02044177749603947,0.03823316868556608,-0.156681073502042,0.019064825400533156,0.28231062843110644,-0.001227370329624157,-0.023713585349857423,-0.004454063663708368,1.9453125
0.004729738911277547,0.08876720020858382,0.11761020219199578,-0.459081235979401,-0.037652977177180386,-0.016562338032617762,-0.04652545770790635,0.08750106222483367,-0.35780132162351447,0.042552887258440385,0.6428295648306996,-0.002829381182807135,-0.0533180286813612,-0.010331656233643249,1.953125
0.0038086598157288684,0.07275128541390238,0.09621341239489574,-0.3759776283048303,-0.0308794500031029,-0.013573505820130222,-0.03805945578409544,0.07150538970102556,-0.29244750289577975,0.034902620639509094,0.5259195959071772,-0.0023173713035283382,-0.04373049804577611,-0.00843095851670425,1.9609375
-0.0023780508049577012,-0.03578711433851096,-0.0472256334628962,0.1841184789522837,0.014755172678413647,0.006692523802939204,0.018672352780472024,-0.035661697744788876,0.14506730569623702,-0.016243777154851535,-0.2584809199878641,0.0011538463778014605,0.020707873271061248,0.004357474990647467,1.96875
-0.01010566230751975,-0.17151859328319197,-0.2263901015081799,0.8844498359960518,0.07193997509280167,0.03204966071291498,0.08962857894040448,-0.16955183130727455,0.6905969724667086,-0.08012388586661726,-1.2376459157067952,0.005498828127118557,0.10123892735503995,0.020333317824386812,1.9765625
-0.012750087015168122,-0.21816044492613038,-0.287926178548776,1.1252496487606753,0.09168918359781529,0.0407481977051705,0.1140626971644106,-0.21550714891207753,0.8765595199805825,-0.10203054678975366,-1.5723137407244971,0.006997031744561873,0.12884297190675767,0.025807618638536055,1.984375
-0.010001340731774753,-0.17016498489575152,-0.2244872199795829,0.8775560089675125,0.07147423902534171,0.03173417714173223,0.08897032954414795,-0.16805330798168477,0.6822239356639257,-0.07938424991755295,-1.2244944027307996,0.005462717099966072,0.1002409208946672,0.020141910910840145,1.9921875
-0.002889269542873155,-0.045316859300394224,-0.059544380818886966,0.23328681195650508,0.01884281970824143,0.008394996130108983,0.023698755270978193,-0.044833412615411974,0.1803735674984373,-0.02059592151303254,-0.32430667700674753,0.001464690873740946,0.026144410703760924,0.005448307080100388,2.0
0.008273516418734334,0.15097722088511428,0.19955608580174272,-0.7792221832082039,-0.06376865406870821,-0.028216616519816676,-0.07881474803948868,0.1487100152400263,-0.6076873886480789,0.07179436029681643,1.0905699499721366,-0.004815388642679102,-0.09019532085646118,-0.017638451198237554,2.0078125
0.01408916721330347,0.25323871219161687,0.3344274878036313,-1.3068664306824878,-0.10683714968099761,-0.04727944003420007,-0.13224194005513476,0.24951758904820398,-1.0181823938211494,0.11996593253713496,1.8284377073218516,-0.008085084024094712,-0.15087119436928298,-0.029669216281496182,2.015625
0.005680328922877092,0.10529190264979461,0.13925307775733353,-0.5445955198652643,-0.044765031939196065,-0.019695328709443315,-0.05512301293084595,0.10373714377656533,-0.42378180644805974,0.050416022197267145,0.7618748925795068,-0.0033567953056985807,-0.06333833370769099,-0.012276825716548876,2.0234375
-0.004676718061764683,-0.07673858698146799,-0.10084538388528515,0.39383698982879056,0.03174421024363454,0.014261215786249582,0.039842639413429484,-0.07569449633459137,0.3078076581654834,-0.035249259732134657,-0.5516378099629449,0.0024612880315258725,0.04456985402705433,0.009132687424838918,2.03125
-3.5259873374986335e-05,0.0052183884942882605,0.007091237167602277,-0.027948245843219272,-0.0025246991462502455,-0.0009890412430826005,-0.002842313083004911,0.004919830197660048,-0.020955020218841314,0.003207279782775553,0.0389986872504864,-0.00015463854959480575,-0.003740594883205396,-0.0004910743289308779,2.0390625
0.009803297602453468,0.1783980379605205,0.23536176149245067,-0.9201768440275887,-0.07517399997412409,-0.033272810813291996,-0.09314852264724001,0.17549098966069868,-0.7168085014142083,0.08462246692997466,1.2887059329427493,-0.005686988381499807,-0.10622015527499315,-0.02084645033879565,2.046875
0.005163046067342997,0.0965304589763472,0.12768713921763883,-0.49870582302138666,-0.04086163427631538,-0.018030215788308806,-0.05049851056555246,0.0949685707220827,-0.38874115703474227,0.046161291737727074,0.6983119333625254,-0.0030753528937814086,-0.05785537001602368,-0.011232425253513017,2.0546875
-0.006640524424989586,-0.11131038689779962,-0.14600190667333235,0.5718769956233527,0.046332648011239125,0.02071986911897451,0.05786054274698013,-0.10964334573941115,0.4459254572843312,-0.05155214265957715,-0.8021081028995836,0.003561175381118928,0.06515609622423034,0.01318182746483845,2.0625
-0.00618804606001361,-0.10312246500279884,-0.1354829672550798,0.5302274196637047,0.04297718347888614,0.019233794821519778,0.05367127202827779,-0.10170511891612798,0.41391947714204635,-0.04776096185345541,-0.7436164384351497,0.0033050667058182144,0.06043501327024563,0.012217349508546513,2.0703125
0.0007872002143544459,0.01997613335678263,0.026003484363224555,-0.10255035921279879,-0.008464811855469228,-0.0036750464969968755,-0.0103069172855985,0.019205145137059045,-0.07975739068385572,0.010004941323732522,0.14576290352201918,-0.0006146948577694955,-0.012285154516537758,-0.0022225670889157246,2.078125
-0.0025182983521445565,-0.038184998581157856,-0.05102738833630231,0.19810104155791952,0.016099330498870253,0.007164906930618819,0.02020123687025197,-0.03825464246370743,0.1535637197061562,-0.017397139053747727,-0.27237960761270313,0.0012498883971663395,0.022158293113682483,0.004647410107916287,2.0859375
-0.008598809138343011,-0.14558917654948772,-0.1920940431773064,0.7505012770969088,0.06097401186323525,0.02714229275799345,0.07610010165556554,-0.1438004894204428,0.5844685987861038,-0.06778046066318848,-1.0477067219912208,0.0046728593390026425,0.0855634375458445,0.017268253204975936,2.09375
-0.0015388262726246415,-0.021710883848286882,-0.028125772226355084,0.11021311203786609,0.008555365471751727,0.004000443904132795,0.01117204278805185,-0.02141195048590243,0.08717349434012321,-0.009330285704353212,-0.15529596526888315,0.0007019335341595783,0.012006295112404055,0.00268065242218894,2.1015625
0.00772865595316179,0.1414603901363461,0.18696466322572622,-0.730829150342,-0.0600065355849988,-0.026424524979840876,-0.07402937577100584,0.13933105487667163,-0.567899968524146,0.0674181074046712,1.021984516564923,-0.004513154299052248,-0.08459351572713565,-0.01649834465414203,2.109375
-0.000266339909187723,0.001195152137729353,0.001499049589603151,-0.006042258475408476,-0.0006633469796272965,-0.0002333285673197534,-0.0005800451246566129,0.0008273326838124633,-0.0050271137896301075,0.0012239311639322655,0.01117006370526326,-2.1205174246722307e-05,-0.0012743862126191475,1.7095355919876496e-05,2.1171875
-0.014363888119464983,-0.24660626246629347,-0.32550915542710485,1.272346292344462,0.10374679488008638,0.046003950100241005,0.12894260512297478,-0.24350471462957582,0.9896955211424089,-0.11551552797104538,-1.7765953985045764,0.007903485978115101,0.14566251719787462,0.02914958944193342,2.125
-0.009220549254474885,-0.15633267091322176,-0.20610308754620682,0.8056835958278725,0.06558199058212928,0.029154686864515177,0.0816899948204817,-0.1543761139860474,0.6272106274383299,-0.07295070861406126,-1.1268596851083572,0.0050109538864138445,0.09205386204022831,0.018501334278986308,2.1328125
0.010851386989298974,0.1962922667733327,0.2596154045460137,-1.0143570872067376,-0.08305748559439377,-0.03665562258067134,-0.10266650567404201,0.19347057391626898,-0.789172887216058,0.09321341491035755,1.4162014294158423,-0.006271655226846622,-0.11713556016750139,-0.022989629919998002,2.140625
0.019106210264144396,0.34122610181816176,0.45109549562893986,-1.7621279022508092,-0.14409158649615986,-0.0637182899994998,-0.1784388077410447,0.3365240924569152,-1.3720924560738017,0.16154431725703877,2.4629360753725105,-0.01090659902258544,-0.2031363128803026,-0.04003730860312,2.1484375
0.007640923698641893,0.1398190088753739,0.18504495437330679,-0.7223280464793683,-0.05915448508098455,-0.026132004970271627,-0.07315579664541273,0.13787677036360788,-0.5634266409387849,0.06664862177955226,1.0113778526840986,-0.00445933757483556,-0.08365344323035578,-0.01634616439896111,2.15625
-0.007538749534242346,-0.12660193174696313,-0.1670163954689037,0.6527256936775542,0.05313679826537215,0.02361278206189767,0.06611622869111948,-0.12511350034011332,0.5076779200523805,-0.05895294509010347,-0.9112543158689135,0.0040647311274927805,0.07445177218501522,0.014993645134188984,2.1640625
-0.013098653942340844,-0.22416769307110349,-0.29579027601272356,1.155599334444847,0.09417254020129924,0.04183722502189397,0.11707151488022947,-0.22146674056840557,0.9004758567176464,-0.10493780189035004,-1.6168106713292087,0.0071807115326581504,0.13231971726631483,0.02646941498810105,2.171875
-0.00801303620121894,-0.13509542443939218,-0.17791019513281522,0.6953322639022685,0.056540101436225856,0.025208671679742296,0.07045455958334763,-0.13342284233663695,0.5423354927730368,-0.06287463933086083,-0.9740228129238518,0.0043289136685080295,0.07938096533416707,0.015986144101957235,2.1796875
0.002740358191151696,0.05362631706793197,0.07103591991096152,-0.27771103495455285,-0.022927944512795354,-0.01001117216076433,-0.02810650903527363,0.052841851290398895,-0.21614432078199777,0.026074881519413284,0.3894832560784624,-0.0016992512742287518,-0.03255835907851326,-0.00619917143945867,2.1875
0.009839189651331017,0.17858691158814832,0.23539411959305223,-0.9208408625443827,-0.07540400088197734,-0.03332145885854575,-0.09320845397604477,0.17582759158192504,-0.7172956598582165,0.084827466643592,1.2916766108313003,-0.0056865988257091115,-0.1065025722211632,-0.020848959051351083,2.1953125
0.006819155292511859,0.1257878604548643,0.16563249834809654,-0.6480875995553522,-0.05311669261128539,-0.02347317952612057,-0.06553478872963214,0.12350442175153502,-0.5043550970354485,0.05987767451670712,0.9093333471750504,-0.004001064681958863,-0.0750926276054754,-0.01460073522227834,2.203125
0.00013663390195505653,0.008200255630612026,0.011043298799281849,-0.04282793050304365,-0.003755033228154104,-0.0015429236478083776,-0.004262351532426832,0.007758192388656638,-0.03256595842303298,0.004607789514525438,0.0601464924703764,-0.00025027721447204443,-0.005495268133485266,-0.0007951779326405631,2.2109375
-0.0019132530528571685,-0.02807987514160648,-0.03650654613343613,0.14332015879136817,0.01138748489536215,0.005231440018503616,0.014507083128507636,-0.027680082899875235,0.11222308813807289,-0.012345646751071082,-0.2006620320689565,0.0009088346169305487,0.0158821205640487,0.003419377637662105,2.21875
-0.004048250319508015,-0.06542513371086082,-0.08620201707077807,0.3366952610070925,0.027217277071223515,0.012205662932793534,0.03407496771451602,-0.064638105613023,0.2624582568352876,-0.030015528303447166,-0.46934047920665234,0.0021100776535475903,0.0381303052505338,0.007805372555362473,2.2265625
-0.010225311304334636,-0.17366062220281792,-0.22938940731845098,0.8959044935704376,0.07295550921671998,0.032380448934305965,0.09076953923708823,-0.17172619261500666,0.6977896279501303,-0.08115756948606495,-1.2509244285622303,0.005572156194639766,0.10245403653087765,0.020561665047484932,2.234375
-0.009819815152984192,-0.16670986467991067,-0.21979791904294965,0.8591334848076442,0.06994713780377913,0.03105813301035256,0.08706594074231924,-0.16476806809985967,0.6691703709041862,-0.0778539602640239,-1.2018102624949436,0.005340252709330004,0.09820343229657845,0.019729597216371433,2.2421875
0.001791694909453153,0.03687776485107461,0.04947677435388874,-0.19263426605871756,-0.01598990633236138,-0.006919953069993715,-0.019490648317348903,0.03642891999461764,-0.14978543286935586,0.01817912178088627,0.2666436031240923,-0.001178600958094225,-0.022754816609771855,-0.004263604729794041,2.25
0.00890653357650367,0.16188397395105442,0.21432477764318464,-0.837208361675615,-0.06861230033709151,-0.03022168084117946,-0.08476627293478176,0.15973791006094903,-0.6516938898020148,0.07702747926913521,1.1686296076864928,-0.005173677168321437,-0.09684195217990337,-0.018968376995604996,2.2578125
0.0027191686406898494,0.05352773895903574,0.07071139021162882,-0.2765078782345591,-0.022779484464786483,-0.010011813439628944,-0.02792799098819251,0.05250730282796434,-0.21527863487281787,0.025837077531193336,0.38739629904580275,-0.0017000177441632756,-0.03236193396451162,-0.006170631497124147,2.265625
-0.001493477936902149,-0.020438519915369047,-0.02709201079051531,0.10568009125217297,0.008407196189125103,0.003767870143079518,0.01077935676530825,-0.020533700701916215,0.08196602808933172,-0.008979106996085976,-0.14531356306322793,0.0006701707293816357,0.011519451291895865,0.002561274473320241,2.2734375
0.005817527223865308,0.10773174217805004,0.1424185591647716,-0.5564423614305561,-0.045704609687626685,-0.020132996297416113,-0.056334708556178455,0.10616137467936536,-0.43380050818114096,0.0515734430508085,0.7799446580976086,-0.003429086194661102,-0.06464813041031629,-0.01253381542711583,2.28125
0.00928038062879828,0.16858476247511456,0.22292101965257527,-0.870768294014856,-0.07131329107879322,-0.03145149339251779,-0.08818535905854857,0.16626438458547207,-0.6784909262080043,0.08026299061983105,1.2187217500686944,-0.005375495359087638,-0.10070721377697359,-0.019713198719843526,2.2890625
-0.0018505127904085243,-0.026602335043452052,-0.034961557627127035,0.13703431906519611,0.01108788232602773,0.004974271749348863,0.01392507448667937,-0.026523633419206338,0.10636805087606896,-0.011843015136979823,-0.18971929422813588,0.0008689173754941056,0.015266420323863345,0.0032531766604338955,2.296875
-0.013056005611792675,-0.22336190174442472,-0.2949151741668743,1.1525477369127888,0.09399551638713974,0.041671203968827994,0.11680632806606583,-0.22074391588605552,0.8973919865794238,-0.10458752113386346,-1.6090658654095904,0.00716328985584111,0.13200045609712438,0.02640854381244637,2.3046875
-0.010481517975955656,-0.1784462079658726,-0.23551786264579358,0.9199543619417353,0.07487841189478717,0.03329766719844745,0.09324275190762367,-0.17626597740872757,0.7169403078623796,-0.08330266623767121,-1.2853418051156427,0.005724799456888239,0.10516828461036909,0.02111713710679291,2.3125
-0.0011225244529356262,-0.01418586581967945,-0.018436506670951248,0.0716494928082621,0.005571270185464682,0.0026675057676253068,0.0073042597227357415,-0.014093214875159545,0.056864473438054876,-0.005862519640929739,-0.10143974686173751,0.00046626395454347813,0.007642563036921315,0.0017765965792028548,2.3203125
0.005083373309946838,0.09508642241195411,0.1258958182804447,-0.49184584867822145,-0.04034502274538046,-0.01773797664300941,-0.049795043510126306,0.09360595925087588,-0.3824054802107216,0.04550039447680705,0.6862813621463626,-0.003032425550921896,-0.057061795793670066,-0.011089650210910226,2.328125
0.007664574004977245,0.14061763292276444,0.18590586867334932,-0.7261461163837956,-0.05944159909387958,-0.02627150331699028,-0.07354936048617029,0.13840649610536696,-0.5656330482066254,0.0668835833202341,1.0154381450483718,-0.004488249213304096,-0.0840167610522324,-0.016438725361413425,2.3359375
0.004548548752109578,0.08567076383958876,0.11326932138095004,-0.44282687359868567,-0.03645445775292071,-0.01602295558510211,-0.044856242068817116,0.08425723508470186,-0.3446988404205904,0.04112719330668012,0.6198294364438935,-0.00272856531707082,-0.051585871659869775,-0.009948395777330149,2.34375
-0.005521717619754195,-0.09151177673427555,-0.12065066561212444,0.47080323621603304,0.03800276226184712,0.017064807323434666,0.04769276167568603,-0.09040260397391217,0.3676339490002523,-0.04221284222157554,-0.6583158814022355,0.002939188850733893,0.05337352694161105,0.010915260650237542,2.3515625
-0.010610472421719858,-0.18087097209261394,-0.23861662658290944,0.932149713187281,0.07576710201771711,0.03374675274922999,0.09444514146260502,-0.17853975931887256,0.7264626817638149,-0.08439495867419687,-1.302750544260479,0.005798087237671838,0.10650918132671787,0.02141927879994248,2.359375
-0.0015118613283163532,-0.02080165094529784,-0.027337824664887374,0.1072677703977762,0.008642966956398376,0.0038618488924120706,0.010948765896639947,-0.020774911378880167,0.0826958113035226,-0.009174361378474558,-0.14754251783566757,0.0006809378343381568,0.011810205047663995,0.0025736214411835453,2.3671875
0.008352108331821982,0.1525778177850401,0.2015488832598766,-0.7870088292577516,-0.0643280022109579,-0.028499673113381654,-0.07958556439938144,0.1501100635227055,-0.613678482827788,0.07246604444503986,1.1024740685816705,-0.004864489916790451,-0.0909902092972787,-0.017815448378435385,2.375
0.004732948977098472,0.08888352892618492,0.11755267850148407,-0.45923557625386147,-0.037733979330152316,-0.016615914244177344,-0.046417846144474126,0.08730400985662136,-0.35677050307616,0.04257111203926052,0.6412276372834758,-0.00283215204418759,-0.05336817613404523,-0.010309803657095704,2.3828125
-0.002438763417661003,-0.037246109311033504,-0.04886846446487154,0.19083143766848057,0.01525121448287459,0.006910897233529349,0.01935308563406792,-0.036932007396910355,0.1501251177806972,-0.016786988526304003,-0.26885791882937443,0.0011990942624568648,0.02137954252988636,0.004515738112586682,2.390625
-0.0008636838187610991,-0.009566025967478844,-0.012337785386561401,0.04834025062686561,0.0037224055700303908,0.0017481396804443097,0.004900665542958345,-0.00951063395201549,0.037944433402485676,-0.0037825633468237655,-0.06707654224496819,0.0003181791822018795,0.005067958766856206,0.001238034593166044,2.3984375
0.0018826493868956936,0.03881707466845962,0.05144316611332034,-0.20074623720771886,-0.016531384722548604,-0.007251879117806192,-0.02031282407175478,0.03815462291407559,-0.15693578161741498,0.01901117005843249,0.2837062490477076,-0.0012232167668182984,-0.02357367698704095,-0.004453043507436921,2.40625
-5.961914431999713e-05,0.004756793226750681,0.006374047252543374,-0.025096621985165407,-0.0022604846659951376,-0.0008780572367073802,-0.002544121800885811,0.004495950615354302,-0.019645713652023403,0.0030327718647363217,0.037624113427264634,-0.00013282293935118985,-0.003478484594993937,-0.00043686929540967415,2.4140625
0.0015600071817099249,0.033078191990450936,0.04372580115630852,-0.1715931976860471,-0.014286397418506224,-0.00618288091584,-0.017400146376470683,0.032517843362315564,-0.1334150127770906,0.016398865431390013,0.2407613058746551,-0.0010410532015854203,-0.020400898661674754,-0.003781905267222971,2.421875
0.003927728758130192,0.07453337625494284,0.09856899125905569,-0.3856420861928739,-0.03171049299859459,-0.013938931485362639,-0.039025266638342285,0.07348642744216165,-0.30085349573983516,0.035882454505439025,0.5393133213573436,-0.002369398877677302,-0.045016640188913305,-0.00868571855027396,2.4296875
-0.006270771839240969,-0.10453818744525817,-0.13764049534057424,0.5382591977339906,0.043780357457846704,0.0194912061740986,0.05460188284738349,-0.10325667953943839,0.4180668630811544,-0.04851296204511783,-0.7525012757525145,0.0033553133906637353,0.061219683730634446,0.012373194145136601,2.4375
-0.018781803219638897,-0.32411427463525727,-0.4274706222537026,1.6712881867666902,0.13626687775313895,0.060480733618327426,0.16930961898678215,-0.320004900202833,1.300787851837347,-0.1519562495221287,-2.3362830884638828,0.010376384561634106,0.19149588800362238,0.03822622904977837,2.4453125
-0.009858065214597145,-0.16733636305817168,-0.22058427827654373,0.862659541411381,0.07020213360987841,0.031206797659383882,0.08733466791585906,-0.1653430147377046,0.6717266468755179,-0.07809357160177761,-1.2049387255777142,0.005362495310714095,0.09856457197652126,0.019814280592081877,2.453125
0.012371567525773921,0.2229841556713132,0.29476144396136095,-1.1512571935895481,-0.09425175566576838,-0.04164415225524248,-0.11662653313808063,0.21981405231881943,-0.8960584532917855,0.10580698491662578,1.6104929839706936,-0.007121703177741121,-0.1329125812682063,-0.026085538833757964,2.4609375
0.017181004480947434,0.3073970747540612,0.4063351422170341,-1.5871725727618677,-0.1298526615578476,-0.05736626534226517,-0.16071173142191608,0.30311551491194205,-1.2349727036391858,0.14559476617108913,2.218258931507133,-0.009823237119000135,-0.18297778168651965,-0.036017831450773724,2.46875
0.0009218772585784685,0.021925079121833245,0.029220977518310248,-0.11408365692267838,-0.009555554797739759,-0.004056614840844819,-0.011469531489977512,0.02136518125746511,-0.08754894367925421,0.011065627290050416,0.15823510667692778,-0.0006897106888702112,-0.013611217669793963,-0.002435907103197975,2.4765625
-0.012170761919153608,-0.20794354643889415,-0.2748462887907929,1.0728748735904337,0.0873939705877003,0.03883354926197279,0.1087991436492312,-0.20558798512636994,0.8365913874152846,-0.09731386568586005,-1.49940406717022,0.006670634380983184,0.12280145047068224,0.024626060975112614,2.484375
-0.008174623003645333,-0.1377701950279241,-0.18248257492679518,0.711305169295393,0.05787099707334372,0.025707880633555755,0.0722379289013405,-0.13644802030195166,0.5548163052667981,-0.06429471143241572,-0.9926308753516301,0.004429040014042988,0.08117615960474281,0.016391836273604615,2.4921875
0.006737844603274323,0.1241902523667517,0.16372746613073041,-0.64085482638651,-0.052539742089370615,-0.023188566206892275,-0.06473940855162442,0.12204482096214883,-0.49824631572768174,0.05913440488897621,0.8966344947104072,-0.003956700531765559,-0.0742520031391711,-0.01444258268779592,2.5
0.01831207041815321,0.32757152627540714,0.4327452269875642,-1.6909408938685808,-0.13825519140750325,-0.06114501803734651,-0.17121963101034698,0.3228503951064827,-1.3163358483095404,0.15498150611103814,2.363414939423618,-0.010468587842010183,-0.19490074758166565,-0.038416465903770874,2.5078125
0.01142262797413676,0.20642887066921126,0.27297087299660117,-1.066166365749699,-0.08726042024975236,-0.03856613019227092,-0.10802953376341834,0.20354427587701795,-0.8304791517913759,0.09798287080094753,1.4905933079652844,-0.006592477517934253,-0.12310648305263446,-0.024199720691253514,2.515625
-0.012326285686366777,-0.21106061905593537,-0.2782578482889972,1.0877388461022912,0.08853291839675181,0.03930541605092701,0.11013137559970472,-0.20814868549836407,0.8460578786088656,-0.09859109619996444,-1.5190217239783597,0.006765185544688553,0.1243611535346136,0.024903393638187547,2.5234375
-0.025657494253075664,-0.44535870709083264,-0.587549919568072,2.2964697358944726,0.18723093551967057,0.0830259210861312,0.23256162301164823,-0.439246571752392,1.786729622200662,-0.20893379760076886,-3.2078935350760966,0.014260001094155187,0.2632570883119896,0.05246027303499783,2.53125
-0.011389650048431397,-0.1945403939055882,-0.25630908783605927,1.002447785775049,0.08165099212278787,0.03625648587835608,0.10145124090352,-0.19189219719490383,0.7793177435933167,-0.09082170884643602,-1.3991676932740378,0.006235848847275336,0.11461388546893073,0.022959409507834812,2.5390625
0.00896626179850999,0.16316189265036568,0.21598668734815646,-0.8431182227928997,-0.06907389398444795,-0.030458358713543653,-0.08549360346128618,0.1609161199476933,-0.6564868217736208,0.07768919207442143,1.1794846095197993,-0.005207216700703118,-0.09744561396423046,-0.019090112781688047,2.546875
0.011203653475464872,0.20238933858513594,0.2676913936942102,-1.045670868368208,-0.0857172587565404,-0.03776564140928251,-0.10594361224059064,0.199597071279531,-0.8131999590879024,0.09621190303238315,1.4615333756089623,-0.0064628358968013035,-0.12077396860307177,-0.023676784806230262,2.5546875
0.004821685321230767,0.09035925923015452,0.11949542439888008,-0.46722172248824206,-0.038413662261955014,-0.01685530750226719,-0.04725958928569269,0.08894834540900547,-0.36327744440116305,0.04334960601766104,0.6533745514714003,-0.002877317131006769,-0.05432655234424687,-0.010496180031515064,2.5625
0.004608815304101099,0.08695986705613377,0.11461102098431056,-0.44854118303418344,-0.03669760803245301,-0.01620807737447737,-0.045301519265196384,0.08529435422588255,-0.3493704206946114,0.04153734658164246,0.6279544170366197,-0.0027649023977150424,-0.05211376922909625,-0.010090851227979696,2.5703125
0.0018925956130135296,0.039394154703424104,0.051665222397510556,-0.2025251506526423,-0.016629238852645407,-0.007324683361085105,-0.020362559432277303,0.0381832698636411,-0.15699202325229633,0.019040562110201345,0.2831332270392409,-0.001244277502911868,-0.0237854921704527,-0.004463843055888201,2.578125
-0.008447473016087519,-0.14253977255473282,-0.18826179705287482,0.7354918968728483,0.05974959157424306,0.026609531522887003,0.07461696528371066,-0.14110625652110484,0.5742726620905074,-0.0665281256186331,-1.0290744153324365,0.0045702318993089104,0.08395849825790126,0.016952478099559767,2.5859375
-0.010162095384708036,-0.17300270263345166,-0.2280984124923132,0.8916336522566469,0.07244798128761347,0.032275408081309236,0.0903755892926005,-0.17078067330989566,0.6949374067280208,-0.08070090999401454,-1.2463816520878546,0.0055437223652111,0.10182286542504992,0.020495752979418257,2.59375
0.002450766400781457,0.0485490338927777,0.06457507104607785,-0.25192981176510404,-0.020760556134767322,-0.009063606688690174,-0.025485518477762304,0.04796292615013271,-0.1969814646822484,0.023717885093432034,0.3532631973498324,-0.0015389239728696024,-0.029586951351590316,-0.0056248395205578654,2.6015625
0.010036026318770132,0.18193630003778344,0.24068502802574532,-0.9401758041570066,-0.07686807804862598,-0.03395603711346534,-0.09520212146501614,0.1794831580552648,-0.7330715769377808,0.08651585360314966,1.3148704963091995,-0.005804461806485509,-0.10862977680265241,-0.021338827654102072,2.609375
0.0015378400393931011,0.03268147937693924,0.04353939933258108,-0.1698213965607128,-0.01404503368140688,-0.006143222473901888,-0.0171873293351308,0.03211832827513569,-0.13270463248510012,0.01615254202345263,0.23814027135239932,-0.001033048863432597,-0.020095528584621918,-0.0037599816203845054,2.6171875
-0.008858014778631799,-0.14991845651263208,-0.19784472540289602,0.7730302750419851,0.06288200084273031,0.027904515580427752,0.07832448964656996,-0.14816008743644057,0.6018493101306387,-0.06993444448432055,-1.078270245068804,0.004808649601774967,0.08826212055456314,0.017769783488650173,2.625
-0.008295559001059124,-0.1399299529043321,-0.18498811601385493,0.7219915849779919,0.05872708716340009,0.026086627317928154,0.07322858515675953,-0.13846353852589863,0.56298302298433,-0.06526938465810563,-1.0072950423251659,0.004493334546195698,0.0824585267588772,0.016640872105089556,2.6328125
-0.0027417243529452066,-0.04236737951467808,-0.056038850756965526,0.2180214894795748,0.017546864771874112,0.007940598778754849,0.022219926098428197,-0.042183060373752745,0.171484247452901,-0.019242037864284217,-0.30584811307212295,0.0013716562691361203,0.02457464844930769,0.005156890885095243,2.640625
-0.0009588771780347434,-0.011200059270439084,-0.014395473917759936,0.056352852920486786,0.004292625527991112,0.002100919083662869,0.005753049268001245,-0.01118439844114828,0.04496178249838426,-0.004455242394878712,-0.08081717729821085,0.00036949016573761004,0.005918725912776888,0.0014321954217862917,2.6484375
-0.0005490893731646061,-0.003990403250887826,-0.004817010872761819,0.019572207206236904,0.0013251734596025828,0.0006857180401068445,0.0019333549171896731,-0.004013726887045066,0.014812211914102865,-0.0010912034308035376,-0.0265193465098638,0.00013885129784698016,0.0015966888171393002,0.000555759887614423,2.65625
0.003916227718753035,0.07468847216635437,0.09861274466756076,-0.3853028321378294,-0.03165590100311436,-0.014004575285186033,-0.03902684454132988,0.07331313509369014,-0.3005397476291269,0.03583780540629982,0.541236187108727,-0.002373529889044775,-0.0449360466677223,-0.008665323119732027,2.6640625
0.01006843651972749,0.18279943853908784,0.24133170078592475,-0.9435094533797835,-0.07725463567028289,-0.03413475077284264,-0.09551580458903047,0.1798699907576558,-0.7341898759016346,0.0867744731144136,1.319305165754865,-0.005833518203880268,-0.10904727818082548,-0.021369768947828608,2.671875
0.010437940772728806,0.18897305135025205,0.250112023632377,-0.9770374914412229,-0.08008630078121508,-0.03527426265343591,-0.09903865163440108,0.1863755291268125,-0.7603228000151208,0.08986999201574156,1.3640810364179792,-0.006038017524029769,-0.11289741183498057,-0.02214798940351625,2.6796875
0.002881477070304685,0.056054163358123375,0.07478823830825763,-0.2914425073585169,-0.0241140925482083,-0.010483626345960147,-0.029719231396097584,0.05555197796419848,-0.22736357110091374,0.027325033150158606,0.4076734954090053,-0.0017852734787369708,-0.03410138191266561,-0.0065335416826917524,2.6875
-0.005463226868419788,-0.09029539232173178,-0.11917734086823262,0.4656635576946393,0.03782114248576342,0.016840369789646103,0.04710590101306158,-0.08915510797021828,0.3619816302421775,-0.04180639549335998,-0.6471365918648477,0.0029067392508507982,0.052949917258753615,0.010753269468823127,2.6953125
-0.006583526928945027,-0.10981143967310793,-0.14539143246508318,0.567685853665183,0.04624073305634639,0.020495230544290238,0.05767437848769838,-0.10879313545945314,0.4416204174483112,-0.05115411960408982,-0.7891494899090838,0.003535921403394184,0.06467784347169489,0.013108578616857124,2.703125
-0.0019750512428720526,-0.029140040290953188,-0.03825687600950931,0.15010647999254262,0.012099254242808754,0.005416593694423643,0.015389464768804576,-0.028979978081309442,0.11616956188622946,-0.013024105760382562,-0.20816894067927577,0.0009470915699521761,0.016621009902646765,0.0035731163404193974,2.7109375
-3.069472650218339e-05,0.004764285736325896,0.007119591404121017,-0.02662651922965955,-0.0023997813642027276,-0.0009161150066466376,-0.002622122292715576,0.0048345639567062655,-0.021372538175568306,0.0031101163469091473,0.03592159993349247,-0.00014605619364235786,-0.0037131078170223593,-0.00048219180988097216,2.71875
-0.0037715614328908587,-0.0606498639209806,-0.07970864019706582,0.31148429254268195,0.025262713108899066,0.011342113159042084,0.03167926359891996,-0.05995039042553689,0.2429514025779081,-0.027827462363756654,-0.4371508395516859,0.001949761364288238,0.035232571744743854,0.007236951426200721,2.7265625
-0.007109687766529631,-0.11881090094665317,-0.15725636576884552,0.6134129644085374,0.049998703483805335,0.022225182316975057,0.062367589117232176,-0.11784770912725638,0.4788149006867506,-0.05544788982346228,-0.8574903621752606,0.0038181262314215406,0.07001542335084775,0.01414495075566754,2.734375
-0.004771130309809563,-0.07774075450503304,-0.10285189109790228,0.4014032794429736,0.03259686562282694,0.014511201056687,0.040769508020481585,-0.07727352163377128,0.31350864172994863,-0.036029320664709506,-0.5603483775700466,0.002503213674564286,0.045616236242128724,0.009309869328895739,2.7421875
-0.0004989426911906909,-0.0030915440256229507,-0.003512026160318115,0.014244883374459423,0.0007925755079439855,0.0005282691319313001,0.0013381131299087783,-0.0031169540591505862,0.011819324867673188,-0.0005757941280121608,-0.02087988372935357,0.00010740580789166538,0.0010420498221213462,0.00046652822178678893,2.75
-0.000627887863581096,-0.005512649291039204,-0.006554172353826766,0.026001481415911246,0.001733469848158708,0.0009972521282163645,0.002539398656000114,-0.005356034577226677,0.02104868175611021,-0.001638852434467284,-0.03849951073504811,0.0001838188274945775,0.00238152102093733,0.0007271332362536947,2.7578125
-0.002998305365378942,-0.046917037979467266,-0.06186104966263846,0.24127284332539964,0.019471750169052112,0.008752367924729491,0.024484135964394117,-0.04655491524773368,0.1882438284938973,-0.02135420945968034,-0.3368800099055393,0.001516804485477027,0.027146145605639525,0.005634066067232585,2.765625
-0.0002710482637551919,0.001151341007371817,0.0011602116442755244,-0.00532026498169071,-0.0006059282001310413,-0.0002483443033808258,-0.0005202427472501383,0.000656841848407619,-0.004407348862209093,0.0011484893664145041,0.011297608589910565,-1.54582411803792e-05,-0.0012162782908508797,1.4811379431938669e-05,2.7734375
0.006676368616783255,0.12299267214667545,0.16237487063643785,-0.63480601370445,-0.052128014697883834,-0.023028994608294624,-0.06439453468107664,0.12109338293893608,-0.494386826006114,0.05865458480544515,0.8905795182300269,-0.003919152687681235,-0.07359713937859064,-0.014324256013767581,2.78125
0.009005865207079643,0.16366717736732206,0.21664795061097092,-0.8461959183595661,-0.06944422956964977,-0.030602751114765087,-0.08574854643321388,0.16148312698153913,-0.6584393335092718,0.07793975721052195,1.1824544419347183,-0.005228960310542857,-0.09786470560166916,-0.01913689411589657,2.7890625
0.005081531252775078,0.09483132152935905,0.12575581692360682,-0.49088982332968983,-0.04030533406440858,-0.017705297667891442,-0.04961428485222303,0.09349208174753178,-0.38199280096800187,0.04544595563146926,0.6848736281806765,-0.003025532583614923,-0.056969283257702244,-0.011054153537298743,2.796875
0.0028705581514307313,0.056305551818104344,0.07438321426379592,-0.29072334119616794,-0.02384234796182233,-0.010497878839644918,-0.029332467200531873,0.0552330949571584,-0.2267887589267566,0.027160925830317303,0.40767333200695277,-0.001784325946035417,-0.033955349692932936,-0.0065110403263287184,2.8046875
0.003926700146133604,0.07493129659629834,0.09869698247772887,-0.38622847417018547,-0.03166495622606016,-0.01399016410722075,-0.03905996291269096,0.07351457416793061,-0.3012264647456077,0.03591160474903661,0.5425444874218768,-0.002376897009270365,-0.04497669632105458,-0.008677041814798996,2.8125
0.0004206960464366214,0.013103021759334034,0.017310674624763097,-0.0678851693388424,-0.005733928401205335,-0.0024536258911059304,-0.0067670961492065276,0.012613295823969783,-0.052928320056558356,0.006856887627266138,0.09581919975620717,-0.00040411485032777983,-0.008412259707753516,-0.0013914726660970054,2.8203125
-0.007051270205765813,-0.11830830032766598,-0.15585499812516312,0.6094324546727709,0.049569226252368516,0.022093873925991384,0.06187454148551728,-0.11691306129441809,0.47469014865032105,-0.054981748039634896,-0.8524051647927592,0.0037961954943174733,0.06947096418711851,0.014051485195083932,2.828125
-0.007051903060180778,-0.11818560908274384,-0.1556596247012691,0.6087676538371222,0.049525475566048915,0.022082647544149365,0.061703432890451076,-0.11674170329252569,0.47414673726507583,-0.054888326309521465,-0.8505140972653993,0.0037953490350784115,0.06944099657209411,0.014012524375564927,2.8359375
0.0005980474422968991,0.016307664432132322,0.021794963748182218,-0.08496146625573825,-0.007153703738300121,-0.0030431871907771295,-0.008663717554216792,0.01596076262107574,-0.0660699375000943,0.008478186442469116,0.12042384028123676,-0.0005049240154141683,-0.010316438672727348,-0.0018127573108591062,2.84375
0.0006247949016962865,0.016588322072174044,0.02222464773893735,-0.0865636513764457,-0.007347124521641948,-0.003141940435603795,-0.00880138329522304,0.016296946088394063,-0.06741410296862944,0.00859955138140294,0.12208179768566181,-0.0005190445468517885,-0.010588525780688744,-0.0018379289124519917,2.8515625
-0.010635016285353875,-0.18146489133296317,-0.23903031628599622,0.9347919768213325,0.07600335261096645,0.033796494844661365,0.09467658755247298,-0.17897884101044195,0.7277608065069981,-0.08469273549026875,-1.3070898820178052,0.005809802757848332,0.10675974594300745,0.021448596152943773,2.859375
-0.015379728982060038,-0.2647695217340908,-0.34893347185999213,1.3643261659790036,0.11109847134831907,0.049368438836080886,0.13815220571409997,-0.26113407991859566,1.0623035896116175,-0.12391520823792798,-1.9080708479126678,0.00847521852714077,0.15619620144674506,0.03122906460046158,2.8671875
-0.0035964935479693575,-0.05745305429614158,-0.07555946637449067,0.2953480404848787,0.023911805164202167,0.010727084403087138,0.02991999048654549,-0.05683738064670582,0.23018582997573278,-0.026306753676759904,-0.4127274902116594,0.0018512134232225677,0.03341829601879129,0.0068642346743804485,2.875
0.009125258143650736,0.16631418679740587,0.21930239889707207,-0.8578081921161389,-0.07017506316129046,-0.031013413679399856,-0.08677210479609318,0.16354554189262163,-0.6674786762800724,0.07897406027431103,1.2011395455422305,-0.005299638250761768,-0.09912916409609628,-0.019397653316512973,2.8828125
0.007648340223211464,0.1403808937173347,0.18490271479629988,-0.7235362430886668,-0.059265903983777644,-0.02620061385678452,-0.07317781809362735,0.13785832790621758,-0.5627576501801281,0.06672787173502365,1.0140568396966174,-0.004470169874417217,-0.083774688132771,-0.016324617958776468,2.890625
0.0009194907257010791,0.02191880960954306,0.029052680911610774,-0.11367587345325594,-0.009575492362408681,-0.004127516850758438,-0.011513295151924402,0.02132076343168509,-0.08797047777716249,0.011090002649410395,0.1595925005331644,-0.0006873824167587424,-0.013735099083376176,-0.0024425717611554396,2.8984375
0.0026947701471761436,0.05285789997311655,0.07049659746213209,-0.2748069981573135,-0.022741344362394837,-0.009901799040713088,-0.02784272724367448,0.052181959957288415,-0.21384004380583,0.02581614636247659,0.38257388226674344,-0.0016826318080224044,-0.032251938405357054,-0.006139347801426055,2.90625
0.0073568587946567,0.13486409312347847,0.178559135137904,-0.6974113069958037,-0.05716351273203101,-0.025176015790909306,-0.07054256256145583,0.1329542408120835,-0.5430670558037987,0.06434136398674249,0.9737629431850332,-0.004303891779752188,-0.08076093719924754,-0.015768510359239585,2.9140625
0.003829189930694265,0.07327037225014299,0.09649791062325601,-0.3778750890814601,-0.031016711332411916,-0.013652953192752865,-0.038115832560938756,0.07177252991616004,-0.29367436695496313,0.03508035037358995,0.5289162493050868,-0.0023274680129944424,-0.04392420036277876,-0.008462086353329474,2.921875
-0.002598032137899041,-0.03955255839967756,-0.052665063113381316,0.2045315998468943,0.016525986299843146,0.007404294621510577,0.02085721544741501,-0.039618000705862404,0.1603972931878964,-0.01812585256733817,-0.2853536701865034,0.0012826455568839268,0.023080258609830477,0.0048231564294284966,2.9296875
-0.0013001728339198642,-0.017188967788929106,-0.022554509080580626,0.08762079473741188,0.0069546591158650235,0.0031974667860821706,0.008975592956846388,-0.01715541505265235,0.06878923714689,-0.007405297304007382,-0.1232113630837342,0.0005619656029528776,0.00957345606609174,0.002143753533999991,2.9375
0.0040195845611293735,0.07589003284760584,0.10079943053413298,-0.39352765947328106,-0.03234857368835072,-0.014224403385790303,-0.03983178176371481,0.0750046552669498,-0.307022013341887,0.03659244774319722,0.5502061550927962,-0.0024185483672438867,-0.04584438934482367,-0.008842166577938189,2.9453125
0.0032706960674435794,0.06296741800915723,0.08344791196981644,-0.32582652754160596,-0.026843779087028907,-0.01183380064286951,-0.03306036948060547,0.06207593503804572,-0.2544040053846171,0.03043812545067488,0.4578747620099919,-0.0020008366317105473,-0.03806384640915878,-0.007299303853117272,2.953125
-0.0032632255447352554,-0.051353699576958775,-0.06797487826275235,0.2653194517223577,0.02141329510657122,0.009539474403346002,0.0268111785734085,-0.05107311264609023,0.20673926927873587,-0.023539581208837198,-0.3678822268909557,0.0016622814058184759,0.029970100654422297,0.006186913454927653,2.9609375
-0.008358578414436425,-0.14085858879116872,-0.18602376859683728,0.7269158737784218,0.059133212274568546,0.026300356671276198,0.07362222719379184,-0.1393359426115556,0.5661159700217298,-0.06566616554648769,-1.0141590257575372,0.004526049297081351,0.08304418588304546,0.016706615993729433,2.96875
-0.008243802966973569,-0.13920613519836222,-0.1832339808012143,0.7172670328335418,0.05839024010741154,0.026003546608309988,0.0726438757261259,-0.13732118524564219,0.5573965939393655,-0.0647436510126809,-1.0010063161117604,0.004468290856294639,0.08185631253255325,0.016468671332495934,2.9765625
-0.0035868764018003978,-0.057578338107049126,-0.07511080429265679,0.2956114973385989,0.02395650694353176,0.010734279233481558,0.029892472294335348,-0.0566185224709711,0.22863291514421225,-0.026230842288741864,-0.4113402881700013,0.0018515297294456191,0.03330438673757624,0.00685395834261583,2.984375
0.00039875261654092177,0.012484396153476369,0.017226179521517778,-0.06565884742855169,-0.005627978152098109,-0.0023680516131337924,-0.006686840398648026,0.01232838923121719,-0.051459995432151816,0.0067441247793636454,0.09307353410565897,-0.0003926363224565007,-0.008300590775496369,-0.0013538363363883453,2.9921875
-0.0031753733335440145,-0.05034649551124279,-0.0660056654200614,0.2584476645971066,0.020726571505254202,0.009372863247802173,0.026174777770660594,-0.04977909417318397,0.20234961470747365,-0.02284625446196,-0.3612223328875568,0.0016169109665882134,0.02887686942539573,0.006061204656170959,3.0
-0.010252517993490518,-0.17471903742706946,-0.23032676859045015,0.8996854464887801,0.07307339028816376,0.032620042424597005,0.09113007754983377,-0.17242754514821382,0.7021160420953838,-0.08142336178714563,-1.258922332217638,0.005596395210808566,0.10261974701509913,0.02067178623146541,3.0078125
-0.006593548604853593,-0.11020320646488521,-0.14532378294977003,0.5669555021236562,0.04603944078837606,0.02059666365871687,0.05750398874813481,-0.1088826110935608,0.4428207806220458,-0.0511615693353579,-0.79516294628561,0.0035350859412429,0.06457308722337118,0.013060882123021022,3.015625
0.008392962461285146,0.15341736510520973,0.20234151450702795,-0.7921054461618775,-0.06476742483625994,-0.028624214806118806,-0.07999751771067105,0.15088435486967297,-0.6159635680960291,0.07280703064096285,1.1046910390036209,-0.004892743207003926,-0.09145116272488958,-0.01793112227715704,3.0234375
0.01680122344611925,0.3012497442895725,0.39722769302776145,-1.5537581788572046,-0.126908470911145,-0.05625615019672164,-0.15711299049814373,0.29656914634855014,-1.2098858045398195,0.1423541920618071,2.172085138114068,-0.009616149571616158,-0.1789583405631814,-0.035286032591882135,3.03125
0.011614047083521664,0.21013509268260153,0.2769734571700379,-1.0833586260781147,-0.08854410169161046,-0.0392674223133054,-0.10961172639640751,0.2067273470748135,-0.8440832758569462,0.09948470113251554,1.5174002494622607,-0.006699821305654519,-0.12491296112830076,-0.02455224972944563,3.0390625
0.005825801515154562,0.10853772747611072,0.1430163083436894,-0.5594719319716485,-0.04580986152430498,-0.020276029153936406,-0.05662627731375538,0.10648404677433103,-0.43566362580067874,0.051686055157210475,0.7846830426187492,-0.0034523358921813153,-0.06469781337348991,-0.012599377070649086,3.046875
0.0036080454516586088,0.06946795368511732,0.09162318800572486,-0.35864860576084645,-0.029480765465552675,-0.012949507124705318,-0.0362202405845014,0.06797927108882101,-0.2786011425007504,0.033377100291337815,0.5012396346769872,-0.0022058380800736794,-0.0416886562601713,-0.008013146088035312,3.0546875
-0.005512839252716343,-0.09124858697653145,-0.12015387998140396,0.46924909578384627,0.03795911729255929,0.01703572350350614,0.04759191498460903,-0.090159328577178,0.36604751349524883,-0.04210798886182228,-0.6573687901786426,0.0029315758873338445,0.05329873771930783,0.010852521331445795,3.0625
-0.01644581404786007,-0.2836991433318081,-0.3737305141812873,1.4612865528201928,0.11883402351455334,0.052910760358046996,0.14785895060442705,-0.27954236882487277,1.13816054517794,-0.13258871464043734,-2.0426948536019793,0.00908331492944249,0.1672183590316911,0.03344726436477284,3.0703125
-0.009738756548112354,-0.16574276126899473,-0.21798940014017998,0.853535354290155,0.06929726078353501,0.030866963825778287,0.08622768233399031,-0.16326480892048553,0.6646292488987833,-0.07713465365889567,-1.1905234141007774,0.005309344537360671,0.09738829431241403,0.019584874643168146,3.078125
0.009745259200542002,0.17681662747859925,0.23377277269786553,-0.9122616570541826,-0.07466943445172454,-0.03306441735639098,-0.09244025577519417,0.17421590017767016,-0.7108776721280405,0.08399235077902789,1.2795212680936443,-0.005643405073439506,-0.1055515836056326,-0.020661065118915925,3.0859375
0.013553141662755057,0.24364549118684223,0.32181374112225014,-1.2571570705483706,-0.10276520258732208,-0.04551235894238635,-0.12723415058871773,0.2400804404373992,-0.9798276116668556,0.11546213013975112,1.7605732979305297,-0.00777798117627281,-0.14521822809821128,-0.028524168850353675,3.09375
-0.004451905456206525,-0.07284031285266551,-0.09561117885237626,0.37398406277660645,0.03029244502196017,0.013591986605168443,0.03790021458372768,-0.07176674014862544,0.2909137548879855,-0.033432298468890974,-0.5230631487559118,0.002341208845843873,0.04230894971604883,0.00864827558059776,3.1015625
-0.018984711820693428,-0.32801916648252355,-0.4322818077212187,1.6899896848801101,0.1376797698788563,0.061241934997931215,0.17112641325663888,-0.3233980960981428,1.3164583900820346,-0.15359887524804058,-2.3648599767567156,0.010499668531585965,0.19367729992751598,0.03864825570168229,3.109375
-0.014400175417569707,-0.24717008623845366,-0.3259940401561474,1.2744559095747132,0.1039005238474228,0.04614180384277586,0.12914139157852847,-0.24399275230086864,0.992281660036617,-0.11572223728203505,-1.782002079533773,0.007918252637690892,0.1459615592296286,0.02918371955545976,3.1171875
-0.002324624689208367,-0.03488116997924675,-0.04627124917606148,0.18069461835678202,0.01477721287736459,0.006502200465472488,0.018460458799005448,-0.03486589356728152,0.13940143565708044,-0.01591687876371182,-0.24970086583822654,0.001135226947919643,0.020243359252090323,0.004246438795419271,3.125
