AF3,AF4,F3,F4,F7,F8,FC5,FC6,O1,O2,P7,P8,T7,T8,time
-0.06504272829369716,-0.006906483429570941,0.009722034525618421,0.0047048802181829125,-0.0023752369248161284,-0.004405062118800347,-0.002490053920184616,0.09029400596102614,-0.0015563454413155917,0.18042234717358055,0.015471849097712766,-0.26127103956341874,-0.0008630689869176868,0.04860275473606552,0.0
-0.0970795580238837,-0.02822713130327357,0.02741420270641336,0.01267673892584814,0.01050546261086346,-0.014039849327863733,-0.008247396783919714,-0.6290300590102171,-0.005633019831119534,1.1812482125409518,-0.019956767527836636,-0.5021453579315001,0.015552285219207687,0.06243565982317428,0.0078125
-0.16973343995940765,-0.0347857039343266,0.03801384446602991,0.017031013781615117,0.008652183772173213,-0.018255528057835247,-0.01161455622010824,-0.46486715646548815,-0.006496783309373861,1.3088310995953665,0.002391025425750404,-0.8097320367058768,0.014675538717668538,0.11998493165737527,0.015625
-0.09045263148725784,-0.015606998697737505,0.017624583793845586,0.008261247039142617,0.0013195495288751966,-0.00861130345041494,-0.005235063232259631,-0.1028529760580959,-0.003104273827607625,0.5316334953199813,0.01000507582288539,-0.4247416810798766,0.004190716195352969,0.06848348935425203,0.0234375
0.0239077976367206,-1.3085382208951296e-05,-0.003015764493448884,-0.0003439590934383606,3.5179099292159946e-05,0.0002121665469052568,0.0012156765435332112,-0.11875237862410824,-0.0006534571764697566,0.04814687942323442,-0.010675690484778592,0.08012189724729078,0.0004649182878772044,-0.01659222787663142,0.03125
-0.014521707870010532,-0.00980017217436589,0.007249276851084548,0.004144919005881808,0.004084321553375077,-0.004666844701502829,-0.0020326811812244406,-0.32289606696827194,-0.0023953123519501896,0.45749206026280825,-0.016418902214966596,-0.09983691073603064,0.006171471289758666,0.0062113243418591094,0.0390625
-0.10671104405107831,-0.026248411355829955,0.026561021681328432,0.012389957736491812,0.008085390198827844,-0.013348423067720272,-0.008194596834760412,-0.47993192893685394,-0.005141148817192104,1.0463060004953226,-0.009750696899824189,-0.5238585534485907,0.012805536695380025,0.07076814724031451,0.046875
-0.11776366847734698,-0.027071296234052838,0.027839350577631337,0.012874298327379864,0.007525067144279608,-0.013798041388606555,-0.008661298184286802,-0.43677619163398707,-0.005219912852822944,1.0425136374285753,-0.004979652403720045,-0.5795873369131789,0.012295722647596945,0.08081229511089105,0.0546875
-0.14371780366511905,-0.022367057504220467,0.026664188944464772,0.012038763979628175,0.0016780005843665526,-0.012276732299263508,-0.008127481100704723,-0.07962996646477474,-0.004116905700448894,0.731573048203259,0.019819996837170815,-0.6466560493492907,0.005620792454190791,0.10534014486411818,0.0625
-0.20495220565118968,-0.027154855613080064,0.03539667980338637,0.015540684194440928,-2.59652275944429e-05,-0.0155591800508898,-0.010694177332329828,0.06413794845649544,-0.004735850427928457,0.828230901914952,0.03789793079498997,-0.8822437191331072,0.004726421173631147,0.15063866003670964,0.0703125
-0.06485430214238737,-0.023223675273140548,0.020852781566273956,0.009948813308273395,0.009585213273233854,-0.011220602129780419,-0.006320600535134899,-0.6013988443520728,-0.00478696253374842,1.0041080290712314,-0.023980286096794555,-0.3580042732615507,0.013879699103815826,0.03824788104069824,0.078125
0.30346369525328626,0.009075737485302524,-0.03324176532178754,-0.012145243596286045,0.01805326942612476,0.009625747779432606,0.010306630358961434,-1.377820381940504,-0.0004558499974083789,0.3129829923012825,-0.12999985821116558,1.1269284836386801,0.017282075347542045,-0.23911721822229143,0.0859375
0.4877779054432529,0.03670919121394862,-0.06847640693849283,-0.02702989607108372,0.013583950868264751,0.02491941997285438,0.021322460751813786,-1.263324600664695,0.0040290298200512985,-0.6284931228970647,-0.15388697645767346,1.9281534972116483,0.008297063530680111,-0.3687059352438241,0.09375
0.24965306686534638,0.01614742934726669,-0.03379849062843199,-0.012892965531169904,0.007735502843971497,0.011595043191495822,0.010628739759349437,-0.7388420975635652,0.0012963257711281996,-0.20452031641754057,-0.08365162814402446,0.9597790075610685,0.005623938084493419,-0.18737751139715197,0.1015625
-0.05975602102934413,-0.020295200221531425,0.018183710168813524,0.008721986366487107,0.007521524659931275,-0.009810280675090243,-0.005543091196408209,-0.48420563990146,-0.004203850148379849,0.8513538698714964,-0.017315000038879657,-0.3418021112281454,0.011228458046527485,0.03947065789203283,0.109375
-0.09181542287232525,-0.009632976394264263,0.013469368960224135,0.006255356299565491,-0.003263871923392747,-0.005945042323763459,-0.0038227700483438216,0.16225027258944683,-0.001841648154288883,0.2212236068390066,0.024763393696848573,-0.3802580375254476,-0.0013550307086903043,0.07064977336780291,0.1171875
-0.03242285993823554,0.026156744672797657,-0.0166395742575398,-0.007248950457199863,-0.024629249111901452,0.010199536836870266,0.006023018029220314,1.3473372117792535,0.0050097701638766555,-1.454266606459092,0.08251639328020657,0.04640302098874866,-0.028664057546265623,0.044693074253842904,0.125
-0.10392598938623339,0.027972689591060144,-0.011755635991308131,-0.005514409083530595,-0.03217533553295916,0.009451593919078433,0.004640541019583201,1.8391877052774992,0.005755700766094994,-1.7303132115978161,0.1228072347622329,-0.20080551063065694,-0.036608536063906114,0.1043893579058885,0.1328125
-0.07542974411123736,0.0316797965368715,-0.016996459284545094,-0.007687904487581392,-0.0325325266715752,0.011686574933715062,0.006171597260397832,1.8397622853145263,0.006349882131884465,-1.8544889406308707,0.11831390926435018,-0.08777814547434774,-0.0376142267134741,0.08445926001278369,0.140625
0.2000637420231289,0.09624829202239435,-0.08627149067630918,-0.037692514967576744,-0.05677572822286728,0.04459162337265789,0.028085952270649577,3.0247073157613853,0.017837877951802184,-4.46601836170381,0.14007925639014457,1.2641109905038395,-0.07248171117024071,-0.09748576896465488,0.1484375
0.32679235827160885,0.1411664594654454,-0.12873474700117662,-0.05644691137865032,-0.07927020856645639,0.06608595984402488,0.041727545948717124,4.22306298785714,0.026193644215648414,-6.444067385579241,0.18727274128326576,1.984766963989767,-0.10237894322804442,-0.172181940452445,0.15625
0.022389638386988053,0.047586444237460605,-0.0365123529662116,-0.01598295345568494,-0.035842596220465345,0.020379820645048126,0.012286123580374168,1.954119387086055,0.009016078076446873,-2.4141208616402787,0.10806969021731888,0.36525127666815077,-0.043438801518794694,0.014002856781114773,0.1640625
-0.3177542868678234,-0.11634179582338823,0.10825615723038058,0.04868905144675353,0.057118916875946946,-0.05569358980886022,-0.03447169128301508,-3.144296933731206,-0.022180825371692515,5.136417914556608,-0.12695467660050255,-1.8069210701095728,0.07680526386713346,0.1850027791318966,0.171875
-0.2951106956663033,-0.17632861288480928,0.14848531701945689,0.06760815676734613,0.10398376958045252,-0.08051117561285374,-0.04788470864768067,-5.866492971949844,-0.03443138711889941,8.275898591973144,-0.2864383693411757,-2.0903234960976107,0.1337721125146883,0.129111600096976,0.1796875
-0.16275255591675739,-0.11747667880085122,0.09552763790784453,0.043934277674226564,0.07134718830885152,-0.052909801597610814,-0.030767069994345846,-4.088145745504387,-0.023252171106845545,5.587741062823189,-0.20669896692043724,-1.2733639966636816,0.09135727654621581,0.05983594720451359,0.1875
-0.24660301962550396,-0.06728765622074954,0.06741703431286272,0.030040989919184177,0.026280327623598883,-0.03335728488825095,-0.021067482716607366,-1.4235200092763072,-0.012585798324752276,2.791582286720967,-0.04036017554112436,-1.2565113901620961,0.03779678561311754,0.15918588217743415,0.1953125
-0.32188451687460695,-0.06008836863624132,0.06905965864793738,0.030185017380506097,0.014450452775195754,-0.031912909114510085,-0.02128207225994747,-0.6815043670743322,-0.010731322518534354,2.235595693849007,0.014406479984822368,-1.469019826687335,0.024706146153750157,0.22392143864989272,0.203125
-0.1141885467523694,-0.020630572761016274,0.023596053694284875,0.010806124721505758,0.0034378654381507358,-0.011236279078004894,-0.0069877413250501634,-0.20633664230950677,-0.004034401255152497,0.7514823979644781,0.006940215235084203,-0.5130947034046245,0.007227242469947444,0.08094467275918545,0.2109375
0.1650276363534299,0.05482094403923788,-0.05367212353491334,-0.022854299256155286,-0.028522817216157695,0.02618656302535388,0.017544838820296723,1.4205885381643437,0.009582140197814778,-2.4099284688943787,0.053791759149738536,0.8999326604275671,-0.037210309331113516,-0.09612456809624567,0.21875
0.2653500439158465,0.08719807120843501,-0.08537486590645552,-0.03685023400470885,-0.04423546690097541,0.041993399342275084,0.027668225089033573,2.247623290303637,0.015610715673359839,-3.8275167433188133,0.08463801818832623,1.439612013170663,-0.05829911719524648,-0.15601848577812955,0.2265625
0.3161651660169975,0.06551165664248529,-0.07457614600603277,-0.03139184951492009,-0.023682167282893823,0.03394996352967043,0.023914851569730385,1.0205937062315256,0.01098941088780438,-2.587659824762346,0.005866009190810397,1.4944367106144478,-0.034048256566318755,-0.2112173168076939,0.234375
0.42630875905094595,0.05642146635601712,-0.07755395589761233,-0.03171648037119102,-0.006979156290079164,0.032233775721010195,0.02444054747245472,-0.028566968845643446,0.008483398106917905,-1.8295985494699625,-0.07267104614868644,1.8257931665711569,-0.015713306449986184,-0.306973623720279,0.2421875
0.4022304969628328,0.07178357558873186,-0.08623225793457769,-0.035803377967168676,-0.020294318831675796,0.03809382788894328,0.027279260853999482,0.7606322158695438,0.01165537680596798,-2.6718910567790597,-0.023432240513771022,1.8224248344875578,-0.0316408606598127,-0.27828416334859335,0.25
0.16007814760116323,0.05420263334730399,-0.05307399129268265,-0.022366079241821348,-0.028403508148648657,0.025819800566250366,0.017119955667996813,1.418576479300311,0.009490951135630822,-2.392343318493567,0.05466674415943693,0.8660474548796437,-0.03701025187278072,-0.09342898053927019,0.2578125
-0.04387240617119679,-0.0034922154366099564,0.005016437019084895,0.0028795257115647463,-0.003391992853820791,-0.002504659865131695,-0.0013161434475481024,0.13317684072875866,-0.0009296527622290223,0.039761720082423305,0.015090999717656272,-0.1811348730496034,-0.0024645270803286845,0.03562576201578225,0.265625
-0.01723507827834307,-0.034692292560842344,0.024676601009802696,0.012166659245156024,0.022125747620514048,-0.015094240233791766,-0.007843652723342734,-1.362044825920526,-0.0073468952765047375,1.7079785874853826,-0.07483683287675658,-0.2658942470833442,0.02833231861236541,-0.00476784645633034,0.2734375
0.08360577982746935,-0.012783542307188568,0.0006709690455870831,0.0018103585217356512,0.014673675245987247,-0.0039015790733357646,-0.00023363126267067074,-1.0107555293368455,-0.0035386079841207914,0.8471685479344744,-0.0714292837757084,0.2115177262600033,0.01728335117670365,-0.07194521750788051,0.28125
0.0007074406678255105,0.008003472973865241,-0.006641199721516338,-0.0023047969976856537,-0.00801847077277005,0.0031619508063651857,0.0025272675144857215,0.36523893789101025,0.0010869056160139746,-0.4285265962585578,0.020952802705423306,0.041256170327731094,-0.008979179266020414,0.007731343253310234,0.2890625
-0.3217973886770853,-0.007838022698457795,0.03235853609751106,0.013080610492822938,-0.024591385597780492,-0.009887741929540627,-0.009117121319150163,1.5745230837885236,-0.00022323490221278378,-0.4513427789686699,0.14360804389691065,-1.1690008393020916,-0.02319078468867906,0.25761950727370864,0.296875
-0.6813124890865703,-0.028153996865412874,0.07741587737236541,0.030967312866148563,-0.041292001405745765,-0.025497358011197378,-0.022670484069447647,2.8183325749115387,-0.002155217575367193,-0.3505443448815958,0.2748527690448745,-2.534342662461481,-0.036847371345780096,0.535700021628543,0.3046875
-0.75733204083052,-0.03756127777346584,0.09029546568933391,0.036338806622459884,-0.04111430259560465,-0.030929615962240257,-0.026734186183741213,2.866706863526889,-0.0035738584597875445,-0.07283611775296141,0.2907653467218063,-2.8625825782302545,-0.03519215925090018,0.5924556075622488,0.3125
-0.4148295289395238,-0.06841020061516757,0.082540897575431,0.03570808072336839,0.012254857723502698,-0.037193663093625,-0.025536090541805823,-0.48033932075138974,-0.011853002235324274,2.404927815073651,0.04212187805139341,-1.8636681478307706,0.023731475385700727,0.2961820076596522,0.3203125
0.08653940184940338,-0.10621139056353013,0.06633035848755803,0.032467127996872666,0.08497277064985288,-0.04326824715191909,-0.02201009086570544,-5.068483261118715,-0.022476767238179103,5.659533068067565,-0.3046927732451091,-0.3352205195884579,0.10337823002896568,-0.13504696236788716,0.328125
0.34250386657579796,-0.07892650267832184,0.025340317100304877,0.015561400875408776,0.08726321330349097,-0.026717507973051904,-0.009304305627676437,-5.4016472003524285,-0.01845926377912636,4.928064605934263,-0.36689808829707965,0.7347610871883156,0.10135593871008974,-0.3267834514839736,0.3359375
0.2788288703759791,0.012590384367290396,-0.03371348794563989,-0.012468002732887609,0.013148927639282342,0.0106367762832242,0.010466625288901615,-1.0748128254068587,0.00042958475635323525,0.05705651479325224,-0.10832395444801432,1.057211095104425,0.011715589996677985,-0.2170729286596754,0.34375
0.18691075482811859,0.07393671674639528,-0.06928036949908783,-0.029801309098252404,-0.04095690976727583,0.03473810496485002,0.022467443176638992,2.121030945919398,0.0133641003140995,-3.3418194373129166,0.0905465067094567,1.0850229233986517,-0.052881512946190555,-0.10193587912100448,0.3515625
0.286554627587269,0.06612159403691799,-0.07250943977532667,-0.030504995273759147,-0.026408620736086092,0.033482286673030805,0.023137555513353912,1.2039366751646894,0.011202563215766065,-2.6873593625524355,0.021627820761451973,1.3773300774757253,-0.036932620756549864,-0.1866847563430337,0.359375
0.4733815724830594,0.0506216635753456,-0.07758364221003833,-0.03135948966150899,0.0016467368760503557,0.03068753070316269,0.024246700626688607,-0.5634015277511181,0.007002845375049087,-1.4041496387477386,-0.1110228111418032,1.9480883009335406,-0.006045122873902173,-0.3490024990509959,0.3671875
0.5202198129471535,0.06019182327351747,-0.08813757827762399,-0.03588511404441178,-0.0013028126614422714,0.035617518599624795,0.02767104255623625,-0.43154813192030705,0.008672474929252296,-1.7649851712206457,-0.1116953424038852,2.1831785467988385,-0.01051816740859296,-0.38235123171231433,0.375
0.34322074371867856,0.05502811002202719,-0.06916461701876901,-0.02847810154090922,-0.012940506478392469,0.029852435838412673,0.021991102953551885,0.37980420312762003,0.008627506109656909,-1.9506016974885463,-0.03583331539487683,1.533792612099027,-0.02144452937247718,-0.24201085997220376,0.3828125
0.040618157279942974,0.022025867633187996,-0.020026164581288492,-0.008111040029786881,-0.014975238918553065,0.00991262987420492,0.006720129021719392,0.7363336746393793,0.003696665773174931,-1.043962053255291,0.03533218339343749,0.26690688869188023,-0.018244456963730324,-0.016035595240428257,0.390625
-0.19851143360139725,-0.0021731904535229273,0.017358548797639924,0.007239707434210945,-0.01821758525182143,-0.004969248515593279,-0.004803264701570978,1.111020956360606,0.00023688189265449216,-0.4373941066025187,0.09712699401066277,-0.7225302958651179,-0.017706983024923476,0.16408357298070678,0.3984375
-0.23657916092637013,-0.006853526661649209,0.023892072521814387,0.009896807920201554,-0.01832252770962665,-0.007640266797884439,-0.006744911773122646,1.1455472797192885,-0.00042623511840723846,-0.3086123499633821,0.10566029104419236,-0.8791392073854796,-0.017100392685433438,0.1924173310696003,0.40625
-0.16312825925229,-0.011654171435678125,0.021125865268257934,0.009191413965885452,-0.008172891000694104,-0.00824508284208914,-0.006003918396968832,0.5009282725540661,-0.0018201514283439529,0.1345232889783101,0.05619820803461208,-0.6371513209838465,-0.0060300956689452795,0.12855925379254804,0.4140625
-0.2271360718289758,-0.017577545277846354,0.030899834767362508,0.013198691424575757,-0.00900468485224042,-0.012106761072162362,-0.008979141907318595,0.5983709304563053,-0.0027027187523639682,0.29171460346086897,0.071942217137709,-0.8871916874443797,-0.005842167233923075,0.17432827130380574,0.421875
-0.4531978686406537,-0.02182898739253003,0.053227731028414375,0.021727107808171133,-0.025497688370871106,-0.018436710526226974,-0.01560197767618428,1.7275826735753972,-0.002292502079002255,-0.06641036688002369,0.1741817524593409,-1.7075906989605376,-0.021814388774612205,0.3535741355991078,0.4296875
-0.5475001737663894,-0.036658702051086664,0.07169039015401682,0.029584914161140227,-0.022876547322752964,-0.026534896377775098,-0.021445693293654502,1.651675351482489,-0.004723836416368314,0.4411617120088439,0.1859807664507123,-2.1365596431978457,-0.016855444697677194,0.4219757563696183,0.4375
-0.3597159011496283,-0.051349839236926265,0.06600541517553969,0.028513343010233682,0.004314087131151023,-0.028944113172871006,-0.020252988830803974,-0.0632616472012283,-0.008734447824964004,1.667795702786039,0.05692668553244569,-1.570434043453084,0.012916438765198442,0.26301326569422556,0.4453125
-0.1265561938223867,-0.0403164402253889,0.03835962511183993,0.017535767769684647,0.016535237164131383,-0.019645183466972336,-0.011903022078178751,-0.9515038102303836,-0.007844242807694331,1.7057069644708984,-0.03282195262999019,-0.6831101345776487,0.023517720637256954,0.08156302366371627,0.453125
-0.00011005189536246057,-0.02197941319091214,0.014589640869984792,0.007542546744897573,0.014317109128583234,-0.009458663997187044,-0.004511627991062055,-0.9237638564368807,-0.004922272096734355,1.1096840008116597,-0.05276727365903558,-0.12750723183179016,0.018426592336386625,-0.011632748796359251,0.4609375
0.21506967334659366,-0.032239453380878906,0.0032288317428591307,0.004210039310218178,0.04138029718002187,-0.009585447523391355,-0.0016231305212837898,-2.65444496068123,-0.008314896553913573,2.2120449665450828,-0.18821125926577006,0.5602753185584429,0.047502964758160605,-0.19502503039508318,0.46875
0.49327075578333807,-0.04985515834959553,-0.008321057662858894,0.0012760622049673915,0.07904374699440782,-0.011467186647281736,0.0011671956374365077,-5.045195348842115,-0.013493346255968222,3.8327246903493095,-0.3715299744734102,1.4233282303166535,0.08837559612100132,-0.43133162351444143,0.4765625
0.4015956520470917,-0.0268792435475915,-0.016640503345741714,-0.003474515692933459,0.05322608447461373,-0.003460685799344099,0.004352636700657025,-3.4828753650808726,-0.00822834056364296,2.386957778209829,-0.2663280289664001,1.2397753810224272,0.05848725373960658,-0.33966720159086133,0.484375
-0.05458962817530146,0.030085857065392223,-0.017625567972677628,-0.007962228890643148,-0.030055074480661925,0.011624685370168208,0.006426348901878301,1.6803737271952648,0.006017169649952179,-1.7421455313046397,0.10578036853193788,-0.01257353460064661,-0.034898991673877416,0.06806425945529355,0.4921875
-0.19100106027018232,0.07653049135352624,-0.03869724191332378,-0.018964572119178822,-0.07662645404980438,0.028484746451589976,0.01388273480903914,4.473858835676304,0.016165892914989967,-4.4688841806972786,0.28819896818374274,-0.21044430745902926,-0.08935603042779149,0.20674703139080589,0.5
0.20820533196532806,0.09144797709766324,-0.08354472253276006,-0.03637477329868247,-0.05204813646500732,0.04259919786605296,0.027209420365283194,2.7416143778029616,0.016762906289563208,-4.172029995429581,0.12180827091006498,1.2733653751586438,-0.0667777631259957,-0.10997229435969118,0.5078125
0.46920026613880483,0.07778806146945075,-0.0963621895756948,-0.04005123945327381,-0.018705136848446456,0.041974437450982935,0.030443343317255206,0.6131191457108122,0.012457641434449928,-2.7889604552679237,-0.04361272006121093,2.1000974852973937,-0.030864036999024777,-0.3302882558582675,0.515625
0.30071193938315866,0.049240152751734205,-0.06176663978424641,-0.025355991181849436,-0.01260997403727681,0.0266329691869716,0.019557011056101338,0.3954200793366869,0.007726573577997032,-1.780816099038322,-0.02731173162310149,1.3355042778902781,-0.02022844617608119,-0.20907574027956535,0.5234375
0.2540356134705797,0.031147314099647463,-0.044935826503796274,-0.017928589500283965,-0.0034203490634227163,0.018109815442982378,0.014150513872710898,-0.09637330429143394,0.0043672349057176955,-0.9844414943561356,-0.047334764146119736,1.0622921359688169,-0.008107907620804869,-0.1808848252213768,0.53125
0.4395399573900767,0.02789940170652306,-0.05846853790927398,-0.022663502059112838,0.015682964464724558,0.020362864358787095,0.01802151858413579,-1.3447342029637472,0.002575919244723165,-0.32204902001664093,-0.1501597358604779,1.6938635555664265,0.011766945891655226,-0.334944820114084,0.5390625
0.3025397978476581,0.012906792177837115,-0.036036132744616804,-0.013370624905586478,0.015234232642700574,0.011195023412709237,0.011177379677417264,-1.2140194557556199,0.0002918054799273618,0.11161930531814479,-0.12025104270686672,1.1303934332503622,0.013779014129323756,-0.23628326682114173,0.546875
-0.03256115457952643,-0.014458972600111933,0.01211984746679315,0.006213748385873132,0.006174019306502828,-0.0070782333976686,-0.003509518884316063,-0.43013110774444724,-0.003273133518508603,0.6501230114986162,-0.019359292116788274,-0.1994643792061641,0.009004725096771828,0.017522752921848364,0.5546875
-0.03224288832575846,-0.03226002276554053,0.024677861097240895,0.012017543572900032,0.019201707551689318,-0.014534685711604295,-0.0076612177663337045,-1.1816632607341486,-0.006823419696282858,1.5542656066961187,-0.062106130384780425,-0.3019319125414906,0.024988453818753843,0.008153846347706408,0.5625
-0.3460183212632152,-0.074440311909524,0.08124131476860069,0.03560626112354968,0.02274598153439529,-0.0384342798518009,-0.025222503675456705,-1.1396167118821305,-0.013465682208343101,2.8930815478372542,-0.0070520405551591225,-1.6503665286036522,0.03527531067139872,0.23772538519237205,0.5703125
-1.7697266342286329,-0.17613866309546536,0.27497729874446436,0.11369994006755531,-0.026911474306096562,-0.10952326406437633,-0.08415784661345915,2.8411378558780673,-0.025662802168989807,4.41225152515841,0.45874348921888886,-7.232344346792628,0.0012891454432524857,1.3270521602445404,0.578125
-2.878674685960368,-0.2368805429921635,0.41294685437167244,0.1686006327082202,-0.0792060309611527,-0.1571804457793282,-0.12582854130343343,6.727470473860789,-0.03144999738159731,4.655122087548131,0.8663476796439358,-11.465480796291354,-0.04187901145645634,2.185678351455855,0.5859375
-1.6353628450510747,-0.12699983625141684,0.22883299825708928,0.09351830280821079,-0.05147042917542634,-0.08617958220494186,-0.0694969650208986,4.15376410910796,-0.016549047643807224,2.251149052552756,0.5108971308133222,-6.460860050320192,-0.03133484673412775,1.2460992601005618,0.59375
0.9451682137838364,0.0709864101542349,-0.13226159246691985,-0.052693294896824984,0.02826481282694143,0.04858520250805713,0.04054123420909629,-2.467810372620857,0.008321179509363,-1.2088828757959742,-0.2996096470159113,3.7318079183671666,0.017724768641783448,-0.7201483237544216,0.6015625
2.0281525541279697,0.15468915811259437,-0.28436812997994687,-0.11436693774756591,0.06115548021366532,0.10543184100740338,0.08690564030942358,-5.2136337828052275,0.01888325720641867,-2.70087470786512,-0.637538321859388,8.00047373204574,0.0376044528455589,-1.543796815306698,0.609375
1.4650799437712285,0.12220103852362402,-0.2132221022281707,-0.08605116724342693,0.0356162019846001,0.08057991984199563,0.06544408831557982,-3.2988740625727164,0.015634491508538077,-2.50687564501325,-0.43338340195883973,5.829801481645879,0.01688851993154862,-1.1067745299195082,0.6171875
1.4512667059244584,0.13642467175084663,-0.2220169092349864,-0.09025536259402467,0.0236811350840826,0.08634377184501515,0.06847211914020197,-2.599696387759561,0.018623171517504863,-3.278785561051493,-0.3909884930692665,5.871582807568384,0.002493280909020412,-1.0864698312689236,0.625
2.0702990244213244,0.19043124161157168,-0.31310805762814287,-0.12738256406887016,0.03799842998206749,0.12140787048813682,0.09639699666581993,-3.911633151166938,0.025919744110739645,-4.436881584945552,-0.5699287415296375,8.367928631432035,0.008384777449941606,-1.5552295262833815,0.6328125
1.1877698383484447,0.11368023108099191,-0.18311283112853136,-0.07432038445064845,0.017722860348788515,0.07137677013885389,0.05658458379174636,-2.051563032041906,0.015537788674015271,-2.771622469505097,-0.3162022234613262,4.830367297899438,0.0002143350555866318,-0.8896928519412239,0.640625
-1.1457859509270163,-0.08047802245427615,0.15415805736940885,0.0628957852679222,-0.04286993150569875,-0.05702462999211182,-0.04652723821549663,3.2723336090928146,-0.010084408319406967,1.147743059846826,0.37884310518025044,-4.486631275312204,-0.03004433659632348,0.879275283228233,0.6484375
-2.1578529486296816,-0.165016063822224,0.30056494192727645,0.1224182651786542,-0.06907404835821655,-0.11277285991827937,-0.09126887779253863,5.577985901102454,-0.021240343203506006,2.852903892991553,0.6804181534120239,-8.53257394777795,-0.043107347886838475,1.6478087979631597,0.65625
-0.8487595767912982,-0.06386612414600118,0.11673260412268573,0.04789062545217104,-0.029425044771980963,-0.04392909562537407,-0.0351871194117636,2.2654165053805375,-0.00840791001221016,1.0438827391651382,0.27200630004792253,-3.3524040457905597,-0.01920823795157541,0.651472279912353,0.6640625
0.46042747305801696,0.033754475067613324,-0.06445105183505129,-0.0253445792747242,0.013068455329961034,0.023348631968482043,0.02001556728596698,-1.2125653285936273,0.0036934953037269956,-0.5707555905706314,-0.14635186123071345,1.8144494738352828,0.008206520180337878,-0.3491864382100685,0.671875
0.032333504954482346,-0.005130864633461293,-5.933359506975617e-05,0.0010555188674777607,0.004560791930129617,-0.001664667581348891,0.000282706223438596,-0.38666581638478376,-0.0016877675466082476,0.32591369157231814,-0.027860911611519754,0.09342416479763037,0.005859696908505264,-0.0280952602688084,0.6796875
-0.8474644640557886,-0.07098998517146994,0.12199960517889982,0.05045997373459766,-0.02372719035743699,-0.04704574345063501,-0.036933762134807244,1.9361782078721905,-0.009898683159979292,1.427416458468841,0.2523403234532193,-3.37991710198928,-0.012242779188442026,0.6440551811996418,0.6875
-0.6180599093044544,-0.04752917495144629,0.08552220054545027,0.03542214945600296,-0.021193518881192235,-0.032532154796829485,-0.025784869150488388,1.6117957799322236,-0.006495757451358024,0.8066201991578106,0.19585483481418176,-2.451536883744691,-0.013472732490561454,0.4745081691738162,0.6953125
-0.06785352820470382,-0.013205802704934527,0.013774190310658185,0.006633990112701416,0.0014801689403794193,-0.0069643415314203,-0.004087258270459456,-0.1287554242814831,-0.0027168304779521812,0.46125280211346925,0.004379582636338723,-0.3264857131987237,0.003979198825310814,0.05023573527169964,0.703125
-0.4513098169268956,-0.06357214350168898,0.08221490444495298,0.03516988379925872,0.005331207541640073,-0.035792991944857945,-0.025260494676307865,-0.05352774414068064,-0.010611429439827156,2.0557862854239297,0.07249691051639562,-1.9537294710832664,0.01597545077232617,0.32763004909922583,0.7109375
-0.9172373869695445,-0.10534793617380428,0.15197605633852815,0.06368744560227403,-0.004307291602969543,-0.06279579636092834,-0.04656228161578189,0.8673287529630124,-0.016368917049108027,3.0039831325780537,0.20277369502381135,-3.820537551510906,0.012935026020277636,0.6778937113497575,0.71875
0.027010480750009083,-0.009901303971073897,0.0038222544785528048,0.002835134262618332,0.007817091781628673,-0.003881739100333112,-0.0010366276629599064,-0.5685908585237268,-0.0026827452260395467,0.560896165708814,-0.03727978956973131,0.04059968118461385,0.009926794270598638,-0.026469322439798135,0.7265625
1.6650221192204857,0.14167004444064463,-0.24381034981158445,-0.09843131160960066,0.03892554965843935,0.09263807796306373,0.07478874635965145,-3.6443555661713924,0.018348530388566126,-2.9740284298917645,-0.4868974051736264,6.651811738477704,0.017139827805817912,-1.2570806739094988,0.734375
1.9635752495141277,0.16323274927270123,-0.28494717679744097,-0.11507231265980399,0.048886259721705655,0.1077828430137699,0.0872772476947844,-4.4551818057442745,0.021025865674056635,-3.314835464203463,-0.5829341570438558,7.817850989318903,0.023765122049164897,-1.4849125775466911,0.7421875
0.7279174237695716,0.04862913714822771,-0.09815740376569666,-0.038743706480742233,0.02544132885341364,0.03492933859181228,0.030103649780536444,-2.138216856378415,0.005149541708888993,-0.6405810339312396,-0.24369774578047207,2.824854644781648,0.01837865107525877,-0.5562490219380206,0.75
-0.32481028297718645,-0.03862749839617508,0.05397939422362494,0.023056230195175737,-0.0019922488410014203,-0.0228784067830029,-0.016262244274376506,0.2692724081064721,-0.006365128578809066,1.1153032151691007,0.06984403894547714,-1.3642968859912952,0.004581383931396242,0.24116340480822226,0.7578125
-0.3829404730905081,-0.024445065437524893,0.0492804721535115,0.020410046934019845,-0.01745548111908375,-0.018150184542856607,-0.014478660914340658,1.2103198416878027,-0.0032389846730285,0.24684254806646133,0.13315201859634243,-1.48041101584591,-0.013334479870717732,0.2971022843986478,0.765625
-0.3193447677829007,0.008223623976887199,0.0208138125400805,0.007762131468645278,-0.036323359088131495,-0.0030930457024122256,-0.005346746931243655,2.2508386968617256,0.002992004083563218,-1.268620046674301,0.1821462241357102,-1.066657313108564,-0.037668080995206916,0.2666839443065836,0.7734375
-0.6600524963674971,-0.0032160561111537773,0.05785330532529142,0.02212486348973735,-0.058169426091375334,-0.014579865030078638,-0.016398837971009706,3.776435768232314,0.0027630706205688973,-1.5838234924799626,0.3268068879652284,-2.3300121305963213,-0.057974177228574855,0.5360151846863818,0.78125
-0.7626056929264982,-0.02130114932149791,0.07919274062773585,0.031181595916296344,-0.05387653950197569,-0.024188948026798284,-0.023102279958994835,3.607229416370928,-0.00023724264439668478,-0.9328428428850504,0.33447185010798763,-2.798370479666989,-0.05074916110673824,0.6076135080629149,0.7890625
-0.2780264256195638,-0.013770643052517352,0.03239877971768718,0.013534093907779255,-0.016523231713047506,-0.011457455009283182,-0.009399341479886365,1.0729542983284415,-0.0016039269914001502,-0.04819223720522581,0.10808494857893249,-1.0561033877858073,-0.014119287892790546,0.2190918062386706,0.796875
0.21742759461635075,-0.005134322094040232,-0.015976094531611612,-0.0047432191711470305,0.021102079334455254,0.001929359341778278,0.004797479357437686,-1.4850811227714869,-0.00283687708341101,0.8190312916295999,-0.12173250010112649,0.7354618543823062,0.022632144144200755,-0.1779661621443908,0.8046875
0.3365421392293836,-0.00803105276581031,-0.024155926543072817,-0.007518279112801921,0.033854106534806916,0.0030867947502899265,0.007058930809243269,-2.314507494851007,-0.004117591530627467,1.2818069837000239,-0.18931610363379062,1.1379238285449491,0.03601411336001038,-0.2772390983875483,0.8125
0.3651656907502044,0.00031593164078350203,-0.032735922485466376,-0.01126077570296317,0.02986182590537168,0.007277048313980538,0.00974030616813774,-2.1065290866435777,-0.0025363775431383926,0.90624948572517,-0.181763110332843,1.2788543891088808,0.030580830819584123,-0.2946452561230429,0.8203125
0.42379770004291084,0.01852001117746114,-0.050740728962465884,-0.019147179441064623,0.021148258997969734,0.016169479021912573,0.01542354633598951,-1.647981374488068,0.0008242368439387048,0.10435167330831573,-0.1647395884379408,1.5794379094432858,0.018783875778747315,-0.32863545128125454,0.828125
0.1999835109885305,0.010835250635376693,-0.026003371000929892,-0.009561019532146168,0.007192271456721212,0.00843584134752678,0.008072044420065228,-0.666608381184019,0.000546374797215389,-0.07530663387720103,-0.07112521407197388,0.7505180609606272,0.005901663748196552,-0.15116466806468826,0.8359375
-0.28182907790124795,-0.025945935526329112,0.04143408406926413,0.017681117591568245,-0.00756334249286537,-0.0167037522863005,-0.012376357469327996,0.5599132674150301,-0.004095553891656683,0.5829364628495941,0.07909975858151935,-1.1396536064209848,-0.0030654265730199635,0.21430375781596578,0.84375
-0.5009746713828878,-0.04441362493331719,0.07329474455424047,0.030591580435874285,-0.01301440562988609,-0.028856041952077468,-0.02201137419222681,1.0433164298925504,-0.0065296155155093235,0.9666972799124515,0.1431078379250861,-2.0053336829677924,-0.005583315240751465,0.3785967734574315,0.8515625
-0.27088578268766667,-0.02160380621775869,0.03744863290182883,0.01584977224213269,-0.00999619101400789,-0.014669770200694234,-0.010980495978187373,0.689345787042709,-0.003242137501891858,0.3766334055683482,0.08483309600910395,-1.0716660322944631,-0.006235164003376158,0.20836006248739153,0.859375
-0.040779331020489515,-0.002222004716511477,0.004036616962727711,0.0023060457682277,-0.004417950725698247,-0.0019415359254104083,-0.0008501178653811704,0.18988097253702754,-0.0006718426159253166,-0.03491451731666574,0.01846698364396591,-0.16780276830730273,-0.0037848298237708904,0.03743254642756332,0.8671875
-0.11020971071818576,-0.02289308429924761,0.02454800263649284,0.01131800276698684,0.004955137072451471,-0.012023520433808102,-0.007450350291162217,-0.29561668094613835,-0.004449919127261086,0.8499457950838466,0.0023552649872989103,-0.5389797780146648,0.00898039768060096,0.08079080439456918,0.875
-0.18188128543299584,-0.042001590232424044,0.04415503563430804,0.019815801202907487,0.013143240069891343,-0.021459744606921308,-0.013631935065685233,-0.7135704797563288,-0.007888259274700028,1.6573850572045854,-0.010208494645162755,-0.8907278904362163,0.020384116066850234,0.12359306250569126,0.8828125
-0.012134895678675605,-0.009049205397735743,0.006418171474668195,0.003636848517020384,0.0036492596773005483,-0.004183653137771187,-0.0016806451992651095,-0.30000899036227385,-0.0022283293085488495,0.41475696032581255,-0.01552477421468427,-0.08517498149295637,0.005590321564822125,0.004407778821604299,0.890625
0.16670760324604558,0.046584800897259644,-0.04810150047809512,-0.020211754293188344,-0.022115844234240598,0.02279143708636107,0.01568036987399273,1.047673433462536,0.007937617179620686,-1.9741091965532793,0.031647451700538815,0.8721000690982241,-0.029341640314842415,-0.10492592738227009,0.8984375
0.1982995099477142,0.0674234197664842,-0.06561783801443752,-0.028037524120247497,-0.03493445950357672,0.03221485503261204,0.02123952223686747,1.764571833712271,0.011942572929921303,-2.963668639052162,0.06772150122671486,1.0930191885644884,-0.045671270373344494,-0.11588851903750055,0.90625
0.2559583627324126,0.0534551690088725,-0.060911975617812794,-0.025361492392724713,-0.019516032425738145,0.02756347420785699,0.019434357602137804,0.8300163426506911,0.008807671229010558,-2.1044070151045013,0.0048272713840579115,1.2021986723843754,-0.027886404839778393,-0.17106632688600645,0.9140625
0.2958691503996452,0.031033938909445037,-0.04856199673869404,-0.019338772865859128,0.0006436065087379823,0.018968996085769362,0.015303072787635765,-0.36634886337745093,0.004092946660617153,-0.8562437181545036,-0.07042252816535724,1.2153168490633788,-0.003916602017227489,-0.21839886375059925,0.921875
0.10866318078014985,0.006543081080541338,-0.015077587073480352,-0.005333081524183594,0.002473077551046421,0.004856800190584288,0.0049788677274047455,-0.3270436329654675,0.0002519460092578085,-0.08124689065893509,-0.03714268053949152,0.4272572783422796,0.0018859046712447762,-0.08326851639848425,0.9296875
0.031039657207563215,0.0021718712923613046,-0.005231474205057493,-0.0012936754101405652,-0.0009392336626439604,0.001338904701456683,0.0019240537810917713,-0.06872207502834572,-0.000219513952134515,-0.050655075806734444,-0.009399790005076271,0.12777921024144878,-0.0008422734480334512,-0.023355217849253908,0.9375
0.48072912447891564,0.0404635703015414,-0.07091021217478358,-0.02796523783266924,0.010111247637618505,0.02637021914797451,0.02188211750521684,-1.0561530779672528,0.004846766529741306,-0.8535862973433124,-0.1406546391518778,1.91039510406332,0.004177638326924218,-0.36198740257849954,0.9453125
0.8184070797080099,0.06284535968610139,-0.11581719741317527,-0.046046815690465204,0.022875673708895497,0.04257852399018823,0.035480815693434135,-2.0560339666148844,0.00741695673439292,-1.1429900033405378,-0.2537502844415225,3.211106840807089,0.013442948053166436,-0.6188191874147367,0.953125
0.07935076863976458,-0.012414271488556911,0.0006978460492177121,0.0018127126191490885,0.013655005875192468,-0.0037762147225985547,-0.00027386695991847055,-0.9468612501058361,-0.0034012960339808167,0.7931784929170763,-0.06658372740343253,0.18705657918863325,0.0161210737815666,-0.06621460886138325,0.9609375
-1.2422901976424803,-0.13613462593302864,0.20161280482434316,0.08405645515011904,-0.010338819439768044,-0.08222476950334075,-0.06178604490136219,1.4704261009859652,-0.020647540634822055,3.7272071873006785,0.2921797275778669,-5.1479879334729075,0.011668537991654153,0.9250647227893497,0.96875
-1.6706035394223955,-0.17233160021058214,0.2641743725025012,0.10953735856057634,-0.02062576078534612,-0.1060728791557849,-0.0808421709800273,2.3995035227541006,-0.02551676462725881,4.496960562983249,0.4162629488638503,-6.846764540406405,0.007105414003290939,1.2466642402737833,0.9765625
-0.8679279233875438,-0.09394086315939928,0.1400237956342238,0.05857724206304406,-0.008111047129775392,-0.057104118015205076,-0.042733534085095344,1.0507634486979323,-0.014447585141300722,2.56513358858333,0.20470783530949244,-3.5805949527863454,0.0072491325937730135,0.6448165690734681,0.984375
0.19493337952637002,0.004435137801772441,-0.020849067914989937,-0.007278606657941875,0.011992594240304001,0.005559688458102566,0.006509581641787564,-0.9405605972881086,-0.0007888436203321352,0.2620587357388366,-0.08656161718181345,0.703992069665506,0.011836597253833096,-0.15321350724243868,0.9921875
0.8392367427656733,0.06131971357472999,-0.11652648091870525,-0.04636892897717526,0.025976532332998663,0.04245692861626944,0.03577184140919751,-2.253231316953527,0.007000297418451482,-1.0001596629819702,-0.2690435465773561,3.2886371768843197,0.016875874103191458,-0.6383433872735433,1.0
1.0480499547241227,0.08254947095045279,-0.1494041073497591,-0.05991536928703491,0.02839569598680904,0.05558324727318624,0.04592857648009147,-2.55811717794199,0.010111783683810494,-1.5481302275736784,-0.3214334422777794,4.1528233976381355,0.01595096574660264,-0.7946304078836144,1.0078125
0.7503077572004104,0.06907118532218565,-0.11417651464736944,-0.045983257585652464,0.012372025888050397,0.04388137061410651,0.035360297396532216,-1.4003830873361154,0.009104447210763466,-1.6196171422279497,-0.20555820028173694,3.03774769537557,0.0019224723495426263,-0.5629759095158973,1.015625
0.03680832109367202,0.027652882955679213,-0.023697175162941737,-0.009816173049830816,-0.019432666372905066,0.01214184560922724,0.00794100321418952,0.9952359033773664,0.004861785459083924,-1.341995057320294,0.050857293332981925,0.2909974470970653,-0.023636126278145122,-0.01106988787835993,1.0234375
-0.44144482079520275,0.0010973771983981658,0.035930886403342834,0.013899623251939991,-0.04186568275629341,-0.00850244354894252,-0.010090954891045115,2.6651480526357876,0.0023005218490144913,-1.2280182653090175,0.2265057182301808,-1.5464340548462283,-0.042113198226922485,0.3606519317059062,1.03125
-0.2888948530123566,0.00892369464654581,0.017174157349488066,0.006357186401795053,-0.03455814080880016,-0.0020137948336049535,-0.004369239338364944,2.122831590707769,0.003055243408057582,-1.2457899168390392,0.1700141317752101,-0.9642886109764426,-0.035992446941225505,0.24289859197016622,1.0390625
0.016989434613027477,0.01933842224582367,-0.016414421255649604,-0.006788134665493429,-0.015537736341145357,0.008522098702117158,0.005722819058068909,0.7844864672715026,0.00341305225191004,-0.9929230364268816,0.04230561379650149,0.17316683006042924,-0.01842320001211428,0.0020090311422065075,1.046875
-0.024613318991740064,0.013401534969121555,-0.008470358462990787,-0.0034485393591224454,-0.01460138645477978,0.0050966370043538265,0.0032629396475649637,0.7642159576813403,0.002409928110034227,-0.7901711402143571,0.048070450548444076,-0.006550373192091022,-0.016526385977749063,0.031940427607031814,1.0546875
-0.23049123945153968,0.00035472719033861953,0.018644198971760034,0.007480511901403835,-0.02263807309212661,-0.0046252666993432,-0.004975852905595499,1.391333316525827,0.0008908749997841054,-0.6385832934444065,0.11813447748300748,-0.8040169077334752,-0.022555982651095693,0.1897940838254919,1.0625
-0.30095497942665034,-0.024103519489783,0.0420160574556088,0.01780591141699365,-0.010391660424770615,-0.01636379077373927,-0.012447907382501766,0.7395823464638922,-0.003654183973007311,0.44404780494174406,0.09234609478307475,-1.192594041455431,-0.00624284658227583,0.23020127587427922,1.0703125
-0.25682226212839604,-0.05111880327009159,0.057109004211798924,0.025234988125792494,0.013488906733764258,-0.02681226493062291,-0.01761589573997326,-0.6750581473708538,-0.009299408724731475,1.935684457468024,0.004180096976127276,-1.1997549324560457,0.022211049000474412,0.17716245234987205,1.078125
-0.030484765003291885,-0.032279808470274576,0.0242143026248566,0.01186819129732212,0.019075371265540077,-0.014328642858390354,-0.007617006169176341,-1.1750194742476372,-0.006768244193170285,1.5405791951736458,-0.061769686901865226,-0.305405650224789,0.024808524439612113,0.007137950187009786,1.0859375
0.5447360998606774,0.037487490811405844,-0.07431749234776551,-0.029099390731406626,0.017704516736613024,0.026476479543175172,0.02284250319862339,-1.5449672435831976,0.003919955850491335,-0.543233524613693,-0.17903238032947513,2.1150328573007258,0.012284609453153829,-0.4139574598505166,1.09375
1.1216852196856395,0.07805805459484987,-0.15229608678487033,-0.06048429652554336,0.03859584884335444,0.05497324179822575,0.046559972916312836,-3.2023253668846974,0.008678506876723707,-1.1074398646568204,-0.37091652750165877,4.381336624320487,0.027015236184102325,-0.8574219118164693,1.1015625
0.9823745196448669,0.04001764217069762,-0.11348496143918216,-0.04359438698937122,0.054872061208817824,0.036148383573888235,0.034273229304678264,-4.03397036146697,0.0018154855169675574,0.48976926660029896,-0.3956318730458045,3.679761443418049,0.04960304782865842,-0.7704616033935123,1.109375
0.02521468986269952,-0.023410286209496325,0.013298066357087291,0.007247639000645446,0.01757685176197617,-0.009559316164845535,-0.00416789939146604,-1.132296947648018,-0.005344063561001149,1.2421005874068507,-0.06911937822156579,-0.04414847063901839,0.021949266122943154,-0.03368635120782813,1.1171875
-0.9620179479158779,-0.05756100258414131,0.12198990053147724,0.04937541004610887,-0.044305265987345924,-0.043504919498089226,-0.03655589810105887,3.2132583070049217,-0.00644049526423665,0.41371766578364155,0.3453569620664713,-3.710349894314879,-0.03527512200485355,0.7477646761588062,1.125
-1.2205841143600056,-0.07711232821851255,0.15782585593790766,0.06383552745612188,-0.05248791821294873,-0.05684742785547082,-0.047516319479377275,3.8878802660683887,-0.00888698567931108,0.7486384402351448,0.4272681910430434,-4.7382461619832865,-0.04041633816002653,0.9452035805391633,1.1328125
-0.8050407189239682,-0.09171833045673704,0.13238685064958075,0.055571168775962965,-0.004645770616555553,-0.05474913865706903,-0.04062310105639068,0.7997200385543966,-0.014278522702032944,2.591840960098232,0.18043340222691293,-3.3659723683371796,0.010396794888250049,0.5960860103151829,1.140625
-0.29213395964323036,-0.0708051668079049,0.07380623749069026,0.03267253729113486,0.025178210653106204,-0.03578442630354391,-0.02302671241378405,-1.3239867912671885,-0.01306563414811465,2.8603514817574034,-0.0274164259093844,-1.434223579471228,0.03727176701375516,0.19136533214555893,1.1484375
-0.011564344734548523,-0.015509876020278155,0.011076100834233524,0.005800552679934694,0.008620189672898421,-0.006969179889955613,-0.0031801672828853655,-0.5871363943694476,-0.0035664491478435267,0.7532809544856532,-0.03212825225452606,-0.1183657999288294,0.011660705193060714,0.0002139561291225412,1.15625
0.1629512343403178,0.031097289555623884,-0.03668020274057309,-0.01496902180867226,-0.01094743551994472,0.01612404989460075,0.011984105722775671,0.4069089119719535,0.004808743824129675,-1.190591468511774,-0.003948236370796327,0.7584761972456076,-0.015639061814713775,-0.10892526876043897,1.1640625
0.38949456434367374,0.05863865036335027,-0.07580036827714759,-0.03121297118243523,-0.011770791927071578,0.03232518920715438,0.02398077607633767,0.27792412860060717,0.009077041556711338,-2.029014330711687,-0.04874180559425207,1.6984677684431557,-0.020921285979478642,-0.27365481279558473,1.171875
0.5633345968143793,0.08971608570396751,-0.11283034196931344,-0.04696412535604605,-0.019848445850219946,0.049007286948691046,0.035520999013213275,0.6083804607911845,0.014388039533968779,-3.1846441784145347,-0.058810411135271794,2.4887392953767566,-0.034067527639821404,-0.39540060174691966,1.1796875
0.5313076805213529,0.11166969579819731,-0.12546270244292707,-0.0531417131887965,-0.03903036085377181,0.05763401462806663,0.039850619946246196,1.7402819046030833,0.019014888487928427,-4.392363582354612,0.010994556758848813,2.518595606677364,-0.05693832149751616,-0.35713205821579636,1.1875
0.3731557820638221,0.0885816828333422,-0.09548129580911632,-0.040466036624022324,-0.0354550175070506,0.04462481890350373,0.030529011959368652,1.657164882800554,0.015229567534654796,-3.605966252183696,0.032349846743048506,1.8337131454116826,-0.04958811651830683,-0.2449977874677589,1.1953125
0.28119761897987816,0.032866061537252106,-0.048385295291220654,-0.019191223619864573,-0.0017424183167813283,0.01920008479976141,0.015232450864468427,-0.2166120244607923,0.004478335995705825,-0.9803395072317266,-0.05945278131576545,1.1721268756326597,-0.006602437159293203,-0.20583709029868644,1.203125
0.2510168631310483,-0.00406312292100708,-0.01988912044145979,-0.006168926484384015,0.023075839034204057,0.003084232273551246,0.0059126732324277795,-1.6250421456901905,-0.00278094564807803,0.8299925612018199,-0.134747603255908,0.8405194798090652,0.024340597153875904,-0.2035805937133786,1.2109375
0.10315981189530507,-0.007545569269405907,-0.004723769922803862,-0.000506865756151647,0.012385377317865388,-0.0011920154213657544,0.0015310818062977789,-0.892769604021012,-0.0025670501601443908,0.6192688464644716,-0.06811097764070993,0.3118171665169023,0.014071225498982484,-0.0851507428871364,1.21875
-0.21368348862058248,-0.016140045166875585,0.028651081837171997,0.01224716786507146,-0.009187490169446678,-0.011099544258828264,-0.008299832443923932,0.5992827816826213,-0.0024362745532660727,0.2428619823550784,0.0699902776298071,-0.8340960991560179,-0.006312176105834524,0.1656464504843313,1.2265625
-0.49155741311977214,-0.05580138281909015,0.08056312231021384,0.03413131154753939,-0.0038289386307008497,-0.03348739053208516,-0.024537742408501786,0.507627912942947,-0.008870397545453063,1.5686250723130357,0.11106781961430398,-2.041326892172927,0.005504736099075077,0.36499871288235697,1.234375
-0.4968007527482876,-0.09482983580871772,0.10853727235200614,0.04721724368586459,0.025112951645366813,-0.050172182308448644,-0.03388077680397406,-1.1573925553658286,-0.016778326906976063,3.5654056064028596,0.016829952010688057,-2.302827519175175,0.0410065654665643,0.3448517609634832,1.2421875
-0.28562640350126295,-0.0915175967321724,0.08792667481726331,0.039398242503866684,0.04123839600577644,-0.044531541224441425,-0.027854747072405865,-2.253352886272315,-0.017337568982929655,3.9402456928444853,-0.08094859043437702,-1.5535814552549028,0.05675344082668627,0.17646144904847894,1.25
-0.16877063028461795,-0.06286659914303729,0.05747791038165974,0.02611023756086649,0.02991283935692154,-0.029979575021185992,-0.01815180126897464,-1.6932440539059896,-0.01217373872274529,2.7641926489362127,-0.06842318823996899,-0.972682969314743,0.04072836798873509,0.09959322275030531,1.2578125
-0.3057912920088401,-0.05694810473032934,0.06508154068860449,0.028413862932954382,0.013313202642413358,-0.03014911002357379,-0.020080936629793333,-0.6294130823756658,-0.010146980320722669,2.102829196008107,0.015059896333772364,-1.4052940660719446,0.02303408860372127,0.21332789283586723,1.265625
-0.43053199720534935,-0.06239432223568504,0.0799642217800274,0.0342873669510719,0.006558853285758879,-0.035014534172872425,-0.024473326568577394,-0.1404030650929277,-0.010564497189810116,2.0665967047176244,0.06355464106132462,-1.8637085852017075,0.017082452630998057,0.31040943088886164,1.2734375
-0.18843651091866445,-0.019659374268775866,0.029323148734750164,0.012808648247484455,-0.003841745554892093,-0.012278087588745337,-0.008596033605585996,0.2732674936723964,-0.0034128274262530353,0.5061617024026448,0.046768737315611306,-0.7663244422481955,-0.0003093052037219069,0.141778053540723,1.28125
0.3099358630526371,0.06428195929301912,-0.07276651136377654,-0.03047492320056213,-0.02273341418661743,0.03306775649362323,0.023296865157420386,0.9743713605686689,0.010634303121600358,-2.518100536876069,0.003957926753426314,1.4619582418548525,-0.03288224144203297,-0.20791266907890088,1.2890625
0.6108868301427215,0.10597963378239848,-0.12830358128811978,-0.05381313969864207,-0.027675608231535236,0.05677596087307716,0.04053593063553616,1.0224357115236289,0.01737294931799361,-3.891627963682576,-0.04329233399460121,2.7565498764613108,-0.04456367239807258,-0.4246584328813974,1.296875
0.57840588291656,0.07873712489332685,-0.10639895804624981,-0.04390424619369966,-0.010351497291120495,0.04471302270813169,0.03343570286522276,0.046528200235626996,0.012118184783695867,-2.5823982728128128,-0.09371394647140216,2.4880282991692693,-0.022689565735881607,-0.41549201684938786,1.3046875
0.4550455801112636,0.05312748038069122,-0.07763773481192932,-0.0314679109582153,-0.001971479079520088,0.03138009225482267,0.024361073915136734,-0.34004955411935345,0.007647100977104068,-1.5832798454101151,-0.09526327141697952,1.9069559112883911,-0.010132880261952519,-0.33199031492306635,1.3125
0.2780034248706646,0.06956671832982145,-0.07396744262766154,-0.03113113787976224,-0.029690208538846973,0.03467934080317951,0.023697987249384142,1.399799156690199,0.01194712040460671,-2.882701983913321,0.03400349413318053,1.3758676190933758,-0.04080810344083584,-0.17824513659063407,1.3203125
-0.0769392606215711,0.08131157635287771,-0.051859180377167934,-0.023834817431270736,-0.06978600447613977,0.032586805677472123,0.01761523331163127,3.9920170886558766,0.01638575700069277,-4.40874210112502,0.2417464177430391,0.19889803093293085,-0.08323101951553526,0.11691279125101954,1.328125
-0.27392622261998817,0.05830161935030604,-0.018864576731935603,-0.010243620302785661,-0.07012502037706259,0.019074145023786244,0.007461100170731913,4.164309991249746,0.01293730278092401,-3.7429487675902955,0.2844628895807996,-0.6192377389037778,-0.07987660591634246,0.2621491508315728,1.3359375
0.0914383400994967,0.02808122078458807,-0.029001003561675568,-0.011934106019097102,-0.01535690191674239,0.013620957560647939,0.00954032354411636,0.7160525004717614,0.004719910819261748,-1.242166268606106,0.026012551186446343,0.4843647207330438,-0.01963343609990472,-0.05290668319694961,1.34375
0.5034688835511177,-0.008940969331835908,-0.0381433285774979,-0.012702489254275032,0.04887472861765743,0.006079903242436292,0.01107597243381539,-3.3130593321935478,-0.005226288234932188,1.7398030071316526,-0.27353123725513523,1.7016271117414847,0.05128495414477861,-0.4104360219425237,1.3515625
0.15740262314700673,-0.07542621817101394,0.038780672258349184,0.020149835607060865,0.06835202102833288,-0.02897081278674757,-0.013064556732974613,-4.164938369824419,-0.016713951321530817,4.272501361270273,-0.2648440826298841,0.09940207603771335,0.08166600821079421,-0.1731238790996355,1.359375
-0.5267896820231186,-0.12441129174660369,0.13228983847581807,0.05785745403771684,0.04472252867576656,-0.06323665262050344,-0.04142097195390298,-2.265744589741005,-0.02261195394445113,5.019286217604825,-0.04225029170235008,-2.5700069893164805,0.0656219510609359,0.34880652771605003,1.3671875
-0.5603345853283733,-0.09795138823532358,0.11633802476553153,0.05021310443317853,0.021835820503442956,-0.05265143509299608,-0.03603704389073306,-0.9200958592074211,-0.017001138628690488,3.5643348141375375,0.040456198851503485,-2.5255983900389003,0.03820794890759714,0.392203569654387,1.375
-0.32992876943105437,-0.06404784004911165,0.07227329387325142,0.03172736313224954,0.016635021275649108,-0.03369683588079867,-0.022427788256692262,-0.8008135965730032,-0.011455097064899649,2.4083256629023153,0.009316505333696384,-1.5318462758489775,0.027476898935777698,0.2280617137191248,1.3828125
-0.8836202004764744,-0.11805881782559825,0.1577869042705948,0.06676707372592745,0.008132675726547894,-0.06747268707290743,-0.04874337756525521,0.12422074300486695,-0.01915062830505124,3.7423200200083153,0.15504493354317356,-3.7975463634593347,0.027510091087860445,0.6439227173938372,1.390625
-1.542597341824692,-0.1752344354559868,0.2549089951257812,0.10625491051021163,-0.007203667009661227,-0.10471168806123171,-0.07835455681560015,1.5255267808041029,-0.02687581039849903,4.973186600941451,0.34507250023232994,-6.431732975093316,0.021173905694129528,1.141645514989557,1.3984375
-0.7072723895198296,-0.07641646141024179,0.11369582618948518,0.047629327581680966,-0.007380303992759776,-0.04644725066008044,-0.03460488237690242,0.881273756688494,-0.0117841590893039,2.067032443962223,0.16831195881251798,-2.9150462443454064,0.005202269366379565,0.526256779379795,1.40625
1.1154142366673658,0.12200594339865906,-0.1828096375658122,-0.07477553100609138,0.005009656370065512,0.07349092003439626,0.05673533864227685,-1.2599782962698265,0.017665505943752293,-3.399780794875245,-0.2586340867359706,4.62617921200697,-0.01403653647550496,-0.8250914234781884,1.4140625
1.82712742637611,0.20688734335111017,-0.3040003345759999,-0.12509266589328796,0.004224670429262806,0.12349174915005025,0.09408506126768154,-1.7698169462619338,0.03065162024380233,-5.922095341412444,-0.40623941445848266,7.599974174346182,-0.028460724671962815,-1.3463940504115246,1.421875
1.1748334988583822,0.14659751376912647,-0.20559809049385275,-0.08490012368231971,-0.008396509087183673,0.08513162756970673,0.06390022001343042,-0.5301095438426067,0.02228752760075451,-4.526561174964781,-0.22590735224902622,4.953941591478852,-0.031614903651483124,-0.8543966957085197,1.4296875
0.8082351545801112,0.10849268808047115,-0.1471527943017272,-0.06084982445386384,-0.01234050565851993,0.06174092337344319,0.045999947210949486,-0.017104058224922065,0.016751586237933977,-3.520550820572754,-0.13529821643769907,3.453545625159879,-0.02949828870710665,-0.5816324394809023,1.4375
1.0059829310035724,0.13451007648232496,-0.18222079722526593,-0.07546161217707335,-0.01422649476575148,0.07657378858682264,0.056963786095328574,-0.06445038753336087,0.02084895742686806,-4.330676458794707,-0.1714596538149534,4.313755872063987,-0.035522060562009385,-0.726940112017206,1.4453125
0.39562979514419183,0.08431858636640062,-0.09422759703409582,-0.03968189855060335,-0.03025318868908042,0.04322833897060961,0.030106030034142982,1.3387406862277962,0.014232586613428024,-3.3192085806674525,0.010341129392804623,1.8929862358266096,-0.043657061426144464,-0.26537615106540907,1.453125
-1.0402645854281416,-0.0632175286045091,0.13300617936906892,0.05385514494456666,-0.04645397714340769,-0.04752607331016554,-0.03985740718304437,3.3985904029652727,-0.007215784646075361,0.5373599804474959,0.36806776843386957,-4.003977125622015,-0.036434114749702706,0.8048534067789445,1.4609375
-1.6692457765224455,-0.13420174901286883,0.2367882723470441,0.09679530368806635,-0.04904472982903853,-0.08990163279276589,-0.07194683307863622,4.04021013002938,-0.017853082365829054,2.5380686220755413,0.5102857130750782,-6.634815309763062,-0.027734083077239617,1.2707485948995734,1.46875
-1.0591129669690107,-0.054295473594406035,0.12794780988381446,0.05128365467010256,-0.05528869316585113,-0.043987778016202,-0.03816302043055204,3.9222785363182893,-0.005211978234854542,0.000769730690855281,0.4019449407237135,-4.030804205407472,-0.04686856206336838,0.8279128021290348,1.4765625
-0.4427946068340365,0.024931103193320644,0.019339972536729318,0.00593000311863624,-0.06020196284604297,0.0016867537042547756,-0.004416935834879205,3.7231951574426363,0.00721119417286517,-2.4700042240132687,0.28739309162634674,-1.3959570455120107,-0.06450058522376756,0.3781342314808216,1.484375
-0.2507522690432404,-0.02194256642782285,0.03607785017430464,0.015439002459265671,-0.007809455606307797,-0.014410693156362777,-0.010655787758554493,0.549170560741706,-0.0034470336411920673,0.4542460478719657,0.07309898829071759,-0.9969259235808419,-0.003948545059480554,0.19065880218086736,1.4921875
0.3028744055080127,-0.11557636420743762,0.05452198875205752,0.0289383465951366,0.11156087679742381,-0.043092538719366066,-0.018894808082813942,-6.773448793624562,-0.025692621582754465,6.722358519474825,-0.4389075748105153,0.37248645932252944,0.13182294919045068,-0.31948864999398174,1.5
1.0587164024741635,-0.12864725738196228,-0.0012903116315568612,0.009463038764695616,0.18809129456067505,-0.03359616984027024,-0.003251988454911117,-11.781947936702519,-0.03276496017056001,9.359245675207074,-0.8518330615491152,2.926185215156719,0.2113121849964449,-0.9403887645489649,1.5078125
0.734283499265319,-0.06773755371761533,-0.016431066494760737,-0.0005329040073563088,0.11339196074333863,-0.0141466327261074,0.0030600594116345766,-7.217238137853226,-0.018467966278845782,5.366838572207452,-0.5359543321406288,2.157969890662648,0.12594462736356232,-0.6364943720133317,1.515625
-0.680628569551791,-0.016250744048396583,0.0687447876002733,0.0268647607822709,-0.05056015911463205,-0.020370345954481773,-0.01981048648400858,3.351804450841956,0.00030763285796708026,-0.9785050148210307,0.3059147634313428,-2.4729564415032304,-0.04818367449795965,0.5455024878089396,1.5234375
-1.3873982819342803,0.0012233865773012425,0.11709179666756254,0.0433848760346285,-0.12602381751126088,-0.027098748171706103,-0.03326808333590488,8.260396072319539,0.007962983263061605,-3.7157460512141065,0.7051935982436167,-4.841630623730395,-0.12730436993515698,1.1298171679819355,1.53125
-0.3690606609825132,0.020002303769475836,0.01645050325959635,0.005377333114261275,-0.04971516223807218,0.0008899655715942441,-0.0038607501392471225,3.0607682231088718,0.005709675569219259,-2.0156262187912293,0.23721545278285674,-1.179174341751984,-0.05307790949162815,0.3147409247175336,1.5390625
1.0546834022672882,0.0536232044211636,-0.12942104373897836,-0.050361459090207894,0.051064731350320684,0.04333175988760564,0.039125048633413644,-3.8684610077359856,0.00413271946406219,-0.030277384031238638,-0.39755110821538703,3.9954114373709824,0.04349796804894452,-0.8188170956235648,1.546875
1.2156600928397385,0.07751507735333339,-0.1600782766708084,-0.06338731516618917,0.04708168950140329,0.05675094968809552,0.048768375498628634,-3.764475305422925,0.00808080342704627,-0.851884337348342,-0.4184034029788298,4.706206726712493,0.03560880545750974,-0.93291612582216,1.5546875
0.4181611475536146,0.08149110675107098,-0.09447256750973826,-0.03974220269337752,-0.02667605438570361,0.042706409961473235,0.030094766059907678,1.1157015437713405,0.013619478804872624,-3.147727772852912,-0.005652921985750126,1.9484721145560329,-0.039668581890543834,-0.28285983187283636,1.5625
0.026639722475542707,0.08185499532041199,-0.06113871795537278,-0.027524181030975908,-0.06133398013889405,0.03504586682157522,0.02051397289719889,3.42181065384684,0.015957023073929336,-4.178867396339006,0.19151111257036463,0.5843847600433677,-0.0747513714003994,0.03323672047805105,1.5703125
0.1372060463447764,0.0732495265185688,-0.0645163596671077,-0.028070159764663042,-0.04461613109809505,0.03348652337133262,0.021163023300003567,2.370250625262836,0.013486235436950232,-3.424639002347861,0.11242264524114813,0.9185999816659322,-0.056392028819995256,-0.06439384752548802,1.578125
-0.16505013190891932,0.029634583320270448,-0.007762319037373904,-0.004226705157470045,-0.038530238464900605,0.009021306304613888,0.003463945224066832,2.2552872273537004,0.006413353492693417,-1.9579959881915203,0.15639978469673002,-0.3996932056396183,-0.043239288428932605,0.1529660994002012,1.5859375
-0.7210134745934523,-0.026912978468114274,0.0798563222393125,0.03175061987654015,-0.045682369801109686,-0.02582808004524628,-0.023438333848734838,3.1030694763943716,-0.0017080075025153276,-0.5112946286833983,0.29830670176428065,-2.6812579926174736,-0.04149011248438522,0.5704886855083018,1.59375
-0.43629968467788804,-0.03320137963421584,0.05982888927631554,0.02485538838754542,-0.016142810002118164,-0.022760931340681145,-0.017830043119730975,1.1760160776622417,-0.0046003032417372995,0.5370061748864631,0.1406665977119952,-1.726396293106064,-0.01066778573322857,0.3374414519958319,1.6015625
0.5432399263685722,0.006496395335545936,-0.05230685558471406,-0.01884460267010721,0.040807411991242555,0.013411150727027836,0.01558655587311486,-2.8766327859290093,-0.0023340618345089642,1.047349363352928,-0.25522942801043635,1.9278114349141586,0.04059830321766963,-0.43284601555826463,1.609375
0.814959504221542,0.011692113227546373,-0.07933393441190682,-0.028938451886460628,0.06124950974506662,0.020885494085913416,0.023423249354394424,-4.269469803882112,-0.0029207788256271814,1.4991943838641848,-0.38064347183703634,2.9047620216755634,0.06049623436252063,-0.6522493494613543,1.6171875
0.07256054806831112,-0.0387962227556414,0.02003916185118635,0.010982354000834636,0.033515550799490035,-0.015230789198985293,-0.006681530913954885,-2.0895543804986882,-0.008779675713918094,2.165859263868989,-0.13178492865902758,0.014179800557270339,0.040537977976022994,-0.08274735130844435,1.625
-0.5348131634087343,-0.07762686603709242,0.09962539308521744,0.04265895195078913,0.008669316768831491,-0.04362322889292072,-0.030618744055380155,-0.18160296526214842,-0.013032564930618376,2.5734206353753772,0.07911838427202357,-2.331576107806345,0.02159573938202882,0.3869434675078148,1.6328125
-0.5858452836246346,-0.08650952820595273,0.11024266685775617,0.04701246090358164,0.010587674292496633,-0.048278609145211225,-0.033883241724902105,-0.2517906082061663,-0.014502910926853168,2.889054993586714,0.08376123821324057,-2.5610838660838797,0.024935874627653107,0.4243468435326605,1.640625
-0.8029515523503631,-0.11491305474691939,0.14881263472710038,0.06315994148537953,0.012730590009306143,-0.0645336734116029,-0.04595009917231618,-0.20379180418450957,-0.018978909228085972,3.7837085523676732,0.12275983055480127,-3.4909344032623477,0.03164329349198068,0.581819787758105,1.6484375
-1.1242153224832605,-0.13375251784743006,0.18966193814056947,0.0795571856253444,-0.0013227197939278458,-0.07888981743460928,-0.05837645428379813,0.8595350027694182,-0.020919273613396194,3.9225804755880986,0.23707445967744303,-4.720633994144353,0.020459241532450982,0.8282781080440583,1.65625
-0.6325160821758367,-0.054420723642551634,0.09161255286585761,0.03809400910307414,-0.017147752676929702,-0.03566102018205938,-0.027708379633222206,1.387502421651872,-0.007769060046452173,1.1317805953696634,0.1847811116321268,-2.5199610282503357,-0.008191238686956885,0.478574077900605,1.6640625
0.4228413600683556,0.07861427764187295,-0.09272242270103012,-0.03885292451539602,-0.023559573565610382,0.041463690096559785,0.029463635545982626,0.931292525395531,0.01293236678801439,-2.9581362508701408,-0.017803202624973372,1.9598705224338389,-0.03591408898939826,-0.2921560373620172,1.671875
0.8194938097861754,0.1241248894986812,-0.1589245848025606,-0.0663642068604724,-0.02271402639603726,0.06857266390554247,0.04990104057498141,0.57285302136666,0.01979800566008804,-4.271888888745366,-0.10426305792897787,3.602749576265828,-0.04236475735149551,-0.5832049740706637,1.6796875
0.6424654222678539,0.09142485635661589,-0.12078726667955919,-0.05007381499337198,-0.014002809586619877,0.05127748876641279,0.03791350628332447,0.20934016632354058,0.01423720003370754,-3.0639022416936172,-0.09501321331192808,2.7764588330216737,-0.028410009164471877,-0.4590961820207237,1.6875
0.9835384939960624,0.10950930204577086,-0.1628639091411186,-0.06668221355986662,0.0024796550615724636,0.0657040639711439,0.05061329545402718,-1.0095173693289492,0.015930739925926887,-3.1144463795494404,-0.22167604902575075,4.07656545500167,-0.014680359457199955,-0.7240358450575303,1.6953125
1.4907593196077853,0.15197221105322714,-0.23627297870475195,-0.09647572093053265,0.015533011038623683,0.09366172329021835,0.07305989486662962,-2.1612178139874687,0.021555158802140897,-3.972235362863105,-0.3726517228096731,6.110056733699307,-0.008229185858964597,-1.1093384441169512,1.703125
0.8335327561300269,0.0782360451455651,-0.12773854006151777,-0.05146990279521775,0.012924635965881132,0.04936641193741919,0.03950712140964347,-1.4967311926752414,0.010455054381352327,-1.875046010398922,-0.2250125702641225,3.377061663616191,0.0009871096463820739,-0.6244000705635927,1.7109375
-0.5772645767463516,-0.06674582278638648,0.09561173717247881,0.04055523281536821,-0.002942454051893997,-0.03993502264386198,-0.029304544567044788,0.5241583725366032,-0.010643654098745061,1.9184353087507944,0.1265749969523758,-2.4227162059986163,0.008126860777854803,0.42751244208636885,1.71875
-1.058995177753648,-0.11015289038661637,0.16741525817849415,0.06985728188053411,-0.013099881231349425,-0.06776723830802005,-0.051334637975727106,1.488342767822984,-0.016589479510792846,2.889205391376503,0.26260673808446416,-4.3718333723254155,0.004749110002885298,0.7918215756485418,1.7265625
-0.5431635494953418,-0.06814096409955969,0.0933945143993732,0.03970762098858236,0.0007540074780219791,-0.03967241122533808,-0.028683145506426654,0.2842857876762023,-0.011057375850193002,2.0581641296999096,0.10754604074013206,-2.3153966505503654,0.012024311859648253,0.4007880060362408,1.734375
-0.2918722525354128,-0.06938523980466726,0.07286453581911138,0.03223467845587473,0.023873108791196508,-0.03519379098206096,-0.02269285679913654,-1.2485099511399558,-0.012750635873190289,2.7785924863277205,-0.022609344282237005,-1.4293724911550774,0.03564818717490838,0.1948488055145965,1.7421875
-0.30478392651045777,-0.05047091261667617,0.060923016350004716,0.026555083093138206,0.008784199006138048,-0.027539526348009085,-0.018608487474040036,-0.36760661607219597,-0.008890245459609465,1.7862050952737456,0.02947763849081862,-1.351751787045836,0.01740622676325702,0.21605055460605035,1.75
0.1995729988275288,0.09439030199111659,-0.08451142824110984,-0.036861821116628626,-0.0551191527868229,0.043622424366621365,0.027622748798362295,2.9286160844712446,0.017395687451583597,-4.351943033266172,0.13396488406244303,1.263360819728916,-0.0704237165208432,-0.09950667550343735,1.7578125
0.5217633555605011,0.18515918085700053,-0.1764541536144121,-0.07694242086900015,-0.09490176174289992,0.08843271688124296,0.056759275881836754,4.975014077215451,0.03387598349049882,-8.201781881970007,0.19788460736678165,2.913042303850166,-0.12525837064228934,-0.30054574148340485,1.765625
-0.4224391926634648,0.002096772852760642,0.033558778240475096,0.012748325752976731,-0.04136583859449743,-0.007537563671417938,-0.009266058220723085,2.6228214993335524,0.0024514488678374115,-1.254491704139477,0.22129768561690646,-1.4722774877029658,-0.04184964691755671,0.3485650108943511,1.7734375
-1.6144015241676755,-0.26823005218106827,0.3267143121639971,0.13903960026646103,0.05600636703012983,-0.1453881367728273,-0.10177717187096942,-2.067926387628336,-0.04520429236441692,9.562700387087801,0.15145759158195596,-7.224172456818254,0.09996287252856118,1.1401767258909743,1.78125
-1.258149822624832,-0.2684378310561113,0.2964525854030337,0.12802625539239035,0.08791915331800594,-0.13850743028670828,-0.09303738197196951,-4.190025299815426,-0.04737494707124993,10.519579555051928,-0.03010840428319247,-5.972390505393781,0.13236384161114595,0.8490973288458814,1.7890625
0.28018700134537283,-0.02862196383764145,-0.004895179911751889,0.0009626830758475061,0.044230863342660624,-0.006750439016536829,0.0008879724725265504,-2.8704471073973004,-0.007940324687854166,2.186599607259474,-0.21147244443081367,0.8113599490802285,0.04980137667872011,-0.24486144357546405,1.796875
1.1986878587827776,0.12432526769083904,-0.19189929997795166,-0.07820649743289225,0.010657589496590788,0.07612628249483969,0.05926805382671291,-1.6500398109307055,0.01761599872058886,-3.3023823550325755,-0.29460550444030864,4.912850669393311,-0.008688335065712741,-0.8907417635783905,1.8046875
0.9657991957474251,0.09041240143302016,-0.14804736772372878,-0.059866334249685765,0.015338007785503486,0.057279341311363814,0.045669464693609434,-1.7392347088931188,0.012174085955552357,-2.1686446990880826,-0.2607044525992579,3.902415502573769,0.0014546211274932806,-0.7232006058223289,1.8125
0.40346009950906064,0.045224190194385464,-0.0677640800331738,-0.02738266502757973,-0.0005727478719506712,0.02705846232351446,0.02126731681223938,-0.3821673147131373,0.0063576639588501065,-1.3063617009909196,-0.08920959804595434,1.6800203386242818,-0.007386028233450244,-0.2959977076207987,1.8203125
0.10254413327325564,0.07422419212924534,-0.06230868926066324,-0.02734213866843537,-0.04883741473071156,0.03324743808182954,0.02051037610978743,2.640397169929415,0.013947810217139766,-3.5800021760146836,0.13417741734395627,0.796103942305069,-0.06084393385858677,-0.032915137494252934,1.828125
0.15399249181947883,0.09302902019017195,-0.07998572415584201,-0.03500357478189305,-0.05818554794694386,0.04210652891582945,0.02606811136839915,3.1417744604093683,0.017386838385237028,-4.408365156356686,0.15442047664597777,1.0767841385157386,-0.07332825385884424,-0.06250349813514508,1.8359375
0.49006733296725147,0.061874439913950266,-0.08675437822987517,-0.03530899260084288,-0.00505775195903043,0.03561601954306625,0.027148871067165445,-0.18751460349055546,0.009109428852931372,-1.926958442592128,-0.09243032374576227,2.069711427338453,-0.014627723247332138,-0.355337191890296,1.84375
0.6993216177298306,0.03219625061892592,-0.08360099342791215,-0.03219193087391947,0.03542139084032778,0.0273322704477344,0.025514915220758345,-2.6881047056073966,0.0019415353705901873,0.13479981292152365,-0.2706032623539393,2.636978026110131,0.031019750248708778,-0.5433054038354157,1.8515625
0.36677825064988323,0.02361082819445926,-0.04895798339535262,-0.018951052504476772,0.012187958148922212,0.017182208837165404,0.0153033882080282,-1.0860516571957939,0.002197362368297369,-0.30209392717849315,-0.1231349383871604,1.4261619627318467,0.008850688311393547,-0.27766220785612084,1.859375
-0.2030069972521868,0.010037458680769544,0.009394021935349318,0.0034157239546388275,-0.02780624721514382,0.0001060407596801344,-0.002019934177625422,1.668293563683555,0.002752489595391431,-1.0781372287679551,0.12970740720262294,-0.6516309344642868,-0.029387314465144518,0.17504594703315535,1.8671875
-0.45119524309078896,-0.012744386171131099,0.046656095419324986,0.01868048588118577,-0.032178076714691035,-0.014530974390282524,-0.013464934150328864,2.1121969524864785,-0.000465089725332926,-0.5279311993358583,0.19608438044989077,-1.6535201549124003,-0.03005044765659972,0.3585870724435787,1.875
-0.45241105103141976,-0.03119114416469179,0.05976263010042451,0.02474050993530737,-0.018347044618403203,-0.02236710123117501,-0.01772991643611057,1.3125302933793608,-0.004185466547696946,0.4227973920898771,0.15021556831258107,-1.7606992825227588,-0.01306112016223926,0.3461676385689402,1.8828125
-0.5530074191836912,-0.05049073303244797,0.08197630455496237,0.03421333538249687,-0.013188851718255373,-0.032442438234799545,-0.024736421241186007,1.09500792126132,-0.007437640709955566,1.1317414258014635,0.15500312202433128,-2.2281771515144393,-0.004824638727916203,0.41778640689374413,1.890625
-0.7339463118696788,-0.08610076664302492,0.12251795123535096,0.05158910742840535,-0.0028681227782596224,-0.05100017235123608,-0.037614501196109894,0.6438329626366094,-0.013540336050657895,2.4740568484124967,0.1600132051377241,-3.0823176440525817,0.011231010421400145,0.5449527452045148,1.8984375
-0.8961175308678995,-0.13243259439575897,0.1690858519967489,0.07194008087785614,0.01758401413732218,-0.0737893057334097,-0.052471337162747815,-0.4096566516216699,-0.021968259736720414,4.4396039246103545,0.12683244515166361,-3.9296026711404606,0.0393242799314051,0.6468653650763494,1.90625
-0.9531868946905485,-0.147193164408376,0.18451576062431438,0.07866368533607442,0.023873674313143533,-0.08121379858495419,-0.05728715264265002,-0.73018294980061,-0.02463755697502947,5.0643759364762815,0.11755852209687444,-4.209718902769433,0.04809326883472357,0.6811959305037545,1.9140625
-0.4415148137749824,-0.08243561594117325,0.09503573515914235,0.04135138931966926,0.02071036222273739,-0.043762363955031885,-0.02950228668208961,-0.9488842134394957,-0.014556726664183294,3.0730372253048865,0.019131354212128422,-2.026556300561821,0.034591805438166506,0.3058935079692856,1.921875
0.8145477758012355,0.04079443259862518,-0.09974748312283876,-0.03868744306976672,0.03936014254128815,0.033194110314176524,0.03031271056756282,-3.0074020396249126,0.0029784063102073267,0.00417021048163853,-0.30866943349793924,3.0959673897239965,0.03378859816573489,-0.6336396767185305,1.9296875
1.7084524534157712,0.12141013809718547,-0.2334746572095604,-0.09338639734412035,0.05785692274113845,0.08500639755135209,0.07126344470176393,-4.773821757803496,0.014032106338559955,-1.8218861382723612,-0.5588708830704527,6.6889956343666315,0.03958061712083426,-1.305597217673799,1.9375
1.0539582417142161,0.09815009816728051,-0.16091279523376942,-0.0651741973018495,0.017303855686540106,0.06224270414906987,0.049688708648230245,-1.9207564345553787,0.013193085150307862,-2.3399502786124122,-0.2856886780256047,4.254670287165352,0.002176138562875139,-0.7883572909970881,1.9453125
-0.38349162567303186,0.038475633403868566,0.004703655110047072,-0.00026959986630405847,-0.06508739671185286,0.008541623637287958,0.0002033352649725189,3.9597892382594155,0.009587421781928205,-3.0164423204202686,0.29136507370863857,-1.1196434766169456,-0.07169827961011473,0.33935715706226505,1.953125
-0.8231350062545719,0.03255704541808899,0.04676641660264786,0.015566324673022793,-0.09938687703664764,-0.0027048809780860178,-0.012074658765502878,6.283085272498678,0.010963308365249896,-3.8465008339774154,0.49745552107016733,-2.678372631154558,-0.10539554243085376,0.6906024070822411,1.9609375
-0.14381915011490384,0.05714439844107476,-0.028896522164601382,-0.01392654248010676,-0.05758163738200952,0.02112000728284605,0.010469334195520973,3.3377219658593478,0.011914472928171492,-3.330568937482213,0.21482487097246117,-0.15263449224386894,-0.06693181431614519,0.15383715824795718,1.96875
0.3608499302693512,0.048012169278981894,-0.06594651258952458,-0.026892066505401154,-0.006115587907475071,0.027277315195772943,0.02081056964728614,-0.027207665649526248,0.007083928563465002,-1.5483904183404547,-0.06205066192204622,1.546483000058817,-0.013394352302553765,-0.26065113254286,1.9765625
0.4862035668399973,0.039764013637658906,-0.0710443221347759,-0.02813954506031906,0.010969137151932817,0.026319814860236313,0.021936277211584598,-1.109502193044279,0.004691962181617598,-0.8094496182541889,-0.14440225550252944,1.921046287073479,0.005126071171909575,-0.3652624066157101,1.984375
1.0120394549457599,0.08784891839182479,-0.15005468142733375,-0.06038491035007888,0.021269749991889117,0.05707996449218764,0.04613798727005575,-2.114762496294489,0.011357515016256809,-1.919689155674866,-0.2896220536225125,4.0432199310978545,0.007804401820760951,-0.7599638546192231,1.9921875
1.446440220082927,0.11231411539280689,-0.204379689845869,-0.0819707489841219,0.04139517059372212,0.07599205989084959,0.06262260815565572,-3.617687321470426,0.013763778168931115,-2.0403020192286556,-0.44869375027114927,5.719605833112731,0.024290145045027568,-1.0980820333447607,2.0
0.5541625580195331,0.006806042635844171,-0.05320317313105939,-0.019209779037127662,0.04178425650420099,0.013665615124684552,0.015950632711760317,-2.9432621457746406,-0.0023613231762927714,1.0749140346438744,-0.26143903501172483,1.9851906473050995,0.04162029085934261,-0.4435201261965532,2.0078125
-1.0489902993811142,-0.14711596972181087,0.19289575030227266,0.08169569396752069,0.01551726483538537,-0.08316171005521251,-0.05964681387006002,-0.1723012369287529,-0.02410899231371815,4.820884910795894,0.16519302213490092,-4.53596979186752,0.03967218863130474,0.7586086995686058,2.015625
-1.5889226479981011,-0.19014011008024695,0.269344727289065,0.11267045242978349,-0.00010516226727868754,-0.1119787402942347,-0.08303697486271264,1.1526091974638293,-0.02962878015259405,5.617291541437199,0.3317230334898845,-6.690898217612282,0.03070413790267114,1.1704108244300848,2.0234375
-1.166819859347373,-0.15029675880387908,0.20487416908348938,0.08622082969423608,0.007125181078688134,-0.08669272486487371,-0.0632187771207535,0.40408781495463686,-0.02399572653521866,4.653194901257489,0.2185328941685953,-4.98188410097593,0.03160838112579641,0.8537586877152736,2.03125
-1.2571803191821076,-0.15672605204094395,0.21727534775845397,0.09120910767781042,0.003945137189914041,-0.09119451388602245,-0.06688094056387711,0.6564290324328229,-0.024732505099483867,4.749522055137516,0.24778103925524916,-5.322462528508515,0.029437466323259907,0.9214030683907833,2.0390625
-1.5987855193586202,-0.16305435373636137,0.2512508696737379,0.10413805337300737,-0.02123335218358036,-0.10073155596279734,-0.07683692076583941,2.3763559520188657,-0.024042067064449012,4.202917668472841,0.4028704319287511,-6.539605839126697,0.005043345025280914,1.1926692497205744,2.046875
-0.6497236683508544,-0.03430681362417927,0.07899928908272101,0.032075778778093054,-0.03358020132565975,-0.027608356628560034,-0.023427892522485658,2.3479825309887215,-0.003639922061735975,0.06490622368979547,0.2425422875930198,-2.462035951096505,-0.027993997657072656,0.5051158474587678,2.0546875
1.205152493704905,0.16069076391379616,-0.2179108717500125,-0.09031825726745481,-0.01588068389528741,0.09156986157815336,0.0678766967994461,-0.1227468375839747,0.02489860560156533,-5.143887667655276,-0.20846344525966987,5.160123033569193,-0.04130966059365919,-0.8727763314522183,2.0625
1.9455777913449555,0.2298789962228393,-0.33039118914594395,-0.13639914533641476,-0.0026746904692094304,0.1355738961476483,0.10235993127795437,-1.4637814230531323,0.034605704558170795,-6.794989517268775,-0.4084174588668772,8.148259838268926,-0.03909480000147428,-1.4268427440906708,2.0703125
1.1759454626241572,0.16437687782756097,-0.21807618761677197,-0.09074278265761439,-0.021802561832432375,0.09267711762282557,0.06812232747366029,0.2411300722944504,0.02592347642058505,-5.437131785341821,-0.18203300139103176,5.07709334108931,-0.04800112220375907,-0.8439662086993786,2.078125
0.40172879419374624,0.1040118166107747,-0.10888739887241194,-0.046551090538749326,-0.04474966306185873,0.05175084624844145,0.034918799110633086,2.1704565212331066,0.018223128263066744,-4.3349711001691915,0.057474609511561726,2.0237626822256,-0.0615172723438348,-0.2560074614695024,2.0859375
0.3705607587535583,0.07937837291662311,-0.08874063022015068,-0.03738210818120085,-0.028684445699105034,0.040648378562489595,0.028340038022498484,1.26855519340268,0.01335000992010189,-3.1328742424487865,0.01064174293075235,1.767511677331429,-0.04127942083554495,-0.24793929786661556,2.09375
0.4398194782584393,0.02342572358903412,-0.05526029370648468,-0.021116023353944594,0.01937866614293707,0.018423712659968665,0.01694664076527436,-1.5583661896993688,0.0016195076169239115,-0.0759558564897733,-0.16283915032350085,1.6688031630580205,0.016268887780323246,-0.33987563017246614,2.1015625
0.21743537117877834,-0.046779228823634285,0.013222878476810966,0.008868936774938715,0.051988163813893866,-0.015517598276445702,-0.004879451605412347,-3.2667214070840283,-0.011200843260184468,2.9372808669352013,-0.2232155717328141,0.4713947671403512,0.06042032316139363,-0.20330895271568392,2.109375
-0.028960478908582728,-0.06235528364258842,0.04527787021988018,0.021609537899169345,0.04162858078046169,-0.026924877411411675,-0.014526201976495979,-2.477202593489739,-0.012850113621272153,3.083672560624145,-0.13662663984909784,-0.47784789421006957,0.05241330121451088,-0.012669641882917667,2.1171875
-0.2498979785463307,-0.04482713581180825,0.05192142086810511,0.02278161333955987,0.009139861646580134,-0.023987659207911214,-0.015926633716099405,-0.4298138847146894,-0.00804557845853294,1.619111838072415,0.017336188024259402,-1.1388435553156455,0.016817464303708996,0.1772398460746486,2.125
-0.599754396796865,-0.06673277332159687,0.09750817555992734,0.04106225480743582,-0.0049649831343686855,-0.04029781286725829,-0.029769529040965432,0.657540756617488,-0.01049473354643559,1.8612841456760718,0.13757445290554163,-2.4847684746123044,0.006154488146022942,0.4453622349555507,2.1328125
-0.8835935935957607,-0.12241051514648607,0.16117858873309288,0.06831882226442429,0.011806270063442852,-0.0694439099892167,-0.04976328151316313,-0.08933607000877748,-0.020092884720401355,3.993929909574224,0.14195863695198155,-3.803685088241602,0.032043521160511707,0.6385759747004867,2.140625
-0.7791634787769557,-0.13232522423795298,0.15914790277786442,0.06826101867469538,0.028182052238337585,-0.07145971832799305,-0.049419530322802135,-1.1161948623255895,-0.022647273958741252,4.755782211879789,0.06602555580819389,-3.5024207924288335,0.050102547217062615,0.5481694504035091,2.1484375
-0.32700588947269127,-0.052971904236726895,0.06431880798546104,0.027967837131781574,0.008371008542650892,-0.02893435102858103,-0.01974210594824642,-0.3246443231075239,-0.009221226461844078,1.8322200655053285,0.03642252646118484,-1.4631099196043096,0.017273744819578964,0.23457458994124755,2.15625
0.129132645277236,0.06006014458899586,-0.054526554813661456,-0.023472704516910685,-0.035949341330761865,0.027773997453286632,0.017829627184663327,1.8778557444657957,0.010914842897687458,-2.7878242596458116,0.08653280337534723,0.7945840015809311,-0.04562838108442737,-0.06191091641454544,2.1640625
0.3027475796576551,0.10914088950601677,-0.10399052591242809,-0.04503910716160662,-0.05706628105805469,0.051862072368673816,0.03357606548498262,2.9596798500186736,0.01976764280037401,-4.842135211660127,0.11904159738497302,1.6981976342783025,-0.07475474830399104,-0.17310602089034174,2.171875
0.22746370241716526,0.07360843040705296,-0.07245580013650942,-0.03098954019226421,-0.036962688364042685,0.03537453127347398,0.023476346463703723,1.856956211126643,0.01303200443857183,-3.2068635977144164,0.0680392773631221,1.2350971663416985,-0.048698139756539346,-0.13695130174131306,2.1796875
0.1603431759152146,0.026468118832871534,-0.03349176059733759,-0.013362626559378433,-0.007779870124337623,0.014209513976932557,0.010792985489825992,0.22634818520855596,0.003940891215757231,-0.96983241917,-0.013942697912941964,0.7226519051127078,-0.011693814745867611,-0.11182395479835094,2.1875
0.13839402983600058,0.011887480957213608,-0.02142213357770981,-0.007896887467523626,0.0009054012850794592,0.00767784469128805,0.0067905703151806985,-0.255762158903201,0.0011524925786114042,-0.29090779571773107,-0.03732573315234405,0.5497123674348808,-0.0006521370105140509,-0.10040148412672022,2.1953125
-0.041600079267446896,-0.005908494124682217,0.006472064369274859,0.0035256582275194014,-0.001777278734685738,-0.0033839499162325102,-0.001782842591867007,0.039584028601583075,-0.0013856049476723218,0.15015460655993743,0.00989063481782579,-0.19430088767043452,-0.000536554435616307,0.035311150976928045,2.203125
-0.2588597496510951,-0.037479666238521905,0.047392966108363674,0.020690748931530157,0.00282129096704337,-0.021048578474870343,-0.014448711447960592,-0.05797256195909102,-0.006505366252448319,1.2133446403979204,0.04025577055038599,-1.1382605538873158,0.009216458527223364,0.18932335531320182,2.2109375
-0.11463340334559803,-0.0343297332758114,0.032965614758143476,0.015178843134176905,0.013479093356405994,-0.01693308911225753,-0.010136342845351072,-0.7873339042624065,-0.006744851787986211,1.4421813747544132,-0.026135970337590162,-0.6028682492261719,0.019574386718258004,0.0719483012101811,2.21875
0.2791956500434198,0.002372910402852638,-0.02654501569289631,-0.009235804045915732,0.020973848034070815,0.006304310966633982,0.00814601810056448,-1.5279617406079145,-0.00167551404298064,0.5946110613857052,-0.13454937024114405,1.0001105421468584,0.021336772067401245,-0.22425247550373315,2.2265625
0.40504125759393295,0.01587958692649866,-0.046903413106834935,-0.017709875686120206,0.0219250628209252,0.014520753975165947,0.014423288357455955,-1.6805922005239586,0.00030649241002004456,0.22644647920282937,-0.1640577614476236,1.5150785906514659,0.020115057383853423,-0.3162041324140394,2.234375
0.3110553060163512,0.015206328296312403,-0.03856045363656235,-0.014606424257846898,0.013891340941393243,0.012481341171171544,0.011955383492518974,-1.1426277379948755,0.0007636483297610972,0.0016138604723166293,-0.11715059190711404,1.1709058082238595,0.012021686613316712,-0.23919351745131773,2.2421875
0.4440175728211374,0.052628116185182816,-0.07646646870657892,-0.03104878918950254,-0.002565917773522267,0.03101445790818933,0.023953513615480333,-0.2965743915847255,0.007603932738902784,-1.586094371819898,-0.09083848780621484,1.85574206986148,-0.010649658002663234,-0.323299323264943,2.25
0.569129928162491,0.08591136198670454,-0.11054605047485883,-0.045822170834909276,-0.016386982772072747,0.0475259339746173,0.03478589556307276,0.4029078721217841,0.01360538865523953,-2.966557918187733,-0.07200249126296951,2.501307505445995,-0.029918479267071838,-0.4046311307287358,2.2578125
0.07127619645381884,0.02701009628431363,-0.026074268581910864,-0.0107256700983627,-0.01605028804214792,0.01265186446310853,0.00870045821617502,0.7731728158121437,0.004566539023425038,-1.2235618382916755,0.032123806825904,0.41882710323788036,-0.02011575713166603,-0.03919857856451577,2.265625
-0.7724413384587482,-0.08769160631626714,0.1272657464363092,0.053529734485769316,-0.004556312938508885,-0.05262012429681029,-0.038965654318890174,0.7709275578687613,-0.013726692008571292,2.4807694081758243,0.17314506521289638,-3.218981686395833,0.009835093324606104,0.5724238534840806,2.2734375
-1.0297488920875217,-0.12904484488653242,0.17835442409127084,0.07513675790162871,0.0035882965718331593,-0.07515217617082276,-0.054957875501627555,0.5023836258079398,-0.020572708230384155,3.931296919006265,0.20112161298540057,-4.375487083567408,0.024638852742373506,0.7559391154904603,2.28125
-0.5347487462547396,-0.06236258785207632,0.08867975395259313,0.037516533744396875,-0.0028346934801650025,-0.037047154018536976,-0.027058779143129784,0.4843487507936359,-0.009938357502847106,1.783344595103945,0.11740268934933301,-2.2476618990922503,0.007475595961445326,0.3973146713840389,2.2890625
-0.006496846606868397,0.02255516998282989,-0.016552054890694345,-0.0070300259227172,-0.019837273727020547,0.009350928973469482,0.005869242821360088,1.0512434981953456,0.004168122429545111,-1.2101618451661422,0.06126982555757571,0.11422758648205393,-0.023262495442355386,0.022004425398207048,2.296875
0.13573700032515928,0.05156119197085165,-0.04910170898288063,-0.020876865826815336,-0.028835128807602566,0.024336069822856465,0.016064603069544835,1.4603744987865737,0.009167643882378652,-2.326713386530538,0.06076051689294379,0.786015900288241,-0.03698664506159234,-0.07568010600155842,2.3046875
0.1457934096622857,0.03597078124302575,-0.03891168232902093,-0.015926129207065418,-0.016109083196145495,0.017839964837170687,0.012558201214426723,0.7199195565053738,0.005902337918701345,-1.494516257439118,0.016950586391486975,0.7171271493827303,-0.021652151396448455,-0.09301040221097906,2.3125
0.24014151706087256,0.013187053221752598,-0.031049361178602523,-0.011478556500537453,0.009203335124982255,0.010110254006169675,0.009581911617036608,-0.8147701623491015,0.0007441973527674172,-0.0808524315113831,-0.08631839944761521,0.9009504900255028,0.007566527294598364,-0.18265390470425652,2.3203125
0.25836710069131774,-0.007594748413364451,-0.01812787493192983,-0.005410088049446476,0.026152879858730386,0.0018284314136074492,0.005288168534261535,-1.809273832070439,-0.003502069244848874,1.0277002491208902,-0.14631680396201016,0.8447887298235859,0.02805054426151851,-0.21064170811034855,2.328125
0.08503893195333073,-0.028461030934526874,0.011457127756598637,0.006842281061597792,0.026422641720572473,-0.010347013331968257,-0.0037988196790208753,-1.6909269317135918,-0.006661367836342033,1.6490347385135413,-0.11096867874522523,0.12856412943076437,0.03169950223551922,-0.08478987940270256,2.3359375
-0.058495292816171655,-0.03140954698323439,0.026078889850909042,0.012455782524117678,0.016164178694749856,-0.014519125685351679,-0.008068030039578776,-0.9860678923202696,-0.006451339599717038,1.4362971444162103,-0.04695770655456261,-0.38242833391994,0.021813238731653063,0.02866581523423713,2.34375
0.0747414483784731,0.0002508456476168912,-0.007438908018982545,-0.001998840205169286,0.004460857650452717,0.0013561611695834142,0.002537859743757646,-0.41298509513860016,-0.0009069850325429178,0.16523543398607668,-0.03638934539963532,0.2671032871267313,0.0049057760179749745,-0.05899701168446681,2.3515625
0.33062293948604854,0.03602822465753843,-0.054593084565085825,-0.021836129382205655,0.0002997654963749802,0.021510611863904724,0.017203430399483795,-0.3724209871873142,0.004800227174086926,-1.005835484666271,-0.07662398766787722,1.367843429074578,-0.005030103016729762,-0.24311752603342712,2.359375
0.30130466396032385,0.02532726445113979,-0.04466858793619059,-0.01759060347502205,0.005537495879363257,0.016520163999225526,0.014080855405390762,-0.6534645435034094,0.0028627501193002076,-0.5370541324077622,-0.08771018711322894,1.2064963160032156,0.00198168345925241,-0.22594160706271624,2.3671875
-0.051193745114413186,-0.017011247381605064,0.015320217328941201,0.007269472818857537,0.005899821404477532,-0.008245466459406848,-0.004425933434762357,-0.40014006532322927,-0.003566715171505263,0.7152367042265105,-0.014270990170002374,-0.26863224951734027,0.009111025933051995,0.033190510871543795,2.375
-0.2580132983560318,-0.018794073551130944,0.03429736480355364,0.014459544783394972,-0.011050748347165712,-0.013136024665908717,-0.010029199686957884,0.7412035675630916,-0.0027246703050633676,0.26522891232323037,0.08574490003853956,-1.008235517585628,-0.007773143900185171,0.20026335394042627,2.3828125
-0.08873244658704654,0.03245021063975951,-0.01638126215536384,-0.007477801976618856,-0.034334188061573456,0.0117486953149013,0.005949094973141131,1.9552487813861383,0.006581684504923102,-1.9284751545057897,0.12710010440951405,-0.13029468336079691,-0.03954152723645918,0.09587939952570128,2.390625
0.007929481701375677,0.06517323258465287,-0.04781027218779871,-0.021221856954064436,-0.050290450120827265,0.027474845652363734,0.015944603828910487,2.8011446815015693,0.012620321725035034,-3.3616516120970394,0.15940836880605222,0.3954705262357232,-0.06092463560361105,0.03835521875251126,2.3984375
-0.3374854001070676,0.04220202663166979,-0.002051038323279161,-0.0029981566636040897,-0.0638130111396449,0.0110427444536302,0.0021723089952887875,3.850106725399187,0.01006548394583655,-3.086828238117483,0.27716575288375905,-0.9364752074194116,-0.0709331115677002,0.30410003504121275,2.40625
-0.6614049617637573,0.006214674947950209,0.05108910501917982,0.018882462367133052,-0.06557773798231963,-0.01050881903475235,-0.014166374375436778,4.204462016744105,0.00472409167344824,-2.081294513178096,0.35156505930711673,-2.2733024939488597,-0.06695807525271175,0.5439968459638476,2.4140625
-0.31945030374751776,-0.016408631042713936,0.03780441351964697,0.01569675556643782,-0.018150924701624473,-0.013370832914831082,-0.011073199461304074,1.2007910115389162,-0.001917222241307022,-0.015480143608456676,0.1222608223084634,-1.2168406825417657,-0.015340550560552038,0.2513997859534041,2.421875
0.43480550228393444,-0.04982227688841884,-0.0031241474702466145,0.0031835146406779726,0.07387718682948981,-0.012652456334269868,-0.0002879559342812845,-4.700016726260379,-0.013173877732839056,3.682288880717806,-0.34207983453206187,1.219600140208871,0.08313613381650202,-0.38326495125993737,2.4296875
0.7429818848754739,-0.08538930433909116,-0.004344023778918209,0.005233198639929777,0.12779144373341106,-0.021579001601281844,-0.000922236674675171,-8.054022399175983,-0.02216535343733002,6.316537351469461,-0.5859725389055255,2.0958602980482173,0.14339504422191815,-0.6571040643588134,2.4375
0.3554271247985818,-0.07414986042128337,0.02085666243362286,0.013608143789063647,0.08491579822429408,-0.024458678016960642,-0.007842973549929091,-5.2775728247346985,-0.01756172977249544,4.7197325207163106,-0.36205253072478705,0.8119245121636761,0.09822424319453597,-0.3353665515767908,2.4453125
-0.12845821359994217,-0.02180807068894191,0.02521637871979431,0.011490097657538797,0.0027688710377446833,-0.011917253308857442,-0.007617430480771668,-0.15761054971100402,-0.004117926520570556,0.7576901970832477,0.012599763085131629,-0.581933566938475,0.00671207552484363,0.09229739682589345,2.453125
-0.2015764700444118,0.010191385445311405,0.008860849061790629,0.003187467673950097,-0.02778200390266061,0.0001645883154235187,-0.0019285067832455999,1.6634985418569064,0.0027769577894904726,-1.0850260002641732,0.1295468554705308,-0.6585662257811169,-0.0293673049094735,0.17417949292721818,2.4609375
-0.013363518586834941,0.007449364708123954,-0.005203429707158036,-0.0018624543475718838,-0.00920555328837944,0.0027898229020613713,0.002186501364771766,0.44360000692995133,0.0011412746186835543,-0.45741835443253787,0.02809923282534596,-0.00795130488054294,-0.010155316808760861,0.02021783927573271,2.46875
0.09783417135604273,0.013594240992875432,-0.018954150538838855,-0.007319270570706049,-0.003931771669426644,0.007613742731238925,0.0063830127038807865,0.05136642801550091,0.0017541631844776452,-0.4788235703014088,-0.013407510710735282,0.4325351708143521,-0.005762148746723133,-0.06782194283761846,2.4765625
0.10445528777069797,0.04061484186581597,-0.03861778829430685,-0.016297061980081892,-0.023332872632182877,0.019091134249469285,0.012736978840566906,1.1661839780723549,0.007145121872581654,-1.8376992362039162,0.0491364884439958,0.6151826959047038,-0.029660275893373833,-0.057563808907922086,2.484375
0.10739537718261008,0.05559383125894046,-0.04956210384029653,-0.021295529631860245,-0.03415034704973004,0.025410327451500878,0.016225198344449902,1.7893819550046235,0.010104116648827632,-2.5944580382894573,0.0846313176471477,0.6991445160007502,-0.04300674862419389,-0.04964657081434201,2.4921875
0.0517552124164348,0.050687981651613014,-0.041439415813411144,-0.018042105370761237,-0.03558137736251624,0.02228418302761119,0.01373531151064835,1.9164723655358291,0.009447884159443337,-2.4989964854259847,0.10162111221013884,0.4653295214897631,-0.0437228975445551,-0.0058040707355595635,2.5
-0.11900260156005427,0.04765337396469303,-0.024657951553398096,-0.01175158607397368,-0.04862780341577156,0.017711344782740918,0.008834690324165973,2.8033807706627014,0.009887876004548336,-2.8006791872845422,0.18098126769853648,-0.14463176889944235,-0.0564549249335716,0.1309235022341624,2.5078125
-0.2706541613013963,0.042621579621453014,-0.007947773261135065,-0.005265268463071005,-0.05814201340483056,0.012563545015267717,0.003884108029643716,3.470981784656235,0.009759605037696179,-2.929598623125288,0.24412498772434588,-0.6915143245587962,-0.06522583549217946,0.2489797410333483,2.515625
-0.26230279443806376,0.01216738916329152,0.013009027893864145,0.0045947229840593426,-0.03424929099560843,-0.0002479309378217373,-0.0030228218864712334,2.0851769278289036,0.0034858725760238325,-1.322488155088493,0.16287743858093598,-0.835465888892059,-0.036128092316505364,0.22139287948780814,2.5234375
-0.17389282823317026,-0.037361432418572926,0.040362154770346104,0.018130044693178825,0.010765560638182166,-0.01946416391790394,-0.012363823675545985,-0.5819074988891445,-0.007087529526651794,1.4593364986524189,-0.004699238710567588,-0.8250386982422211,0.017322224029628443,0.11852153345780467,2.53125
-0.15688504110675586,-0.0740267419405489,0.0645913718659953,0.029606014382209018,0.03944883268681897,-0.03453816036420639,-0.02049163660597243,-2.2502494119830967,-0.014556033461465463,3.3738846017456035,-0.10269211413088157,-0.9924143083027259,0.05214017579840966,0.08289840981909516,2.5390625
-0.1558716317972646,-0.07850931909096637,0.06760349055689989,0.031001917027002293,0.04257555707621687,-0.03633372841213685,-0.021511682861227916,-2.4319465651026944,-0.01539740830544788,3.5933130079993005,-0.11290449640234666,-1.015952649246472,0.055981256095250814,0.08027107180547524,2.546875
-0.009112302434599729,-0.05553101049181638,0.03894694476516895,0.018836755076598138,0.03835020585703367,-0.023755015292924703,-0.012480808902153662,-2.3045666831951204,-0.011602038015151233,2.7970711760094744,-0.13020180077459242,-0.3587151534155656,0.048058383288265234,-0.02466239553218291,2.5546875
0.20314156773582184,-0.03068844062163631,0.003302569300207287,0.004060780213986554,0.038825973640447875,-0.009167632825485434,-0.00142297903584025,-2.4993264274104465,-0.007878408066014746,2.085649910867442,-0.17712289720940685,0.5328642088965075,0.04461970581857768,-0.18275982639962787,2.5625
0.20058469955604916,-0.03198384148653524,0.004314929100981563,0.00463361113230225,0.039842803762895444,-0.00982883578753084,-0.0018605152152565325,-2.5554025796114597,-0.008174107104011707,2.1543044345618663,-0.17996961359517197,0.5082269800605216,0.0458710448387855,-0.18269714417475524,2.5703125
0.0032446432765677476,-0.04055339181899483,0.02715243736647793,0.013618550044333566,0.028720896569440112,-0.01728978846826339,-0.008780297047836526,-1.7576331027218215,-0.008733302200970287,2.0760870707486134,-0.10107749501880026,-0.23833766083278163,0.03594983757958945,-0.027209371828444257,2.578125
0.03619555951914262,0.005810108736298851,-0.008371226285061484,-0.0027981576701292432,-0.003513433430810507,0.003117076750777063,0.00295031388587811,0.0776009713380687,0.0005186213720250173,-0.2401205456077733,-0.0013224339385291743,0.15609270132658817,-0.004130685342879295,-0.022238769135038527,2.5859375
0.4584092656105216,0.10841740083823687,-0.1169550530291309,-0.04989104269910749,-0.04336023800216471,0.0549517374090073,0.03743673379324152,2.0467413750545167,0.01884247234484923,-4.4328718891007926,0.04078665588353243,2.246007450022911,-0.060863283681543125,-0.29828580183827813,2.59375
0.7664815136698231,0.16704410672809458,-0.18484693590757845,-0.07879027259001432,-0.059876770173584934,0.08577074926388789,0.05866718178663777,2.7586603538761856,0.028863125153538293,-6.640206659038342,0.029893984019098468,3.667272223708372,-0.0868928124168932,-0.5119475030196452,2.6015625
0.4772723402871602,0.11190213978101288,-0.1212268199287412,-0.051478521613314815,-0.04368370499542329,0.05656924438254642,0.038493666121407,2.050140362509098,0.01932793452637352,-4.534662751513197,0.03762877314608537,2.3216029019559516,-0.061617770079691776,-0.3141486872420338,2.609375
-0.14371572134476676,0.004367758097056872,0.008027079934823067,0.0033793998349198116,-0.017844049674964956,-0.0012640041196099131,-0.001976439435232716,1.0444621472423226,0.001183019031107127,-0.6078046578660059,0.08393776304842185,-0.4875335139362254,-0.01826637511797952,0.12104866717359475,2.6171875
-0.49035230537826424,-0.05982666080748258,0.08330614325007595,0.0353026060557404,-0.0006635596122642732,-0.03517792418198738,-0.02540208196445921,0.3243432454908024,-0.009724242701015282,1.781710155669019,0.10071782474014797,-2.070602693959058,0.009316060308415414,0.3627515613911896,2.625
-0.42635494676247676,-0.06809456892013273,0.08376813537283016,0.036004764693292605,0.010918237968555391,-0.037289963340764336,-0.0256673207125104,-0.39363134634570135,-0.011710050800546105,2.359248585913112,0.04886423222596266,-1.8856257245025247,0.02229197526330513,0.306127368086713,2.6328125
-0.2636872635241158,-0.05656207825069254,0.06156376919618236,0.027192437349101733,0.016788822917443273,-0.029220414187194402,-0.01902256258916165,-0.8597134617032635,-0.010333743691477689,2.1914074872340485,-0.005113250439022396,-1.248663158858434,0.026400071740215456,0.1801235977097927,2.640625
-0.23566029625108445,-0.04620853493520167,0.051728405856710624,0.023006076332800256,0.011858099473479789,-0.024428774001510813,-0.016038448387331462,-0.5974031797809438,-0.00846557588122927,1.7455310447551853,0.005161366640121455,-1.0985376618234763,0.01981937939506186,0.162288248311089,2.6484375
-0.3524394327190285,-0.05328787255549959,0.066813537793943,0.0290181160829446,0.006958512566623159,-0.029796842156228843,-0.02061364376525349,-0.22302073422602808,-0.009250887884419285,1.813073129615028,0.0460846037131527,-1.5522535407396578,0.016023665653453718,0.2525034150522131,2.65625
-0.5011717309968702,-0.07898337864048444,0.09783444281655658,0.04204873636593306,0.012837907924026342,-0.043501282844581976,-0.030199351372107067,-0.44558488459122775,-0.013538315062661557,2.7411774323296574,0.058194767592653567,-2.2153674303812716,0.026045364647491392,0.358244148877737,2.6640625
-0.45822413706171095,-0.07539549873077908,0.09154192717268299,0.039407120728108,0.013651947447658594,-0.041002919840634096,-0.02819123342873808,-0.5266413175024685,-0.012998821037708753,2.6556325904035467,0.0465051912234419,-2.0379593611829607,0.02624101539520658,0.32705680996855946,2.671875
-0.07543624483340372,-0.00037126692746750355,0.00555602523361842,0.002719474410619195,-0.008819736554518717,-0.0017186529885461325,-0.0012140431742192121,0.47027024329298556,-6.063983577934559e-05,-0.21527690064700927,0.03985717019082806,-0.2675816749525678,-0.008514048630496738,0.06491773745808042,2.6796875
0.46096606805493845,0.10917414042486363,-0.11779492273381663,-0.050016584607945724,-0.043410610896257466,0.0550980181619241,0.03752930119185123,2.047708319266592,0.018900799238236343,-4.454111546841951,0.04062313128114286,2.2395010970653146,-0.061016549539265594,-0.3003064951362747,2.6875
0.789120534165675,0.179857580188367,-0.19568490163355848,-0.08348581872129027,-0.06732867892339332,0.09143869699135668,0.062112516813764916,3.172210137846884,0.031249615568440487,-7.23328681552661,0.04996988367094423,3.807345874609413,-0.09649724220311334,-0.5216294278523314,2.6953125
0.7279859376211424,0.1687255677288277,-0.18257655953175983,-0.0780047721764624,-0.06443953431462943,0.08560758775796173,0.058087457759575724,3.0523356716207584,0.02939335103093647,-6.8185878880166575,0.05310332882378658,3.543799473587238,-0.09177763601151205,-0.479656181071768,2.703125
0.33753619745098584,0.057531950680488074,-0.07080497095402649,-0.029341505285073666,-0.015597592249628423,0.030952557548682282,0.02254947985037556,0.5372471781265395,0.009218623237309537,-2.1119562119291433,-0.02565899371609873,1.5251963656313396,-0.024565205968443846,-0.2346338599370469,2.7109375
-0.134594449483866,-0.12027498855670817,0.09507497677177358,0.043910574568977324,0.07610043856284852,-0.05356441606467988,-0.030666483450185758,-4.385799901083775,-0.02401063619952479,5.813176258391713,-0.22863494921758415,-1.1876678608322384,0.09666407449232854,0.033962962065619696,2.71875
-0.31260710209650866,-0.230709229202212,0.1884405048720806,0.0859058985180728,0.14329856864634594,-0.10381462994146903,-0.060916441424216546,-8.123966334160425,-0.04534223510532486,11.03784710082582,-0.41315043748801616,-2.46585747805313,0.1823327046332765,0.10684140311806739,2.7265625
-0.08471013587188644,-0.1578876879334504,0.11772291716539711,0.05491963500731822,0.10889436228596557,-0.06856052280062672,-0.038306884224046406,-6.31662529624403,-0.0319401647313172,7.887478408060157,-0.34796713749094954,-1.2264380941551518,0.13588923867365102,-0.03214999897173137,2.734375
0.14308472497219127,0.016497661244050665,-0.02485036733668621,-0.009523163743929017,-0.0017219622697974511,0.009613104937921814,0.008013035548132728,-0.1108007476143229,0.0020163004034588375,-0.49195086425386214,-0.03050081778789125,0.6071274312817512,-0.003928523811153112,-0.10485159996165372,2.7421875
0.05410087620172272,0.10642140267808982,-0.08082516089332721,-0.03634282810637142,-0.07708035497709269,0.045838213917141823,0.02677117574616773,4.309295714485171,0.020721924808041723,-5.356403269982118,0.23800185338128915,0.816301324699563,-0.0945983372748347,0.02681231752416902,2.75
-0.030130908699854974,0.08062058310668324,-0.05550374924991769,-0.025316165461862997,-0.06536293863604144,0.033314048686559086,0.01869403145935651,3.7000894544936944,0.016002333940388778,-4.260328314153468,0.21757407432649734,0.35853227420550965,-0.07867022046051048,0.08039369819237777,2.7578125
0.19587913939443438,0.05412538681016731,-0.05609464401437245,-0.023734181226561717,-0.025665026606431864,0.026644181901974307,0.018183071810437473,1.231340701319407,0.00934830237543892,-2.314582245417728,0.03832298839271502,0.9996875741646741,-0.03428095387114848,-0.12002242326963117,2.765625
0.3339362591406448,0.058838845306434844,-0.07103058466915925,-0.02951400014264889,-0.01690072689841097,0.03133302744916727,0.022711161587613778,0.616309724390362,0.009493785592758144,-2.1872976536400945,-0.020404594811135487,1.5252385003818547,-0.026123427952897415,-0.230450590683938,2.7734375
-0.025438320987364173,0.02430711084021633,-0.01575589889437082,-0.006749807502993359,-0.022559653624543836,0.009548308302617074,0.005666901354965849,1.224937546083166,0.004570369774005785,-1.3326321864213366,0.07421785894554857,0.06484855430217157,-0.026280229277555276,0.03831531662933669,2.78125
-0.5343646287818752,-0.045552063130973534,0.07696692567184676,0.0321808689190612,-0.015158618214601885,-0.030033724133879863,-0.02329747862148553,1.1976977848579187,-0.006599248800097833,0.9330739068304311,0.1578421452211805,-2.1428192145236857,-0.007630145887904833,0.40731012735850247,2.7890625
-0.7278998403318742,-0.07255924832245735,0.11231306264023301,0.046984115384396834,-0.01225538563743125,-0.045165902523996486,-0.034325523072201825,1.1811223304314,-0.010878885401996894,1.8019288491799212,0.1895618424189475,-2.989419350842717,-0.00041737929983809896,0.547881211365108,2.796875
-0.7295429215146184,-0.0510998844356017,0.0972625181657798,0.03985535734005637,-0.028663094417669212,-0.03605455046254527,-0.02922817805486649,2.1268286676484713,-0.006463927475292339,0.6860771725702096,0.24405924334376447,-2.8603852316193614,-0.020457319797985728,0.56241033462293,2.8046875
-0.6826883355681231,-0.034565943090928405,0.08180886163021937,0.032970717473763574,-0.03679858473225546,-0.02818938735095733,-0.02415447156577125,2.5580587754402906,-0.003396519923451691,-0.03261343420206064,0.26063343457547883,-2.5837972961115763,-0.03129103358964312,0.5335782048803274,2.8125
-0.3125346270323293,-0.026049106422902576,0.04426069177589267,0.018686942433496365,-0.010151980414310032,-0.017385318098275124,-0.013076715928183134,0.7313578927928424,-0.003918224183973304,0.5081120201234696,0.09386171070401211,-1.2365665031695003,-0.005654922717429574,0.23775699972349484,2.8203125
0.3733440432620244,-0.006567294254574218,-0.028326437897165244,-0.009136769313023346,0.0361012235051675,0.004351425537836682,0.008327490626188342,-2.473009362795316,-0.00407120588183648,1.2995409884158977,-0.20428728304066085,1.2649316996916737,0.038025476144561775,-0.30627997622277714,2.828125
0.8014907631810443,0.005629464141838702,-0.07378471678265167,-0.026610970088780033,0.06472609298719435,0.018030392837813,0.021733489157383948,-4.45938851884814,-0.004112500336878757,1.783334959927816,-0.3893757497956299,2.823684607744362,0.06500519449798595,-0.644969448704809,2.8359375
0.7370624745584261,0.015844449572532858,-0.0755313532137496,-0.028074312171740428,0.051012023373389725,0.021190488910538645,0.022604750255717235,-3.6180654063384323,-0.001598339289825729,1.076026926439628,-0.3301662851672896,2.6607930553233827,0.04945562523815312,-0.5845443553037056,2.84375
0.6430573390019843,0.06465402598190065,-0.10189068112014038,-0.04125165817685868,0.00583475922107415,0.0400073788940094,0.03176510235035006,-0.9379019346668829,0.00888000455403248,-1.6934841932587383,-0.1608580081800777,2.6285739933929406,-0.004079092592553667,-0.47594656451717965,2.8515625
0.7761091277345625,0.11460974397430042,-0.14854846747995845,-0.061802651095269605,-0.019681529744363734,0.06367512233420623,0.04669965688893214,0.4302877445179229,0.018177278484103478,-3.9131289171847516,-0.104913545054293,3.3921727527687566,-0.03784867220883623,-0.5530208277983552,2.859375
0.7218982165798858,0.06610133392355123,-0.10971458821166431,-0.044051193081890684,0.01231851425190628,0.04199653661514063,0.03392034764241152,-1.374242105639125,0.008617829478085473,-1.5390418386195308,-0.19947956173679893,2.9128872855432344,0.002354986884150847,-0.5424268929839118,2.8671875
0.16379370282736452,-0.06134801113752454,0.02806491328292596,0.015398090201769028,0.05859740272248176,-0.02290775523556328,-0.0097188992391569,-3.608038943506555,-0.013892065552679425,3.572531357884237,-0.23408773825006754,0.20476134381775368,0.06957122753873718,-0.17143571823364986,2.875
-0.5590900235203426,-0.12230199837611558,0.13313088042921728,0.05806325138288716,0.03995136854716839,-0.0628604739325737,-0.04179996957349639,-1.9649243958130829,-0.021907204810341502,4.8080721889108125,-0.018759028931956856,-2.6821196444566007,0.06037430959486759,0.3786312320599144,2.8828125
-0.9420310959255744,-0.06456342610178194,0.12530927653656027,0.05102742607948534,-0.03751745149653088,-0.04595163980321568,-0.03770740088116708,2.8068556757311938,-0.007926376125465985,0.8217211874065031,0.3187113308920595,-3.674048257723242,-0.027303964854937482,0.7279041807063252,2.890625
-0.8672856204058875,0.009394456384465979,0.06673486682758019,0.024375628027128112,-0.08607637791661744,-0.013268640228629128,-0.018555606984770746,5.550315096602478,0.006556221962628787,-2.779764273603055,0.46295437503558956,-2.970256065531103,-0.08821750024551059,0.71257202358601,2.8984375
-0.5169638206734631,0.028531428818047766,0.023153065641677528,0.007166673132103237,-0.06894442106648106,0.001629129631971917,-0.005464256867277313,4.286246154643399,0.008288510421039891,-2.8294073022073234,0.3315632951767211,-1.6342762385038487,-0.07386093773853171,0.4377580067206217,2.90625
-0.1254034987900143,0.03165348712092424,-0.01267388762560214,-0.006117097493192657,-0.03662302997162464,0.01067477285054347,0.004901601220187959,2.1148348575210982,0.0065976035855410025,-1.9669822807162378,0.1418295228027556,-0.2543074385861293,-0.04165625381344741,0.12246692968824463,2.9140625
0.10979427848071416,0.042068412310593675,-0.04021299786305351,-0.016996357000404673,-0.024057118600235138,0.01984011613812566,0.013175898271043117,1.2066596936883542,0.0073762343356248185,-1.9067570770936106,0.050872699387312946,0.6264924819178531,-0.030671346974926177,-0.05888708403477269,2.921875
0.17068316402174652,0.030305180615773315,-0.037120972347520376,-0.015105364875054003,-0.010138436155768529,0.01614936427476488,0.012007728120481615,0.354920903415404,0.004691381485147541,-1.1519363099148254,-0.007940901671662899,0.773564586538229,-0.01473801732560342,-0.11444888617298914,2.9296875
0.24809375650443613,0.008837433161770417,-0.02857401568990471,-0.010395247071076329,0.012948724405592976,0.008533435390538394,0.008922908129946568,-1.0400962688362145,-0.00011379527321467532,0.1619182759660265,-0.1008601409489742,0.918585082131976,0.012069417851131614,-0.19212365072792875,2.9375
0.38077305311057225,0.011602482671179533,-0.041860639547368135,-0.015308604652274165,0.02288952892790799,0.012200486059646647,0.01278261373490676,-1.7180320588972413,-0.00037663424801091013,0.37408653404240694,-0.16192351906057453,1.3943697197613532,0.02169495587391136,-0.2995080611263792,2.9453125
0.25728434612516565,-0.0038950288850352188,-0.020298379094663022,-0.006312773949788283,0.02367639525548291,0.0031691198055635774,0.006081692816079608,-1.6661991646220653,-0.0028082504831063635,0.8515169900384406,-0.13837599961561542,0.8703561107749739,0.024981609501734038,-0.20971203098810245,2.953125
-0.23855197905694767,-0.08219147138095989,0.07747361460977698,0.034823899326079565,0.03843704061675554,-0.039688823411067886,-0.02437722087553528,-2.1310585744315502,-0.01572175432416584,3.5882659171121403,-0.08223066684601343,-1.3198386335678076,0.05247763548874603,0.14270789632587982,2.9609375
-0.561914746096833,-0.1386340930753924,0.14494372299071237,0.06335673427470999,0.052018128627948634,-0.06988400899796098,-0.04546699602068879,-2.6630151403286804,-0.025216488593932895,5.646455090203176,-0.05855316964415085,-2.7827552866642935,0.07525763226443556,0.36969621554753995,2.96875
-0.19349125167914621,-0.06758742984188189,0.06306816674042912,0.0284384127726727,0.031208298109492844,-0.032504340980534716,-0.019815614419402997,-1.7483177586245837,-0.012991445315638525,2.938943122166632,-0.06740170283870346,-1.0827456795422656,0.042774101631220765,0.1173764431975842,2.9765625
0.45049325847282595,0.06507484966580598,-0.0858072293712295,-0.03525067282503762,-0.011332957073840647,0.036360746700578775,0.02696116250525289,0.20659768721991423,0.0100677692397921,-2.2182623509808446,-0.06298485414065626,1.9504336051637403,-0.02154839227663066,-0.3199884289636613,2.984375
0.5646104581759088,0.10716925494349437,-0.12515323406310366,-0.05257842115150688,-0.03265779449606157,0.05640272302780487,0.039568855898496534,1.3486818991154537,0.017900437902562405,-4.078600895765042,-0.017130669266040795,2.6100628464139426,-0.049809466643412896,-0.3872742418870744,2.9921875
0.19344312593495142,0.05133364351724159,-0.053804457630840775,-0.0226179807751626,-0.02341375918298924,0.02540399777457295,0.01740429854706298,1.103300187407482,0.00875778297071662,-2.155871046468598,0.030333912341185692,0.9921414197539237,-0.03142106208715584,-0.12374977223380523,3.0
0.006761582124616829,0.012327264287559826,-0.010368018870824886,-0.00404253991889768,-0.010645163099839053,0.0052044705223850156,0.0037131335264850933,0.5114002554927122,0.0019456293257336544,-0.632119312079969,0.02779181284233072,0.10027254423335762,-0.012247192376016033,0.0031558052230534653,3.0078125
0.0725764413811007,0.02173543101554831,-0.022798115326330543,-0.009235319829368786,-0.012059379835361901,0.010517328912576519,0.007518487614696458,0.542768913504054,0.003477334306222654,-0.9573959874379504,0.019215301116423996,0.37105859086492415,-0.015272424553693018,-0.04190583545726929,3.015625
-0.07269494211105432,0.014649299611018728,-0.005268304030631183,-0.0022642132731643372,-0.019744274651264715,0.004659092238368107,0.0022621760475961144,1.1004370456556956,0.0029298930084889633,-0.9791298890496952,0.07567269545185287,-0.17770054897044504,-0.02197549126994654,0.07250592653641981,3.0234375
-0.3403942463354268,-0.017387239629654664,0.040503307934882486,0.016789398913027262,-0.01930311666559588,-0.014231161691415625,-0.011831547309928478,1.2828957891795385,-0.0019709761134384216,-0.01861134317961438,0.13044607180250348,-1.288956994910194,-0.016357371976113397,0.26763087759141224,3.03125
-0.21909104098411997,-0.01886140981237557,0.031188105492577622,0.013517984068375602,-0.007239020881642019,-0.012519492647128162,-0.00920284272658701,0.49049596155009556,-0.0030132277113135504,0.38823221245208306,0.06439363451079712,-0.8690490711382017,-0.0038407634358647155,0.1664924217839646,3.0390625
0.18366511947395156,0.009624023065364633,-0.02361835709394657,-0.008540260421712596,0.007066692520391597,0.007478779728115995,0.0073730905701552924,-0.6496003440211788,0.00035562750638592745,-0.028160121585016035,-0.06796681325472141,0.6949225778051913,0.006064468159506784,-0.14127791958896496,3.046875
0.291260109114912,0.014280656853603985,-0.0362941761064986,-0.013552116742047255,0.012820251150766234,0.01163461874928477,0.011156789771702483,-1.06472024843654,0.0006903495595921623,-0.006114406713297546,-0.1091108149281121,1.08561509275862,0.011049675615135866,-0.22311126827359537,3.0546875
0.05839158490811267,-0.010563286103794306,0.0012153171808693744,0.0018606618242935791,0.01053410378480596,-0.003396731095147391,-0.00030705613531501987,-0.7507874632639909,-0.0029078673818580974,0.6470235788571768,-0.05199626368853671,0.1274690729634949,0.01265112124851845,-0.048980626120811166,3.0625
-0.10424183184376472,-0.024845402892578135,0.025399437124996514,0.01168950336929993,0.006866165874515051,-0.01264204511578812,-0.007606442242042383,-0.4130711807964337,-0.004821861335311992,0.9611415423988902,-0.005920131718686899,-0.5102375447803018,0.011266627596934779,0.07236930382980115,3.0703125
-0.11513398230526316,-0.018330184401835606,0.02189680488080701,0.009968200089779921,0.0013662388880039318,-0.010186248286245014,-0.006379526663764276,-0.08776983385067089,-0.0034948400719329474,0.6193496900717366,0.01391367476914394,-0.4991094033748405,0.00475327085544823,0.08319027463736181,3.078125
-0.15914932363647283,-0.011646034847978964,0.020944228299593325,0.009182092850740136,-0.007243203233691822,-0.008302220805718848,-0.005957610401803545,0.44427425050431024,-0.001951806031826985,0.17565248600993486,0.051562409301228795,-0.6182559349662361,-0.004986843158938982,0.12241774978865745,3.0859375
-0.21390844578333534,-0.014037710343994607,0.027152428465672635,0.011629580338964586,-0.010377885127855951,-0.010346669098944241,-0.007882155396144523,0.6693366549607908,-0.002111375302704779,0.14732550934215774,0.07393136028176739,-0.8361630012164919,-0.007825381653715062,0.16621768441970547,3.09375
-0.21495455284995674,-0.023812946977604738,0.03404857315849501,0.014797291979525215,-0.00344048891377871,-0.01439569281388874,-0.010162985430391989,0.2701404064021299,-0.004021527233211539,0.6302191953122144,0.05162726028281482,-0.9003550173366426,0.0006929212485986424,0.1620145646377353,3.1015625
-0.2652428482554409,-0.03695822202741235,0.04777297808306028,0.02068012213907682,0.0019074080488112408,-0.020954812116565913,-0.014453933797053353,-0.0003097455764586179,-0.006358671876739004,1.1757748886608799,0.04456274956280355,-1.1438213158314794,0.008219941644842662,0.19440967962963351,3.109375
-0.2969586740047572,-0.03565496213103607,0.04971001933009706,0.021303897319988385,-0.0015664641822962112,-0.02115552079927105,-0.014968026435646957,0.22376181787444493,-0.005958496478723954,1.0446648931041707,0.06239349660235256,-1.2396549691439234,0.004578094013383431,0.2195863860017035,3.1171875
-0.04471499187225355,-0.005339061063424655,0.00657786135250225,0.003502415099878925,-0.0017242391413734627,-0.003411270841748134,-0.001747157598282818,0.03621650931586053,-0.0013610740152635503,0.15279847648637435,0.009296918136407496,-0.185358779428461,-0.0003893849204185301,0.033258573095004,3.125
0.3852249859084123,0.032771743398039815,-0.057401408129657334,-0.02247727875458917,0.007513785652415401,0.02130320419393835,0.017704333123866253,-0.8310988373570422,0.003851761553464934,-0.7025657672347212,-0.11199676030886818,1.5307499170706689,0.002797048092015843,-0.29001679980785017,3.1328125
0.5149521493023885,0.04446617673741758,-0.0768325312218223,-0.030427939890519912,0.009706053399486377,0.028948503025704474,0.02366896563530987,-1.0581596325691993,0.005542206393927148,-0.991103807943502,-0.1462175603407373,2.0498461685792004,0.0030460108808277315,-0.3851588864482364,3.140625
0.2540686825700871,0.03255637287469706,-0.0459562499886135,-0.018400329979536455,-0.004638176316157238,0.01877434610132934,0.014533067112246908,-0.027488880355273134,0.0047035853453809996,-1.063873511197038,-0.043462350183494786,1.073691499855311,-0.009577531999283465,-0.1801207891821654,3.1484375
0.0657996405861861,0.028419375110652366,-0.026801937022007533,-0.011149205224216528,-0.017835532942229008,0.013221023515925308,0.008948103204351101,0.8803695831246366,0.004915892629309761,-1.32227687639704,0.0395782073114303,0.39863414580790507,-0.0221953874707381,-0.03185563138862803,3.15625
