AF3,AF4,F3,F4,F7,F8,FC5,FC6,O1,O2,P7,P8,T7,T8,time
0.14075902468678078,0.07211491472966058,-0.06417728064737138,-0.027771517902033607,-0.04363210624959561,0.0330341866400823,0.020890832566453656,2.311141062312458,0.013247585671091196,-3.3671938150007654,0.10904470263634913,0.9068203593263399,-0.05525471360744907,-0.06615690797901859,0.0
0.2274260990519975,0.10964557657571707,-0.0982182379822291,-0.04300534830837407,-0.06442888745873328,0.05076646136671535,0.031913963202618426,3.442151442323381,0.02040874763680203,-5.083095184451762,0.1593354927746295,1.4402598640176971,-0.08230459732627236,-0.11170136548535665,0.0078125
-0.010804239882340853,0.05785464381135088,-0.04123826527937477,-0.01857957185104176,-0.04679261813686583,0.02422728183782613,0.01401512199580522,2.609334734282405,0.011367982315400423,-3.0405721166970436,0.15135829389624764,0.30848335071838545,-0.05617119804339584,0.048417353527058185,0.015625
-0.02259340689482752,0.00615418861027692,-0.0036016616223791364,-0.0010674982304213247,-0.008870701552381443,0.002047001205143175,0.0015576931218967375,0.4315607961997207,0.000922471329333942,-0.4028036664127613,0.028559268099870794,-0.042258925456386785,-0.009536044244426093,0.02476210403503633,0.0234375
0.07405750895571986,-0.0004557390626303265,-0.007011862253544645,-0.001731487990595835,0.0049021098642739545,0.0010443388595788184,0.002268257674173052,-0.4360168321004288,-0.0010613716523000384,0.19915472007308863,-0.037362751721267976,0.2522530826797763,0.005448574092440635,-0.057847988932888124,0.03125
-0.03413841720205337,-0.001348825912760797,0.003001777692000344,0.001970756516666895,-0.003957115914962931,-0.0014743541835334825,-0.000581482733975495,0.15995485950257415,-0.0006098132872621965,-0.03553616477048428,0.014700736833003792,-0.12667414873491545,-0.0033741229148404116,0.028894770156039723,0.0390625
-0.11470603425447211,-0.014128511986346605,0.018790463157942264,0.008545665297631377,-0.0017087518428108755,-0.008369443324557344,-0.005406168270390748,0.09041283922611644,-0.002652929371801618,0.4008730964636336,0.024236835361455208,-0.48079439526135614,0.0009328782296980006,0.08548587963904865,0.046875
0.09146161484691014,-0.013251738479355915,0.00028101596948546274,0.0016773758269057694,0.015658945508656902,-0.003855571408296158,-5.504175188444765e-05,-1.074601003512755,-0.0036427589242158426,0.8808829495224682,-0.07660693007779106,0.23709720142803947,0.01833843427782121,-0.08058267299491281,0.0546875
0.2721771998109245,-0.000510835441685108,-0.024165200726053448,-0.008137252260617057,0.022108093897859053,0.005058468788755242,0.007300507015589409,-1.5865868556053182,-0.0021634366984563404,0.6996130883599133,-0.13596218148699182,0.9367099538122241,0.022822690541500126,-0.21755604318373684,0.0625
0.19061517000641118,0.0033458192308616114,-0.019613530234393523,-0.0067416311471830605,0.012200967205657411,0.004984360263462518,0.0061257141994011735,-0.9497122621304016,-0.000962652574494151,0.3045714512167505,-0.08615441064131076,0.6816737969339424,0.012223135643486416,-0.1487283263239518,0.0703125
0.2307439312662883,0.0047236962877304734,-0.023904286394506834,-0.008412402325485532,0.014847940873144692,0.006336710268939587,0.007474579620831728,-1.1350517718400583,-0.0009197653004478286,0.3459293547588926,-0.10384897899530468,0.8434645146880698,0.014718535085796937,-0.18197298647929552,0.078125
0.5636032796640682,0.006656790378865084,-0.05403857596958045,-0.01951548260471309,0.0427758812390278,0.013804583917505458,0.016176200389738736,-3.0085409543007193,-0.002435762813787526,1.1042197850492594,-0.2667138836539709,2.01868280680659,0.04264531466324185,-0.45189142986099184,0.0859375
0.55594564965899,-0.012240452578284851,-0.04032433135248233,-0.013098149608429597,0.056124361218110125,0.0057499004793903595,0.011527812097209779,-3.771676959715354,-0.0061850612575096945,2.0433552355948352,-0.3087627051686821,1.8668483677620695,0.0591127373574935,-0.45698363985912027,0.09375
-0.1856653320844852,-0.04472027645591968,0.046196393899607426,0.020813735944975285,0.014816204633984083,-0.02261815693428795,-0.014419442534274525,-0.8051415077253681,-0.008410896915024878,1.7795724691949333,-0.014734098709193021,-0.9261010640465293,0.02248313182994293,0.12508088361271102,0.1015625
-1.0372574939218444,-0.057469605747166155,0.12844834161077273,0.05169949366195897,-0.050908114192318235,-0.04489513433438805,-0.03840763072577723,3.6544817004536343,-0.006005497493452113,0.22368216231394064,0.38282644691357715,-3.9715498181921203,-0.04194028524655478,0.8075913266141045,0.109375
-1.3809044901331669,-0.06427877042367594,0.16291752799590403,0.06475014502147859,-0.07610701415793482,-0.05467395860681904,-0.04844509742837321,5.375573056660474,-0.005373457417408235,-0.3125454027809029,0.5385916025099178,-5.201605292963257,-0.06628582696278561,1.0811422482191624,0.1171875
-1.389842012350152,-0.09678822466647787,0.18665414596823057,0.0757972260176999,-0.05244734120339615,-0.06870428935526447,-0.056264465616133505,4.015288434914545,-0.011911561804791599,1.3419489747969346,0.46221552446292274,-5.425130540073293,-0.037127463830041715,1.0678455211313647,0.125
-1.128443181452335,-0.10670000360509231,0.1710669489534782,0.07086845859195241,-0.02192175938801982,-0.06773953331854651,-0.052149859259521786,2.048940717583978,-0.015458894873647646,2.530341586815386,0.3062292174430669,-4.582409210115172,-0.00469129666143398,0.8507196258441513,0.1328125
-0.12709479454159925,-0.015337706839293658,0.020421101849645,0.00928515320609104,-0.0020182738047776483,-0.009171947777299528,-0.006061867358389867,0.11731764809520527,-0.0028271930169592873,0.4283733584480559,0.02850452816471737,-0.550917932860561,0.0007966646625522873,0.09737454967737764,0.140625
1.4095040822684604,0.14046329605580576,-0.2214944778294592,-0.09030586442638863,0.016908013671061324,0.0872698222004856,0.06834048769540935,-2.1771971508277193,0.0197151246904558,-3.5929464283965147,-0.3598627381006614,5.748632305227884,-0.00496411838555671,-1.0504504385834295,0.1484375
2.2181665807320154,0.22020918344489682,-0.3469894288124054,-0.14188598223425888,0.02868639873887157,0.13701256180646365,0.10696703897691483,-3.489600240471857,0.031100957732065893,-5.586146430891508,-0.5706382532604609,9.06219264485657,-0.005759981400879462,-1.6569360324532099,0.15625
1.598497143549946,0.1540387268212155,-0.2468462012706323,-0.10050196450641109,0.023766054525937465,0.0966376602938104,0.0761460537083712,-2.719777920159668,0.02129342788270309,-3.784200746400446,-0.42328506616952694,6.509424672608384,-0.0001351386625020943,-1.1974083561716813,0.1640625
0.4406826183197665,0.033461090814505184,-0.062319934639885506,-0.024380756205695252,0.011979487916416794,0.022631524512268714,0.019296147629130442,-1.1320194437031823,0.0036432520084852945,-0.5900114476601198,-0.13870789156027188,1.739110119584102,0.007194113387629443,-0.3348970934893929,0.171875
0.014463388548370048,-0.0016291241362216572,-0.0010718042448406154,0.0004858706164765579,0.0004693856034767582,-0.0005899219443360271,0.0005687408797888909,-0.133174621365787,-0.0009416984479644975,0.09847036270037933,-0.009948894557776205,0.033226359820489,0.0011078420921599383,-0.010066933468370634,0.1796875
0.3841039307488674,0.05716130725265057,-0.0743111084099349,-0.030577981504696213,-0.011226353765315245,0.03170230292635216,0.02351845609183317,0.252340784802078,0.008834746181328106,-1.9744801047860545,-0.04956310950167933,1.6778622321117123,-0.020149118409868917,-0.27096556809720385,0.1875
0.4942116516806598,0.0733854796789798,-0.09514770673406163,-0.03938557696900635,-0.013725467226400894,0.0407485629973354,0.03008008700215366,0.30903351628833503,0.011493015277320504,-2.522990041541496,-0.06490551895633771,2.167520534522501,-0.025241134374752852,-0.35036784214384614,0.1953125
-0.3847673235685946,-0.030745129472499525,0.05375761410676526,0.02255582846960278,-0.013118740374573112,-0.020794321094769606,-0.0160140262443307,0.9605081767466873,-0.004440934308039789,0.555031191414999,0.11918179670441556,-1.5227326164507287,-0.007933917732846083,0.29428758992213055,0.203125
-1.6190040310321938,-0.14457562239574812,0.2398633587835938,0.09878266179925188,-0.036691738805087935,-0.09343975030721302,-0.073170571658302,3.2865239436078584,-0.0202517281023762,3.2020286242334084,0.4588462247651047,-6.521855843655101,-0.013583662036935683,1.2221045275136102,0.2109375
-1.9662201851295047,-0.15517485649829485,0.2769620412971781,0.1130489850374058,-0.05956484422733048,-0.10474363852580128,-0.08419781792886506,4.8781617306469265,-0.02033920474733995,2.836229128747508,0.6083321037671098,-7.806409913460051,-0.035059368535032616,1.4981779827473034,0.21875
-1.2544622885077732,-0.14573170628399948,0.20912413764249133,0.08744079360033616,-0.003968803674513274,-0.08653966664648541,-0.06429902660657386,1.1109725493045046,-0.02255838799909823,4.198607414959306,0.27366219003442904,-5.258874426622608,0.019690818320895143,0.9273714509593757,0.2265625
-0.48020781462943185,-0.2185144114063455,0.19413367039545198,0.0870820191244084,0.11902405930267093,-0.10193486582012155,-0.06211850574488778,-6.595038692838153,-0.041806359388255145,9.967777220940167,-0.29739225009305575,-2.9708286975065543,0.1558198572561192,0.2513642237169367,0.234375
-0.17537567663432882,-0.2511938640426299,0.19129701578921304,0.08845343219621116,0.1706817617828009,-0.10979491030420674,-0.06230175054759695,-9.813745288074182,-0.050244988219809196,12.455324844599694,-0.5329797938140834,-2.089589898980063,0.2133311381770444,-0.017882410694405798,0.2421875
0.15039896932176175,-0.0811566674363052,0.043549922017501165,0.0224594733700416,0.07214336735720937,-0.031564624755517856,-0.01466208731825953,-4.377718643783965,-0.017817527403617105,4.5544530223737585,-0.2760217693006412,0.0523435513521411,0.08640171871710635,-0.17224319303527516,0.25
0.7624361360583082,0.18908553082702478,-0.19975100578167604,-0.08570722849843576,-0.07648239157999961,0.09481482840052503,0.06357152901484249,3.723382835388965,0.03325595951703198,-7.770769850403111,0.08596078032143867,3.781997597151469,-0.10723899238241584,-0.49392193139855856,0.2578125
1.185711447739576,0.3283695715527936,-0.3345949617705033,-0.14502924856204003,-0.1437703699827904,0.1622139623765534,0.10669284463218878,7.274029096946434,0.0590145096267105,-13.849682395637727,0.21874877762394723,6.0848969190828734,-0.1976105260194589,-0.7474132634855868,0.265625
1.1157683916099264,0.29408677440057085,-0.3044981947815706,-0.13167418316782348,-0.12438660904932246,0.14641794552425363,0.09705609857545161,6.207917965744125,0.05254025548171388,-12.271338733801477,0.16938642737071657,5.6433877778855726,-0.1725149768624104,-0.7127747407271455,0.2734375
0.788323545254646,0.1937773264961368,-0.20553363493461718,-0.08828243053290818,-0.07794865641757343,0.09743431784806017,0.06546039185471418,3.7846247683559513,0.03412818495176112,-7.954993725817061,0.0853334766990074,3.9019672368616494,-0.10948507730725036,-0.51165827094742,0.28125
0.5082442466794287,0.08808212136168053,-0.10683105401671582,-0.04452045155922603,-0.02316160760723668,0.04705708711033001,0.033704354871860895,0.843412750938465,0.01430806036027714,-3.2348680279247217,-0.03634616946343074,2.284646582650009,-0.03713487806512348,-0.35288579445896945,0.2890625
0.4887912170379454,0.012016805805866981,-0.051472325767659886,-0.018831647840468896,0.032237251794953764,0.01451101184268785,0.015436908513522293,-2.3390873842104596,-0.000977909744352745,0.6340042675577574,-0.21558132829194404,1.7644776722343836,0.031106125954297955,-0.3869470846185859,0.296875
0.6432447736529577,0.0032898399887007256,-0.05857995300424485,-0.020926416791478664,0.05227974849493851,0.013999431290502946,0.01731684231128567,-3.6183978725148904,-0.0035906874450354785,1.4839975328356232,-0.31486338744324843,2.266927433160121,0.05279573795681715,-0.5181804620126367,0.3046875
0.26360722692213506,-0.01795189227764498,-0.011054046854055014,-0.0021373175491903804,0.03453294883720998,-0.0024430042898894904,0.003023023301661245,-2.2976277380887558,-0.005628604652779706,1.5869575262420939,-0.17570103433776532,0.8221996697309351,0.03823770354257733,-0.22312983031547864,0.3125
-1.0396398648058813,-0.1719272504494305,0.2093791616005738,0.08944080476763967,0.03484199968333267,-0.09340053339796844,-0.06519154533222542,-1.2951991156181286,-0.02916104074828714,6.119624057805001,0.0996372600729239,-4.6539378614318005,0.06317680014568239,0.7357683911697969,0.3203125
-2.1481230986706814,-0.3507028575395542,0.43068809487734394,0.18314062836480155,0.07099003336215289,-0.1909702827922145,-0.134358422739839,-2.514165048766177,-0.05884814660268516,12.43647095040469,0.21487146404730834,-9.592794358570451,0.12835250200208806,1.5194631901923927,0.328125
-1.69432906192321,-0.3018537624194863,0.3573881824868995,0.15287098903059754,0.07446992675680712,-0.1613076750549066,-0.11169100314627219,-3.0704501918471396,-0.05160921655653485,11.102431814539324,0.10685075446762274,-7.706512253165172,0.12406771142657959,1.1814580359724292,0.3359375
-0.25900461778472006,-0.03584842923975042,0.046517927640763054,0.02026464223119959,0.0018385579893803784,-0.020420754720846507,-0.014079162393510156,-0.0011506878117353307,-0.006195188756879769,1.1432092412521075,0.042914492486868135,-1.1066174063279017,0.008021416911413726,0.18797650339669497,0.34375
0.4395182638404929,0.14772292621607197,-0.14310301838282563,-0.06213704110792955,-0.07414092221887368,0.07099558618489299,0.04602856935618105,3.838311361459747,0.026842165179371873,-6.493530478103443,0.1466730387727983,2.4111047237379233,-0.09825462189965016,-0.2589937756731785,0.3515625
0.14463536906656388,0.10020061422355132,-0.08432083600246297,-0.03730747266421607,-0.0646994739023666,0.04509261713143948,0.027660050254025532,3.524175380751193,0.018962263633017024,-4.819540404258517,0.17829475297998815,1.088049344063184,-0.0811390120267581,-0.048628755365349476,0.359375
0.0214454046744781,0.00019784669701013882,-0.0030223904162248274,-0.0005274916906478438,-0.0006600525311901365,0.0004300986154932994,0.0013221387839853526,-0.07638054031386864,-0.0005287744495129923,0.010895584757242793,-0.007624378081254133,0.07367634867137524,-0.0003423565084243294,-0.013301436822174694,0.3671875
0.4662903338137124,0.019026157360409583,-0.0543258274966379,-0.020606694758378806,0.024691504960489413,0.01716384068496977,0.016721563137497793,-1.8888889593531104,0.0006647600997517239,0.21132219414043182,-0.18620329543907024,1.7532592624686636,0.022351673662808474,-0.3639030314180002,0.375
0.7453950044307281,0.08359154964812571,-0.12393270498160305,-0.05055648601596387,0.0011758204698707215,0.04988348621668687,0.03863967286796773,-0.7509922534671664,0.012053537547231681,-2.376603641047319,-0.1676915766916989,3.106368048905877,-0.011722373873682242,-0.5497826260482039,0.3828125
0.5387756104750309,0.07955567656504944,-0.10360595974412065,-0.04277978703354172,-0.014043649509088181,0.04407402190369077,0.032538023934504966,0.28972496667751213,0.012429300332515264,-2.711079742807845,-0.0732245243623654,2.342826233008769,-0.026493997841007012,-0.3837842237581521,0.390625
0.35323967379679166,0.05936453850448791,-0.07355391743290275,-0.030368721285711463,-0.015543000965445374,0.031971781777737546,0.02320595198188473,0.5240981454700311,0.0094556239066123,-2.1693048626221616,-0.0284914262655025,1.5658917476075824,-0.024845813409156606,-0.24462302170223107,0.3984375
0.48003287869091105,0.10529711339629302,-0.11671765685783757,-0.04943551718820188,-0.03897971274874585,0.05396762962765662,0.037035712502480105,1.779917713534701,0.018033261501369607,-4.21199022349219,0.022280684374723726,2.2877626767120693,-0.05593864261356057,-0.3174402592615958,0.40625
0.5478949403073472,0.1461371274003186,-0.1511355268479945,-0.0649266776914448,-0.06348863448231876,0.07250908841240794,0.04825700607274279,3.1407589784625154,0.02588451117621255,-6.128085017171117,0.08856258879911451,2.780018456232217,-0.08722498076467665,-0.34735315926346777,0.4140625
0.17276602206227448,0.06693212526664633,-0.06294507065452956,-0.02706238685847138,-0.036919770103183175,0.03149705934161371,0.0205515566990211,1.898416724226667,0.012012847503573693,-3.0093985381108848,0.07958162609763358,1.0081665184904036,-0.04760207867527552,-0.09572325584810547,0.421875
-0.46555221741398545,-0.0903033438149067,0.10271143032609303,0.04468207601198181,0.02472403410527184,-0.04761967805759324,-0.03190084340406669,-1.1607136305300616,-0.016080434961210657,3.4282545878510566,0.010806178728258897,-2.1566205419913427,0.039929743287990115,0.3203680790316048,0.4296875
-0.8200310238689662,-0.17603243890558984,0.19349884368969925,0.0839835079745332,0.057452730068637575,-0.09079803459084351,-0.0607016992792347,-2.77103165507979,-0.03131119841209542,6.904910759658758,-0.021879180174236647,-3.911690107258045,0.08669343212933515,0.5540956032542681,0.4375
-0.6341035412139719,-0.13916628285960855,0.15151509075338024,0.06598508905119055,0.04589172141051485,-0.07145030610060016,-0.047505648354324415,-2.248799535050245,-0.02487634748183632,5.475275251121704,-0.022629021674064453,-3.0443992413564493,0.06904343057479936,0.42856673382032745,0.4453125
-0.2527919734084262,-0.06839111774167955,0.068939426079624,0.030705352247989398,0.026475766545267523,-0.03397731840974017,-0.021514917173497874,-1.4280123437875074,-0.012766274353448874,2.824258524180655,-0.03938588406219218,-1.2835067689876811,0.03809833508662011,0.1643554863382582,0.453125
-0.1252631956866386,-0.04573146377751866,0.04203526066093304,0.01927652793382584,0.021077491203623146,-0.021962732029993638,-0.01307238356380145,-1.2175027770199305,-0.008974464192466352,2.0031307081204077,-0.04896220369691252,-0.699691587818359,0.029076243905417864,0.07344426945725888,0.4609375
-0.21107644773473774,-0.05585903079781608,0.05645152168113888,0.02535846474246419,0.02139101200624864,-0.028044434969674178,-0.017629164152908786,-1.1680894833206341,-0.010584543700498024,2.3120014618946523,-0.03180446299697608,-1.069252237032533,0.031040437269140124,0.13561294851714809,0.46875
-0.1892030533116022,-0.044100378081409625,0.046173505067104145,0.020774236037124194,0.014410620483666653,-0.022626284186487128,-0.014363114167607067,-0.7814897143478016,-0.00833526730850523,1.759490050505011,-0.012965252391363223,-0.933294237139911,0.02205977342193122,0.12688997242711358,0.4765625
-0.015683984631318038,0.004682428709228404,-0.003166602523339976,-0.000843756891911547,-0.007255073517668082,0.0015737546698003394,0.0014114714754730237,0.3332665295405042,0.000588100700329235,-0.3171698331271583,0.022138546843828256,-0.03557277010296791,-0.007720763333118636,0.019589106789976062,0.484375
0.12494775000839424,0.06172946274405257,-0.0554974961941604,-0.024088360330729208,-0.037876418211853925,0.028584732285111755,0.018286416512305528,1.9902993007783871,0.011364138200640658,-2.9005770818082115,0.09345394338120379,0.8014883429376746,-0.04784346409409138,-0.05737907180244138,0.4921875
0.20491334508832743,0.09521623312927972,-0.08602675298267008,-0.03753182379506295,-0.05571425593460769,0.04426178673687214,0.028016421921986445,2.95729543667295,0.01763893571903605,-4.407892793483557,0.13524052161994815,1.2793889487275896,-0.07120083394426407,-0.10210511421201289,0.5
0.31354128319690394,0.09746125125946181,-0.0969191128870751,-0.041572294881419045,-0.047368672050402454,0.047199910482363966,0.031102197471917264,2.3908236471571214,0.017367713501250253,-4.218466482651344,0.08453505174836391,1.6661360387403628,-0.06304949463752749,-0.19014584846339772,0.5078125
0.41438813065946395,0.07967721188357837,-0.09288071436268862,-0.038892776107499284,-0.025025644101806042,0.041617208696269975,0.029433834511419153,1.022684360438543,0.013139212037414152,-3.031917227695704,-0.01058263046591251,1.9112354246124215,-0.037592164991689596,-0.28298204964202117,0.515625
0.4078324622248717,0.05197350397608763,-0.07257730939631889,-0.029641758486627354,-0.0051713868181110815,0.02987675848021135,0.022913779671052726,-0.11748660046875783,0.00762336586716927,-1.6375792397302031,-0.07463638529136288,1.7305347133711506,-0.013146531593818596,-0.29376840579806834,0.5234375
0.29588397564532,0.018816704264624156,-0.03950465272106754,-0.01521071642423408,0.009536743422433172,0.013755167784605438,0.012473638908277664,-0.8784619908993494,0.001636565718726477,-0.236158558126535,-0.09952927422287551,1.1513232866621894,0.006971865892168511,-0.2237020057746445,0.53125
0.16180105283318577,-0.009625374014998194,-0.008030958759421485,-0.00154029520390739,0.01921354929744339,-0.0009546245792388585,0.0024474846271439607,-1.3325716044574154,-0.0033368969260515443,0.8861802676082844,-0.10333939005319959,0.515304877278225,0.02133785766540037,-0.13497901130749676,0.5390625
0.08578696827997062,-0.02294968374042338,0.007764820514856187,0.005315869978448208,0.02285724697537217,-0.008216322873217803,-0.00266510795382819,-1.483855376591801,-0.005646721715797091,1.3892284464662692,-0.09945019647214605,0.16286201489731306,0.027228299023727948,-0.08389067006026248,0.546875
0.058172169169725084,-0.030630330846566387,0.015550661350957319,0.008692576791716918,0.026238782007144523,-0.012049661044481328,-0.005166149908943533,-1.6568111096002067,-0.007069406575189629,1.7135803798994063,-0.10468995385369693,0.015272970340900869,0.03188994404862324,-0.06616296759378953,0.5546875
-0.08254850951013189,-0.053901154220133626,0.04412220162338109,0.020671046397236197,0.031016264203324956,-0.024577886760387954,-0.013988059294540774,-1.821748333796505,-0.01091837944352134,2.535275997110335,-0.09053174233232732,-0.6083415456570985,0.040393397663882294,0.03489047403981844,0.5625
-0.44275605470947565,-0.08769211535906621,0.09885646981701418,0.04300432623493807,0.024345342120716096,-0.045904831740422994,-0.030704285558007253,-1.1554385764852588,-0.015597175598122272,3.3319587993636017,0.007844836889378476,-2.0598715091434423,0.039023620844410155,0.30633860869899987,0.5703125
-0.7486426056547728,-0.08924717259297756,0.12605718388572498,0.05308775339415832,-0.0014901751876226926,-0.052652228191420694,-0.03865689842617541,0.5741878908118567,-0.014123086487192267,2.6160032851507817,0.15809623497767897,-3.1453554093988574,0.013166414295030198,0.5529870915389906,0.578125
-0.597133497644821,-0.029627085799939563,0.07089154643285289,0.02874537492102735,-0.032726063687556685,-0.024533282546316267,-0.021056248396184713,2.2586995804299588,-0.0029880464336100383,-0.060137911464936716,0.2293557071918419,-2.2771855388315023,-0.027939120692722585,0.46774515293110974,0.5859375
-0.13734658500568936,0.04733629295944099,-0.022794630537212333,-0.010974268247311717,-0.049806504064540395,0.017101934295314963,0.008296799983807274,2.884853291563729,0.009882442525588276,-2.825239465169637,0.1882783481564789,-0.2125575917088212,-0.05752798810265528,0.14395234832865494,0.59375
0.022205468060761083,0.06001711662202584,-0.04531720867954984,-0.020171034500250182,-0.045268676705361076,0.02569136988991493,0.015284864222839934,2.4966221156132327,0.011556232784380022,-3.057464865103295,0.1391515808039436,0.43787929499529876,-0.0549667776951503,0.022519574229991547,0.6015625
-0.22546998296215548,0.0004718012551950348,0.017910132010650292,0.0071287510167936784,-0.022560254084099035,-0.004339721146212971,-0.004708674713046847,1.3786266961300275,0.0009929151372773874,-0.6351708062371374,0.11657697260653234,-0.7745623007741201,-0.022470986671738812,0.18551922469225737,0.609375
-0.23418391769865426,-0.0407721660041882,0.04759644372385935,0.02092834424179402,0.007530760372647755,-0.021951239257825054,-0.014596380396524755,-0.3498615589190316,-0.007317845793948756,1.4560177306581195,0.01942555806909975,-1.0648888170558142,0.014537862535980118,0.16715686044917552,0.6171875
0.34505411146171183,-0.0016111531192663136,-0.029784228148726038,-0.010089462246000708,0.029308132367571904,0.006057924265962659,0.00883908897210373,-2.0579990524522667,-0.002819439797746446,0.938751225571595,-0.17504910010639926,1.1800369356114218,0.030272555720489893,-0.2770544496413992,0.625
0.8962997499133629,0.05930529231724757,-0.11989745711350865,-0.04731454868085629,0.03243095905266089,0.04268964259845062,0.036705122447979244,-2.670165151371678,0.006267625330150367,-0.7552364942347299,-0.3025938641753344,3.478199414880706,0.023712209824122036,-0.6863219668940376,0.6328125
0.7507883295425302,0.057653359707533325,-0.1060564976704803,-0.04211822405663471,0.021040069748656853,0.03904115636683914,0.032704047177841686,-1.9006653304038086,0.0067785594409061995,-1.0309370187106002,-0.23459672414621888,2.9742430150250687,0.01251450160446224,-0.5710390201117966,0.640625
0.20865401728766036,0.008827362168479874,-0.02506881544062705,-0.00905585553417126,0.009897250239956851,0.007627794898780674,0.007827791567665011,-0.8326997577493642,5.214860539104501e-05,0.0794294553670975,-0.0827147789544405,0.7866240839926065,0.009060505047671414,-0.16242777411569242,0.6484375
0.009040576125166996,-0.014215492783860646,0.00826707948263945,0.004733098268091762,0.009424740394652213,-0.006021863054493092,-0.0025303769819076836,-0.6466911124817212,-0.003444968288474623,0.7369277586579973,-0.03827638872498302,-0.05857889555528539,0.012202204494661473,-0.013338727110406715,0.65625
0.20411786168512935,0.003964728426065188,-0.021224236505908857,-0.007359687058178312,0.012823812399526492,0.0055796790724416375,0.006571417692648069,-0.9948004213919142,-0.0008773966890340497,0.29891354616743565,-0.09068242697894961,0.7335947903903582,0.01268056836286516,-0.1589193996267745,0.6640625
0.25461635343143585,0.02052982374120086,-0.03711682464769253,-0.014333298700960678,0.00489175466413382,0.013562629376882934,0.011738183276919216,-0.5782875059904621,0.002196841466473286,-0.4178606286457332,-0.07560525494686546,1.0203691975048477,0.002038189778099011,-0.19072316544744686,0.671875
-0.03928834575255323,0.010463769594057043,-0.004861407239287029,-0.0018127942159806925,-0.013304580479658183,0.003453386917164568,0.0021355591693706486,0.7006630047988475,0.001854943297094322,-0.654455955759091,0.04637176827563994,-0.06496652529085488,-0.014693020914079922,0.039270385424897934,0.6796875
-0.38847722564657644,-0.012419095970135238,0.04095522411126795,0.016548937286333717,-0.02697058891931366,-0.013083074538310025,-0.011836114407397041,1.7634416845527814,-0.0007489380240618609,-0.38975084279925454,0.16563542125682548,-1.434259629724769,-0.024852905614722347,0.3080777585865234,0.6875
-0.6087389449244262,-0.02555899060577927,0.06886065313842661,0.027666793988623064,-0.036899557447242645,-0.022902277034136786,-0.020321430222564784,2.509720270620272,-0.002075338180613619,-0.3072911146323962,0.24566282584405433,-2.2952184827924196,-0.03286438254654559,0.48041146163468895,0.6953125
-0.7287688275201014,-0.018035924800877946,0.07383303651924486,0.028947398257956065,-0.053459496773289726,-0.022084686045936417,-0.021496930500229508,3.558413849092445,0.0002118357013344138,-1.0215907460864984,0.32620312803209167,-2.670676909344431,-0.05087115492041143,0.5839087093947622,0.703125
-0.645887955117726,-0.0009285028634125565,0.05484274492285818,0.02078357133428851,-0.058892465795097174,-0.013306320336084617,-0.015443085044041528,3.8051616954140357,0.0031868386485969253,-1.6770677739113526,0.32636260763112906,-2.2688542161047884,-0.05905954868324045,0.526878378775531,0.7109375
-0.2422088859241367,0.00041547640071623235,0.019444024795989064,0.007749040817113692,-0.023877128070581483,-0.0048430141720036,-0.0051778678798811125,1.4677962762996224,0.0010255245790060147,-0.6726189739436197,0.12449085044654576,-0.8397360343261484,-0.023757317595111082,0.19875672548147308,0.71875
0.2511719914243134,-0.01810980800261262,-0.009806229831952286,-0.0015792113395365808,0.0338309127788705,-0.002910574779059419,0.002637744856449274,-2.2472773522961704,-0.005669283463099984,1.5754958147976577,-0.17105512715749494,0.774181741643945,0.03761398950526143,-0.21384205456060917,0.7265625
0.461440631601725,-0.03160701849930735,-0.018441974187526928,-0.0037177495059417067,0.062407418122413696,-0.004376065256854548,0.004644434880365061,-4.059213678207012,-0.009613890260536665,2.8065605778762612,-0.3097123575316001,1.4202467521730318,0.06861366084568615,-0.39228101054340164,0.734375
0.35330926237605337,-0.02918856977870123,-0.010919732300806026,-0.0011596726475676927,0.050764442715437,-0.005422205671474381,0.002552201599984429,-3.3028630894581137,-0.008426229088966938,2.3858527618609258,-0.24789463967808248,1.05339860588993,0.05638339704996206,-0.30209164093438123,0.7421875
0.17713760516932756,-0.026618196336472347,0.0025009767579523444,0.0034766428777161895,0.03321144994148004,-0.007831968571228849,-0.0011602607902887233,-2.1538632342305464,-0.0068457809844554044,1.7965760930719519,-0.1526566836832014,0.46133275065385587,0.03824439666250045,-0.1577611776825914,0.75
0.11003034508175547,-0.022522144437473347,0.005540463794298578,0.004257819284335602,0.024505721724290313,-0.007512239375191,-0.0018622870927375327,-1.599651842342522,-0.005674462856259889,1.428432457381345,-0.1101467261948995,0.26085051042752105,0.028861808675632,-0.10220425789061903,0.7578125
0.1635965619990281,0.004451827280973897,-0.018018129682474335,-0.006225422948202698,0.009349489909999172,0.004881688911025414,0.00571876887366873,-0.7652619760278025,-0.0006026439489389278,0.1929593647574841,-0.0715943132500305,0.6075895247860428,0.009231685485747303,-0.12949151407337908,0.765625
0.24353489468061945,0.04121623778793721,-0.05087760353875183,-0.02080754424897541,-0.011254643235687612,0.022032746199735706,0.016260083859011048,0.3632190948387646,0.006371948355125066,-1.5000801795005916,-0.02000711485257218,1.09635396849307,-0.017570405552194652,-0.16957931058406123,0.7734375
0.1829840244931311,0.045045741713380015,-0.048514293504863984,-0.02023122923225382,-0.020014362462530008,0.02255730280599404,0.015680089977134964,0.9166050053112582,0.007590174712174452,-1.881731036121882,0.02243656805372893,0.9001452593762822,-0.02713880108026179,-0.1151313543445432,0.78125
-0.0480654805104419,0.017703868338282136,-0.009516339168524351,-0.004063110756858116,-0.020278818770467052,0.006501220631831542,0.0036117745007643964,1.1122269462707086,0.003475509366481692,-1.0926895010017246,0.07247356441708569,-0.07021557244136213,-0.02305176777627831,0.05605239183178007,0.7890625
-0.19643614111330443,0.010062029863820997,0.00857213806556374,0.0030836403362741096,-0.027356201886233594,0.0003048160625584341,-0.0018182476192068345,1.636029748562892,0.0027542179026864887,-1.0710663004856609,0.1267841184519584,-0.629866096200089,-0.028917160475840222,0.16937772789589314,0.796875
-0.06915161525862237,0.03744768121324441,-0.02164132035591869,-0.009905641812416925,-0.036084403540305315,0.014302947122126734,0.00774998054871556,2.0386574533538377,0.007458946636571489,-2.1207873354932185,0.12797937285982927,-0.019998350614483004,-0.042035075526315656,0.08067728187532235,0.8046875
0.11166121529265696,0.0536797385761728,-0.048621633305434064,-0.020915512269460812,-0.03219695235266605,0.024681075879429623,0.0160121529546512,1.6714281218944096,0.009664136742064204,-2.4794858070873302,0.07679711301498982,0.7035233355919189,-0.040674263874448724,-0.055673838729808404,0.8125
0.054227366785691934,0.029236287758725252,-0.026516407925605702,-0.011081797686077569,-0.019360284155924203,0.01324508753967651,0.008840216187186231,0.976150224952967,0.005113030879723805,-1.3909021415180327,0.04715086556724226,0.35031003046193065,-0.02383347923864435,-0.0221859508820322,0.8203125
-0.11154222172837573,-0.004296899346892184,0.011370189951221913,0.005162222713906978,-0.009119019142690374,-0.004124031924152861,-0.0031221892471216383,0.5167714795581604,-0.0006557621929267736,-0.10967636686394033,0.04873928398473267,-0.4265107001273537,-0.00816593081206535,0.0919947392341508,0.828125
-0.10718268670685642,-0.013239285716299164,0.01742933711219049,0.0080250752167036,-0.0017910307380560153,-0.007780144319980726,-0.005074820488982423,0.09074811272819043,-0.0025038103226133904,0.37347867470298596,0.023111810155479823,-0.4523591633256298,0.0006862753286084465,0.08056235974420221,0.8359375
-0.017497553402299238,-0.012983445457536212,0.009679672532547517,0.005216920399927971,0.006283444508594565,-0.005965750743152536,-0.0027600000721800274,-0.4473630924534569,-0.0030079330239681243,0.610053072000182,-0.023188435630383364,-0.1280131281777168,0.008861534167418701,0.005269966918910865,0.84375
-0.09463897584857767,-0.03207984998129364,0.029811845507372318,0.013970213005725225,0.013791994506794664,-0.01567578708346196,-0.009143069576430036,-0.8216727225951118,-0.0064291066088498884,1.3917311629887819,-0.031593108298349055,-0.5132223659026168,0.019532123497842873,0.05599142829829437,0.8515625
-0.28696907229615565,-0.06615859546677005,0.07033589562123249,0.031152923876076967,0.022080305421610522,-0.033913052346737485,-0.021892268879711272,-1.1484368189266927,-0.012191709242364498,2.633288346452401,-0.017653552678724857,-1.395939984307917,0.033344237218977724,0.19327341641889617,0.859375
-0.3673692496904864,-0.09118854237378239,0.0948257914939246,0.04177919909483898,0.03351825238481784,-0.045994813477738,-0.029727353525501172,-1.743650137140791,-0.016775062310276142,3.702984774186858,-0.03799760291799848,-1.831493321722543,0.04888252064022111,0.24486970578850326,0.8671875
-0.29959031046194773,-0.09061265578020837,0.08850729948732529,0.039422011154500405,0.039054775963445046,-0.04432187033000917,-0.027916669760427962,-2.115325187574564,-0.01704201603484899,3.846405869643879,-0.07063755744740034,-1.5928892409869566,0.05436860146799809,0.18998540052557256,0.875
-0.14468659985304655,-0.054319648242391765,0.049582829310097325,0.02271904960262047,0.025654681783508482,-0.02592321145509618,-0.01564346649686068,-1.4635047840765334,-0.010598908605045658,2.3839418679513087,-0.0594069568840174,-0.8322693833685896,0.03501447697955137,0.08569963426579293,0.8828125
0.11033185276967895,0.012800763046027456,-0.019571610928687522,-0.0072919234904143876,-0.0020053479279274963,0.007452886480979902,0.0063205665195481195,-0.067415543877727,0.0014784538517098357,-0.39874787335279877,-0.02237790101996718,0.4662007652867975,-0.0036593280288831236,-0.07965402624253244,0.890625
0.36695906609655277,0.07203553541806998,-0.08332302212224488,-0.03491688316410194,-0.023705391494142664,0.037589104878064564,0.026543370380968625,0.9836754554492148,0.011943962194128275,-2.7726751037671504,-0.0052818888910771454,1.719120844892404,-0.03504175101034703,-0.25006857118890574,0.8984375
0.41330360684826023,0.083792224093501,-0.09565752395316739,-0.040370519098092764,-0.02848888645889204,0.043526851287202274,0.030495480003642973,1.2235900033604763,0.014044638436515836,-3.2607059614706246,0.0008727922508108705,1.9427208668652154,-0.04177928863190672,-0.2792506037414661,0.90625
0.31147336282452565,0.0645339295341402,-0.07341452700212105,-0.030845070472894087,-0.023139521668753788,0.033371662117218356,0.023505927170129753,0.9949347808976521,0.010751144668034156,-2.544575725376048,0.005226169011459951,1.4606834952200964,-0.03336260326432453,-0.20791120495352505,0.9140625
0.3398009089018028,0.05949839325900349,-0.07226771039625131,-0.029974604380790457,-0.016895542232904785,0.03175613278899783,0.02303091852337494,0.6120001442291583,0.009578362892482168,-2.214421252017709,-0.0212545915960685,1.529990222032294,-0.0262789657889017,-0.2340463740321793,0.921875
0.4145144657075874,0.0621122649855294,-0.08043556351120727,-0.03308288788538544,-0.012167433521843886,0.03428683748573347,0.025467640934483924,0.27927072860057556,0.009672375725755356,-2.1448291010339364,-0.05309211354533434,1.8171057578202534,-0.02186002325435945,-0.29431380356675474,0.9296875
0.15612312336865583,0.029163836309100095,-0.03498382752994878,-0.014076281004587679,-0.010115230069662497,0.015193163003311564,0.0113137527267616,0.3623557177770231,0.0045008397877153074,-1.109268590417103,-0.005504003376346419,0.7223534607179027,-0.014438228859822882,-0.10718843589681534,0.9375
-0.3437377570532027,-0.02787065623532199,0.04807354873377413,0.02038026606077725,-0.011421418388932033,-0.018832006074715742,-0.014450019783314462,0.8301261984449058,-0.004134803525914332,0.5273252819713817,0.10489364203704199,-1.372267865244389,-0.006633509926660314,0.2620967566055374,0.9453125
-0.5324834449556418,-0.0511516491007648,0.08054385206870995,0.033860562829644975,-0.01078055793218826,-0.03233865884632675,-0.02454849941159467,0.9422972749512112,-0.007728836938722449,1.2243329651335355,0.14320608796046091,-2.1791014526131853,-0.002315098963891792,0.4019295464940987,0.953125
-0.2933384387495514,-0.03429493821496135,0.04804783986636108,0.02065816354194873,-0.002527037323920221,-0.020353927130836013,-0.014582242444122623,0.27827538601365237,-0.005670912359200333,0.9682981821621358,0.06528050036305484,-1.238170123010361,0.003310573696592021,0.21941946127854453,0.9609375
-0.06814418591540106,-0.021894345602308362,0.020122454101992118,0.00950024538875657,0.008048589723550669,-0.010625929878900143,-0.006019555289105491,-0.5098997052109342,-0.004456436817226084,0.9172591986545793,-0.017863914564315343,-0.3619226937926674,0.012050986153274736,0.04355560749881368,0.96875
-0.024101988684837743,-0.01937602197106831,0.01484541309976483,0.007454978866630467,0.010291007319468908,-0.00880801495002411,-0.00437841743654526,-0.6736048088957814,-0.004249829168835494,0.9141963800899979,-0.03496134473589862,-0.18410274580655703,0.013948967358721689,0.00828743699588536,0.9765625
0.10267652151765502,0.0015861360436519344,-0.010735527777965439,-0.0032961566873875164,0.0059477336519366585,0.0024525409248792552,0.0035431367587637256,-0.5199796754731969,-0.0008166348222275509,0.1716674549659084,-0.0472414673921723,0.37545664861542455,0.006195649529211076,-0.08053686175741652,0.984375
0.28357567905217335,0.020183320754937527,-0.03956651048292204,-0.01516159162962211,0.007823085859386188,0.01393847658694595,0.012332737594948264,-0.76835674019324,0.001890721493549823,-0.3259951140164285,-0.09122590116481956,1.1035987422039146,0.005068036701408702,-0.2137179339351264,0.9921875
0.15455200382419615,-0.0076298381307034965,-0.009034685863241796,-0.0020975502902284824,0.01694802843014191,-0.0002511632944719328,0.002729739417661697,-1.1950261036918763,-0.0029033892295498615,0.7508732352681193,-0.09376715148191238,0.48498225180942633,0.018695020565622885,-0.12607174705096355,1.0
-0.2435462949811028,-0.056479342465968536,0.059647666046103894,0.026448190554587733,0.018309040157421002,-0.028763666370312455,-0.01846500469714778,-0.9641237232561038,-0.010402550298273213,2.2254249137992734,-0.014105494090169191,-1.1858952608912012,0.02789506210797683,0.1648677331885743,1.0078125
-0.41625748841786203,-0.06291891408635776,0.07909623132638133,0.03406644440127228,0.008140680854690741,-0.03501720651880664,-0.02430433378459019,-0.2430987576736651,-0.010734287172873771,2.124755986160757,0.05573861798749644,-1.821858641566916,0.018721793940496147,0.2996071343792799,1.015625
-0.18624861969248188,-0.029928358658016022,0.035998798964000815,0.01604379573042562,0.0040180434563737676,-0.01660137503830023,-0.011017536225617951,-0.1845054870984334,-0.005481093289986042,1.042448394837085,0.02050798507764912,-0.8304882423977669,0.00934047246818084,0.13359701843368094,1.0234375
0.05898190752781538,-0.009064906235062118,9.546842270597508e-05,0.0014543515966359867,0.009991401951614565,-0.0028633097634138192,-8.582583096928293e-05,-0.7201528562815799,-0.0026988941855808778,0.6026276377863533,-0.05100273988828342,0.13959920093350767,0.0120106537817375,-0.05149331237319925,1.03125
-0.022040853935776664,-0.004063555995793179,0.003508885126684078,0.002282866869623307,-0.0012428993885195128,-0.0022229764252687783,-0.000820588231477094,-0.008450004462106869,-0.0011412855205299906,0.11676892031914575,0.0035073337383568054,-0.11334144447651723,-0.00023573007113367986,0.018310317971281898,1.0390625
-0.26152282690024947,0.020636629717144316,0.006742201535270047,0.0016264319121116334,-0.041086233171147256,0.003514946169860562,-0.000899398090028711,2.4777512067510132,0.0052979337163967565,-1.7829902654153718,0.18586245828886447,-0.7943736066394874,-0.04450024495159142,0.22865743641738454,1.046875
-0.24882864840191077,0.05809263391920046,-0.020646767088588088,-0.011060749449319706,-0.06780605940753472,0.01952148900939698,0.008123841873571928,4.010315531749771,0.012747175920917689,-3.6620300994107433,0.27116103439243877,-0.5203638792502966,-0.07745245830408848,0.24158084571905672,1.0546875
0.11933118681574308,0.06482298019087214,-0.05691338198100977,-0.02472741149107806,-0.03995484779750209,0.0295807161365139,0.018718238639500936,2.116219891652101,0.011876129306536167,-3.0326784356142844,0.10085715861721521,0.8072965838092312,-0.050318229429727794,-0.05387399684397002,1.0625
0.5202157289884968,0.03669288589732478,-0.07150197098795781,-0.027998516488887924,0.016593222946474532,0.025641628537265884,0.02205840117524933,-1.4609453702982262,0.00384106107674398,-0.5440032633236405,-0.17087547537070755,2.0376631118934267,0.01133661148957503,-0.3973281826652705,1.0703125
0.6553524268255622,0.017231034390238036,-0.06950187220637155,-0.025901955000498855,0.042782805755448086,0.02015386495804847,0.020924451634197167,-3.0796222573876357,-0.0008145421898959172,0.7886743489160521,-0.28565909120026534,2.388179957957283,0.040871764821031144,-0.5182719197010046,1.078125
0.5852072464210792,0.02836574142885485,-0.0714316144666906,-0.027453030770913676,0.02794813921059644,0.023496122338555563,0.021812541107608933,-2.168985954311619,0.0018886648248764668,0.018181752622339214,-0.2214397956390915,2.2050648800080404,0.024070067960842243,-0.4527926159899488,1.0859375
0.47282575436962815,0.04200153207701767,-0.07134541178819585,-0.02839611397768335,0.007923267543135458,0.026991297278930255,0.022150709735483547,-0.9240959394190773,0.005263880179339631,-0.9665925201214458,-0.13160872818094985,1.897009891338393,0.0016904684185433244,-0.35299153667397204,1.09375
0.3159608505340592,0.03288021230968475,-0.05131884475991319,-0.020391903400053667,0.0012771038056284413,0.019959734570335695,0.016087685212965577,-0.4175212830203125,0.004276246320145335,-0.8826344221321045,-0.07695492138883601,1.303674193144212,-0.003493799592223426,-0.23341280832860933,1.1015625
0.12723290903211731,0.016127953015221387,-0.02327808730165245,-0.008943482701589874,-0.0026902691846377395,0.009107859707742928,0.007540336984343141,-0.04223841487403109,0.0019848803428611167,-0.5046580449763323,-0.024100300596692707,0.5478669909744548,-0.004806208325708544,-0.09226442849722549,1.109375
-0.04396073331424484,0.0036901475258681263,8.154395295702333e-05,0.0004579777933408283,-0.00873332556520964,0.0004927960466968379,0.0004495777523795675,0.44034030993361095,0.0005120456308019548,-0.32822832563785237,0.03262230479494324,-0.13245181155614097,-0.008999110686170745,0.03993034883078578,1.1171875
-0.42715638802250927,-0.035884021008168246,0.06076297820775407,0.025454273767444413,-0.01323250292515257,-0.02375602368489229,-0.018267766021446943,1.0014276647216154,-0.005207879684807153,0.6903842836482874,0.12932120653540113,-1.717130206302306,-0.007309503153113989,0.32755127494791375,1.125
-1.2107645521844659,-0.1172421405397398,0.1853876652778336,0.07681863765544295,-0.021506573316239116,-0.07362731504976971,-0.05662930677899353,2.091993429353895,-0.017056207859900446,2.8373536212204096,0.3226260567697403,-4.938407209626792,-0.0026766411028123606,0.9108511116633969,1.1328125
-1.7472977883085417,-0.16901256535216802,0.26806632154476856,0.11072793952010455,-0.029889697485813223,-0.10616627247372601,-0.0819170708320923,2.992856051477112,-0.024387500338233992,4.120346539583966,0.4632914126982806,-7.109448709635162,-0.0028085471137031135,1.3104077474926898,1.140625
-1.0535703572881743,-0.1116428851072085,0.16820513538400692,0.0701264800367266,-0.011437372351998926,-0.06824231105388023,-0.05134130075168125,1.3835327253495062,-0.016872670174469005,2.9853381015428995,0.25487511370372157,-4.335647244770438,0.006740297467377252,0.7831919594136533,1.1484375
0.5289607403928293,0.006245358145286501,-0.050750522065676734,-0.018313065139747852,0.039957995440304074,0.012902086667810939,0.01522311804349869,-2.818742437463484,-0.0023348305999492543,1.0365230246564918,-0.24991703698814727,1.8897387334238123,0.0398704872352005,-0.4229679086755302,1.15625
1.3102766906723984,0.0530025735109298,-0.15092006514440798,-0.05825935396517323,0.0737422919800461,0.048186700055223866,0.045343317234313084,-5.376632594466199,0.0025362920028789327,0.6542312467128046,-0.5264043096497601,4.884231975218552,0.066519745022057,-1.0238948920927415,1.1640625
0.5429882288602352,0.009173309003370607,-0.054257592407109756,-0.019790588493381375,0.038671386979371565,0.014546234245159294,0.016132207387595868,-2.75145743086521,-0.0017994014685330391,0.9047592100170421,-0.24770209292445794,1.9370273929468576,0.03801176902731394,-0.4292809020782387,1.171875
-0.4299948791050178,-0.0028560535709802365,0.03780494113750522,0.01474882800685132,-0.03821225732855749,-0.009769441974902692,-0.010650226358266322,2.445427916919997,0.001504293941143183,-1.0053404406580877,0.2120591470932567,-1.524176628135408,-0.037831516578535895,0.3498284181120155,1.1796875
-0.2507369690936525,0.06993298248736791,-0.028776295602849677,-0.014763579761959475,-0.07674803115328005,0.024510832273235347,0.010824447002685115,4.5277542159415445,0.015168390379370072,-4.272602966858767,0.3008147544551187,-0.4506605540247,-0.08839877448156609,0.248883698944801,1.1875
0.45990610008311206,0.1122556801416642,-0.11959876814133634,-0.05101448793132276,-0.045569164640602317,0.05640582956256188,0.0382424962770892,2.1725743537623385,0.019522961288654453,-4.595125146145439,0.04714458748546804,2.2857165737709804,-0.06358185633068274,-0.3002077433435545,1.1953125
0.528777787400374,0.05029459457398229,-0.08192348637557817,-0.03287584339295756,0.006930465372862596,0.031551599991449714,0.025439257836168534,-0.9099876803445918,0.006558780595431501,-1.2343320873680173,-0.1404512219201635,2.145678306848915,-0.0005902912220471135,-0.3940629145919721,1.203125
0.4482317769752102,0.010333396687272232,-0.046944215422158334,-0.01726104767015726,0.029695115103428458,0.013106010074047457,0.014147760180198934,-2.160527646611998,-0.0010434337010171196,0.6044706469267632,-0.1982450187426548,1.615996971094195,0.0287660866045741,-0.35340446632106765,1.2109375
1.2014057791972845,0.09988924983392145,-0.17479529979070454,-0.07037795342321687,0.029093411826267096,0.0659385662910241,0.0537493677587777,-2.716656403521963,0.012684620291210764,-2.041909171889216,-0.35604556345911087,4.782578432790027,0.013824783873980164,-0.9076243890714438,1.21875
1.7990379827428598,0.1728042966031478,-0.27747214684817423,-0.11308794632388253,0.027278753451782947,0.10858765321661662,0.08556840397189446,-3.081263823155284,0.0239451072568383,-4.232372819346772,-0.4771066371500239,7.313814064022774,0.0003788729707670031,-1.3469151663590175,1.2265625
0.5366986977192383,0.051926940516383725,-0.0837496935909097,-0.033589750267627005,0.0064219687209008955,0.03238216854136787,0.026070251148993088,-0.8896132868691053,0.006876944000292662,-1.295548610637303,-0.1407463885623879,2.187612175460363,-0.0013609459128644899,-0.400918949758736,1.234375
-1.753879694192305,-0.1404691274870542,0.24862853318182104,0.10170939040188079,-0.051706620837938776,-0.09442588042297596,-0.07556091828656177,4.259190768985933,-0.018641866046034586,2.640970699100983,0.5371273451686056,-6.967145306842396,-0.02943251402031756,1.3345065955621978,1.2421875
-2.517863870857557,-0.17344862813176865,0.33734384723565247,0.13649491840378553,-0.09459180148898397,-0.12347845351640148,-0.10214985689887023,7.332617279631978,-0.020825539715893012,2.344349390886704,0.8411195536921979,-9.84191799174014,-0.06758376530466041,1.9342548176363337,1.25
-1.4029082779911768,-0.10808370256793014,0.1953301713998377,0.07982113957473726,-0.04529115407706932,-0.07360873928022335,-0.05923930490707298,3.613119920325814,-0.014082091396014617,1.8758347687563746,0.44179065789138183,-5.5560058257602485,-0.028147943330290397,1.0719676435576058,1.2578125
-0.45755372571461983,-0.1479932098420521,0.1423708281830957,0.06320569936273229,0.06807851335766045,-0.07163292588903125,-0.045105823849579785,-3.671410782125437,-0.027655981107249452,6.389104960329201,-0.13380613694427324,-2.475421400411836,0.09297312087861404,0.27838500636715297,1.265625
-0.41615971774440136,-0.20452820419736403,0.17903474539766448,0.0806506270027252,0.11431188154911816,-0.09475685526427595,-0.05729999611163296,-6.370884537314463,-0.03937300244823944,9.414603216930747,-0.29578976400087015,-2.65404856371765,0.1487998949958229,0.20756307067009158,1.2734375
0.07137939894955864,-0.040813016672237495,0.02195268140007594,0.011659406269290292,0.03488046262820746,-0.016015335882349737,-0.00712434259078718,-2.164192490069223,-0.009191213722262897,2.265163064359512,-0.13627339598444163,0.01704228666026799,0.04221362514132912,-0.0821459501442799,1.28125
1.2603978506263047,0.23027163146153806,-0.2714816902380291,-0.11488647766180038,-0.06334623535643755,0.12212438690752953,0.08550611413486764,2.5768206637254933,0.038659074252008555,-8.59662910268003,-0.06291201759310612,5.765646518202616,-0.10056787371556658,-0.871002807995762,1.2890625
1.538157342024345,0.25680480542073514,-0.31434107860036115,-0.13254575555704443,-0.0589551724223315,0.13895900190033098,0.0986391354856316,2.103989603308611,0.04246066952632402,-9.248554194447316,-0.13607760370372718,6.888860843335823,-0.10036680118862479,-1.0786290793747337,1.296875
0.4129853746571732,0.02303058685402787,-0.052878094105459815,-0.020432613785705562,0.01679298099003257,0.017893472673633868,0.016337992649812977,-1.391154458751085,0.0018145766953315576,-0.14348569981291176,-0.14839452802473915,1.5804802164864098,0.013710814509074376,-0.3167571815119535,1.3046875
-0.5061936735737185,-0.12936703765733837,0.13372902268888384,0.058680795194341086,0.05003777966618939,-0.06486144326741548,-0.042007177733455706,-2.5914449105662927,-0.023662180503971935,5.319372559556348,-0.06377770779873321,-2.529438995806565,0.07176163940726758,0.3300758701528178,1.3125
-0.1752400766360702,-0.043842169959246155,0.045034655891160714,0.0203425637969182,0.015407281982660264,-0.022285759558183026,-0.013989326088298473,-0.8494212546765699,-0.008368909858346017,1.7852013406981069,-0.019284063195587276,-0.8755215742450746,0.02303874894509074,0.1161547675296219,1.3203125
0.49781357626381967,0.0862694727241072,-0.10473615119242977,-0.04359779295759567,-0.02269112773292553,0.046092501773179535,0.03301315177887444,0.8238597258602588,0.014006702912116503,-3.1650796334605014,-0.03584324417956559,2.238316352659158,-0.0363418294185472,-0.3464295919412546,1.328125
0.48695929221077716,0.09490230045994322,-0.110094116826832,-0.04628830530775818,-0.030372714274660522,0.04968931600291867,0.034902440719384656,1.2737273329610963,0.015889085547116755,-3.646642782266262,-0.00834448057895777,2.257459808202408,-0.04549491100398853,-0.3322373122129858,1.3359375
0.04783356254683541,0.039339402544939235,-0.03320601432777708,-0.01433176997119829,-0.02766918835463474,0.017567858115236024,0.011157867729960283,1.4596622011057674,0.007268719499232255,-1.93303236551234,0.07563168081759308,0.40290105075365085,-0.03386065027191425,-0.011534452764726665,1.34375
-0.21242885163704095,0.0021188949433511464,0.015524171134682721,0.006208718675779481,-0.022613238545447705,-0.0034304096676118687,-0.004074086643237495,1.3731064598853016,0.0012177117461148943,-0.6897635000463411,0.11425509329766652,-0.7311237934653398,-0.02279543323271696,0.17615940128201826,1.3515625
-0.30843411031946133,-0.03160582426752927,0.04773204588300969,0.02051222819164694,-0.005554073799340054,-0.01972825370186003,-0.014462085903533753,0.4662450459636182,-0.005120689056348608,0.8044248669807561,0.0783687849611027,-1.27438105909536,-0.0001512565140692918,0.2325946748826287,1.359375
-0.4516431453952939,-0.07080871928736134,0.08781997660053592,0.0379383594726386,0.011208904434541641,-0.03914719219327408,-0.027132174854071902,-0.38925157028532736,-0.012215192390459801,2.4509757169372497,0.053151700453934504,-2.0021113854065806,0.023078225507598443,0.32326630961436836,1.3671875
-0.5022934107120001,-0.0746015661343383,0.09480902660083175,0.04064853864760886,0.00933534465475696,-0.04164340952481547,-0.02913806590938549,-0.24365623034535466,-0.012610352634639988,2.504153998931052,0.06993501233396648,-2.191871391703217,0.02177897603200244,0.36158336971951527,1.375
-0.28816817168219705,-0.03669860428248226,0.04950612716634815,0.021348268446238907,-0.00035182363819983756,-0.02129014289952909,-0.014941007100466497,0.14706520836806797,-0.006149112840404499,1.099546123348299,0.056764441621251174,-1.2224407239375894,0.005887460235919088,0.2125562463050239,1.3828125
-0.0027901412804537677,-0.003368978606256968,0.0014578410115801195,0.0014417432435130642,-2.680295304859785e-05,-0.0015710560124943182,-0.00016311299974663078,-0.09357664339737813,-0.0011184533362599257,0.13109091113793073,-0.004594288795851553,-0.03653930262167804,0.0008784888450247867,0.003079559660894008,1.390625
0.12882187218656702,0.006865723839992157,-0.016833705192199434,-0.005969467142135666,0.004181707168309741,0.005282646520567424,0.005426107166403033,-0.43828901826507066,0.00011752013406529046,-0.036077752480920454,-0.046626053651858575,0.48966937296840674,0.0035392803968573474,-0.09744857292464912,1.3984375
0.2875337479882011,0.026724762620432774,-0.04432325322896982,-0.01743498245199187,0.003435392452916487,0.016791095019625533,0.01400642455591912,-0.5202864262017608,0.0032014726138129257,-0.6367094018579276,-0.07818956848392998,1.1752381731637955,-0.00035321256153898333,-0.2147435771073265,1.40625
0.6465871498644615,0.0651726114351831,-0.10250393183702121,-0.041391286162138635,0.0062107672753358096,0.04019819784233691,0.03190927961561999,-0.9630052997413642,0.00891987803042376,-1.6933419356919586,-0.16340275362242945,2.6540362246838813,-0.0037172318434451524,-0.4816113759994134,1.4140625
0.745255589067838,0.06810594271230262,-0.11339689387706496,-0.04555150975239192,0.012490453579029606,0.04345766043598407,0.035054339362903086,-1.402694676554557,0.008964602201189081,-1.606624401877592,-0.20456673377046247,2.996540062669694,0.0021064433803202436,-0.5580293426301314,1.421875
0.06433296734541828,-0.0003449196827479104,-0.006701991195094357,-0.0017470631377127681,0.0035005631390064846,0.0010844186528439306,0.0022231487489521883,-0.34959716186475587,-0.0008940650403558873,0.1395294545930679,-0.030270790940129983,0.20337167355022007,0.00394529060045269,-0.04801281879344728,1.4296875
-0.8844530019287143,-0.08157464225032827,0.13229839592222906,0.054757006006756384,-0.019370979251053397,-0.05204130940250844,-0.04023039076735737,1.7136539613266855,-0.011776024743451189,1.8636585935656595,0.2460693989046435,-3.579406394113707,-0.006141319606128938,0.668682526521674,1.4375
-1.0822350556299296,-0.10081402641230999,0.16309487261392136,0.0674081027132246,-0.022239167422534782,-0.06417320524549984,-0.0496425690927234,2.033036593463133,-0.014523409048061948,2.3539874224070707,0.2969975422972056,-4.369319725672974,-0.005900786587226943,0.8149891152508131,1.4453125
-0.5301247684241975,-0.07589337437117939,0.09820149563110413,0.04202627369573955,0.007972309325164652,-0.042838680693839726,-0.03019926579549246,-0.14377255580846646,-0.012743105040277833,2.511403573273461,0.08018548064933309,-2.295604126177854,0.020670251288452797,0.38325563924449807,1.453125
-0.06038220095356349,-0.05414227070499148,0.042431993677325905,0.02015995005162524,0.03311286360422011,-0.0243860460634922,-0.013529984070436032,-1.961830080484017,-0.011108247878556876,2.605959774741286,-0.10192397975094912,-0.5406128611203375,0.04255889917372264,0.01791179691959425,1.4609375
0.2091888809852798,-0.00154280333777804,-0.018058487387073503,-0.005734698447850334,0.017352982594697194,0.0033144133313094534,0.005410442277179831,-1.261710050642126,-0.0020201998481296454,0.5903721141826054,-0.10657346575870177,0.7050668207213716,0.018156565851297313,-0.16636550727877297,1.46875
0.7805698350917013,0.11440226077095413,-0.14907075187661697,-0.061964704121567855,-0.019157220494354883,0.06380672718254253,0.046646609473424944,0.3986310823387126,0.018128277936512296,-3.8919852895464415,-0.10717392576287614,3.3969128989147324,-0.03730485507726846,-0.5567477715434646,1.4765625
1.2894572224245817,0.1935603606936119,-0.24847677256972533,-0.10397232926040971,-0.033438039348045324,0.10734541015387529,0.07776904567701473,0.8232836205213465,0.03116196234401908,-6.634167426338837,-0.1683474715471826,5.659056878007389,-0.06436201675063842,-0.9204189321834796,1.484375
0.8019620954479673,0.11966971668952997,-0.15425247169250295,-0.06420996893796171,-0.020896868263274183,0.06629844515685109,0.048470015886302474,0.47992630654185087,0.019026810007848022,-4.09027418927773,-0.10680473232834783,3.5225385262940963,-0.03983064104592204,-0.5731772854131837,1.4921875
-0.3886586367603726,-0.03741683663092737,0.05881872754333366,0.024945243369987973,-0.008198633392852499,-0.023789530352567263,-0.017700899962589275,0.6795062386756616,-0.005813055893957111,0.8983959781040752,0.10369138487164939,-1.5780628190134744,-0.0018792561499401798,0.2921480116846132,1.5
-0.8879118133663096,-0.09930214664683443,0.14522225983663067,0.060922303335111824,-0.006035558999581432,-0.059771048673597844,-0.04451797102903084,0.9469095967353364,-0.01539811569339972,2.777915523754146,0.20266808566267822,-3.6980273169067406,0.010166105123062789,0.6587078201780648,1.5078125
-0.2925853597740099,-0.031599521741254084,0.046371884750326046,0.019853426121039804,-0.004429174385880511,-0.01923766974966149,-0.01392618610098819,0.3887016850601329,-0.005153091225926373,0.8359740294094087,0.07124893126457765,-1.2115821393217643,0.0009420106006198267,0.2204446336625598,1.515625
0.2910502556065593,0.031184254765382387,-0.04790637948795979,-0.019135952677244095,2.293180812050831e-05,0.01887609423963183,0.015227008688785123,-0.32625323715252885,0.004145335642444695,-0.8759035606715985,-0.06741892281131143,1.209945615119934,-0.00457351253502087,-0.2130870908893427,1.5234375
0.05713040773548786,0.0003835143436673242,-0.0061298170651483104,-0.0015775601004007409,0.0026627177511027254,0.0011184423999962472,0.002209268699608785,-0.29696336885714003,-0.0007380384935629827,0.10710352186352824,-0.02676910569888528,0.20816120258338663,0.003065548549336118,-0.04467507393741064,1.53125
-0.4502373645570981,-0.0633727637052862,0.08224508437410219,0.03537329745202517,0.00582683307017367,-0.03597296703506997,-0.025313488759606047,-0.08263613461106079,-0.010698543679831031,2.072276938992181,0.07046133218703342,-1.9558615854656372,0.016477509627817983,0.3255436151258927,1.5390625
-0.4581526526220132,-0.07230296351308303,0.08913385768238365,0.03847639483145659,0.01170974664450414,-0.03986418745923975,-0.027588849991001533,-0.415266806856724,-0.012457190804250307,2.5059526238888328,0.05304151887019052,-2.045497620783971,0.02382507975317582,0.327770125525735,1.546875
-0.10774533267597794,-0.03225149036267199,0.0307648624484155,0.014144011279824384,0.012282804261034199,-0.01583986789758062,-0.009460263600626627,-0.7224178425254757,-0.006350377994945663,1.3424492663663554,-0.022950923217279963,-0.5805021479925729,0.01795355088566944,0.07088146758498244,1.5546875
0.05762351035609062,-0.002431514407239962,-0.0045057197347745815,-0.0009049878889278665,0.004276288648972591,0.00015171414097727118,0.0016526665460764472,-0.3899674526576718,-0.0012245291457463814,0.2267475867783448,-0.03162439247886842,0.1830652645337702,0.0050675149847056525,-0.04397601598156796,1.5625
0.027979622489654334,0.0023803578356083733,-0.0052895116262997735,-0.0014079283656855623,-0.0018418020629994182,0.001534774171087367,0.001945272470047344,-0.012908251648369463,-8.833805841720512e-05,-0.09346347635272002,-0.0052524118429539395,0.11356236541043953,-0.0018682872056605612,-0.01774035366056694,1.5703125
0.13085242836349578,0.013061421276683544,-0.021477872415950706,-0.007968893727477657,-0.000409487348775658,0.00792620217742653,0.006835347801772038,-0.174670341479402,0.0013920218642440656,-0.3581285135705968,-0.031843498593656525,0.535847576117508,-0.0020852875681853333,-0.09523744710505741,1.578125
0.32908912250289607,0.032880943576138535,-0.052405039745102654,-0.02073104342934643,0.0024151443142455317,0.020187103910082983,0.01635985840509996,-0.4928461788073661,0.004199242266823885,-0.8518227252289156,-0.08324273108836987,1.344256093015651,-0.0023715080362195933,-0.2437951638933429,1.5859375
0.31598647425868814,0.025138427958345748,-0.045913646983012216,-0.017964956098284676,0.0068705734360194485,0.01677932132297653,0.014373823873734365,-0.7415890031843793,0.0027601486827017793,-0.49359886405473924,-0.09528163870797518,1.2558731856580005,0.003366222706566486,-0.23803578832063954,1.59375
0.09073551200924489,-0.015670732601654306,0.0021450715688053285,0.0024273197134568798,0.01736149974499755,-0.004840930322790145,-0.000625435854338475,-1.1722091467901607,-0.004119221001817376,1.0119787768760726,-0.08226379636498449,0.23249508052704243,0.020487926776183323,-0.08119612820633325,1.6015625
-0.06779937649342255,-0.03447728096703224,0.029053909369888407,0.013702884532327793,0.01760936592600539,-0.01602682340855195,-0.009014662281897444,-1.0618135261886572,-0.007027653395456462,1.571205042785934,-0.04940973974343403,-0.4362161606397211,0.023749164334966398,0.035039044156618335,1.609375
-0.04552520244580466,0.009489905998638934,-0.00384625519205352,-0.0012821865000509707,-0.013053940411593344,0.002830276406381547,0.0016617256210036244,0.6919860895720333,0.0016556085681975804,-0.6239119228199117,0.047362656528509545,-0.1104128506833667,-0.01429469480744948,0.0444546856602507,1.6171875
0.07309246287438635,0.07873084349912052,-0.06282574845876195,-0.02771758857808781,-0.054405456463122,0.034402480689671076,0.020740755369542875,2.9863440614440915,0.014943760873642372,-3.876009267224373,0.15897686287930723,0.7092774319604309,-0.06722205461835272,-0.007260096086975392,1.625
0.20171303061041518,0.10153333034235265,-0.08984111013638522,-0.03930533639664237,-0.06032029087608883,0.046676255029755045,0.029332952018993216,3.226753108599095,0.018843875092979776,-4.717457638625866,0.15121380398848752,1.304076424198774,-0.07688527162795324,-0.09597827046884916,1.6328125
0.2074144749785523,0.054446391681727095,-0.057116311869402275,-0.02406698960750986,-0.024636647000994487,0.02696930583779776,0.01852388330621865,1.1626233839578792,0.009314888014360943,-2.2807849915752523,0.03199295750465139,1.0527357774910275,-0.03325592785320484,-0.13024137761932444,1.640625
-0.046203408175815246,-0.023381013512722336,0.01936240349416892,0.009459946255551879,0.011320456645230638,-0.010946469517603469,-0.005961111333323702,-0.7139817018716429,-0.004953712524552967,1.0609777745621698,-0.03305502193230061,-0.30440818650147455,0.015590491962797095,0.025379577347060096,1.6484375
-0.42418149799108373,-0.0786890438959518,0.09070897817196479,0.03952145130685227,0.019339959668505904,-0.04183178468220288,-0.028238636790608482,-0.8810310116977664,-0.013932022932420155,2.914402386739747,0.020591254974003114,-1.9643956872739914,0.0325542069810281,0.29645311764416954,1.65625
-0.6032116155967325,-0.08794225839936687,0.11269442069742291,0.048174054914189544,0.0103017758846233,-0.049248995588350615,-0.0347562720030092,-0.21982563613593445,-0.014718639511004047,2.9162380218807558,0.08821903938444951,-2.6370345298492253,0.02488191827721459,0.43566628082428654,1.6640625
-0.4876596510490472,-0.0638326051250503,0.08575864853921951,0.03652821434254156,0.0023503484710737507,-0.036662637969631644,-0.026192231815844656,0.14793295623235753,-0.010470347815702635,1.974968737838875,0.08972073349870031,-2.074226755077365,0.012991665200831969,0.35659981007405495,1.671875
-0.21777088731625616,-0.03207769983533921,0.03996077757581616,0.017483521128266625,0.002424823553909946,-0.017815351991835145,-0.01209549934217201,-0.06785627907191955,-0.005615863179221177,1.0456107410460462,0.03230758777095099,-0.9428075143721066,0.00800196525162193,0.15757348154218467,1.6796875
0.1262645834994225,-0.0064111543452340155,-0.007729015882044337,-0.0017867878506666716,0.013613021326665841,-0.00019202197036366739,0.0023796779373874456,-0.982659249293597,-0.0024681559870897295,0.6221528991149332,-0.07722921936733596,0.39969453066698835,0.015200924855296385,-0.10391568965013856,1.6875
0.483076422490489,0.013108003466607905,-0.05178385031515713,-0.019271803303085647,0.03053769706862127,0.014993063583852934,0.01574718872018987,-2.238887215785838,-0.0006446854966207716,0.5519984766712721,-0.20865944255207586,1.7618604651548673,0.029186820105270215,-0.3797375598939153,1.6953125
0.6765529132034687,0.028314771389604705,-0.07880211799380371,-0.03016233089267432,0.03639616397946786,0.025138179451017127,0.024042225171525097,-2.729100606303349,0.0012776382558245126,0.2852151481347175,-0.26934744059346843,2.539735671035493,0.03271454746004247,-0.5280939945332219,1.703125
0.6246220242264398,0.04041919463683801,-0.08299044297386976,-0.03244744509793706,0.022963149628044025,0.0291966618316375,0.025487910297660024,-1.9130350200929307,0.004013379695202805,-0.46322049876700705,-0.21414755463960378,2.4313446488995405,0.017235456830379345,-0.480096371546886,1.7109375
0.429741534398759,0.04756719231407458,-0.07161144870197957,-0.028760508884639636,0.0003869594645120016,0.0283962838804175,0.022253882351159444,-0.4556765894700615,0.006588023668965762,-1.3434671319471272,-0.09779813262123832,1.7772803248455458,-0.006764413290774083,-0.3166845879845319,1.71875
0.12632507351821956,0.03647748473239305,-0.037821256302545625,-0.015681612248539832,-0.018410164854246444,0.017748705612504898,0.012164489586731015,0.8687350128631585,0.0061359720327905185,-1.5789576878804255,0.02931202005238491,0.6385474714070465,-0.0240807147297555,-0.07475157524805133,1.7265625
-0.2948341139827881,0.001232725873544262,0.02338644257089294,0.009150420044141558,-0.02944164466574052,-0.005484981532087143,-0.006419122281344622,1.8350695351020496,0.001504188444651212,-0.8694429775058906,0.15514840714085493,-1.0369810215580808,-0.02964070190606757,0.24546786080608496,1.734375
-0.597131963958693,-0.02592941880171258,0.06869646486492673,0.027671231938990123,-0.03562561205211649,-0.023000573472527035,-0.02018830875643579,2.426824258864096,-0.002221207258156222,-0.24671111918309005,0.23904714509357713,-2.2395977345120595,-0.03150748476288483,0.47115623074955293,1.7421875
-0.5108975582364897,-0.007267990561143422,0.04812719945371961,0.018856829875525054,-0.041615890398966016,-0.013429819820324772,-0.013668840693189568,2.703938871099903,0.0010075041015045378,-0.9659205528523989,0.23988487886983884,-1.820569098362462,-0.04049205563680742,0.4104714359187488,1.75
-0.2268810837635628,0.028146532966918644,-0.0014472130003664327,-0.0018021801170468772,-0.04297334890116611,0.007238319179463979,0.0016620794571492747,2.560512369794507,0.0064921496170057425,-2.0511912786216224,0.18406520132691379,-0.6245926879315634,-0.04753797833853805,0.20242121599481458,1.7578125
-0.1664367447442974,0.014085988018306565,0.0030552681605427036,0.0008042429418277026,-0.02742756185159942,0.0026200240929373855,-8.188763924796806e-05,1.616529814207405,0.003348752253843422,-1.1913925020686509,0.12028247611286577,-0.506247623140598,-0.029630076146383133,0.14608661390380454,1.765625
-0.2990578042676409,-0.037911331404966116,0.05111115508418087,0.02203295481715853,-0.0005428981893272109,-0.02192931675135007,-0.015470329237005394,0.16770757010568008,-0.006317631178783464,1.1235666643209787,0.05985009253642468,-1.2763857435753425,0.005844114675435776,0.2217643097964557,1.7734375
-0.24243422322447847,-0.05232137129125404,0.05660913286307546,0.02503831429141646,0.015276775738473004,-0.02696462454863063,-0.01742860725011847,-0.7913783038716027,-0.009554714339487607,2.0200490049256086,-0.004638348703974898,-1.1517506724577904,0.024197089332046996,0.16612767904934547,1.78125
0.010094003040040714,-0.03453309944007661,0.022510768033981846,0.011329062647384794,0.024630713971679947,-0.014563088211173048,-0.007074396453296517,-1.5294956633199537,-0.0075040812639183135,1.7830880124920807,-0.08952692650927514,-0.15724594382181303,0.03090242784138144,-0.02905370131384358,1.7890625
0.0743406944837925,-0.06559893411945512,0.03883746314966784,0.019591708339581713,0.05389314196173867,-0.026495175013097165,-0.012831272141321595,-3.267590071287271,-0.014233685686136041,3.5605771600447826,-0.19993674758104216,-0.125398779165867,0.06551241030260739,-0.10188638373208518,1.796875
-0.040649539266464564,-0.11561600481383633,0.08387685106097025,0.03967077154396988,0.08109349480117131,-0.04989172299661633,-0.027425252584759214,-4.7458383746535615,-0.023671544798880104,5.826322535623285,-0.26496821982495955,-0.8365669073579624,0.10097796882931909,-0.03912399019963853,1.8046875
0.19641048362708016,-0.03995594771177866,0.010143275705673967,0.007294657777335843,0.0449067685903723,-0.013127191261143539,-0.0038925249793500304,-2.8417781936502284,-0.009691496597209779,2.5309046007571,-0.19499591367196334,0.4367882188388147,0.05218565325854369,-0.18033333008099958,1.8125
0.9018660495572439,0.16212455251783792,-0.19292557461422088,-0.08137631598253435,-0.04442679255921535,0.08632044471469455,0.06077544740249188,1.7624736938947745,0.027083467562045938,-6.040435134736379,-0.04910930762222557,4.104507334526418,-0.07053497140567058,-0.6223222143977135,1.8203125
1.318020994397826,0.2738384733667701,-0.3074089690075985,-0.1311706252764936,-0.09107831915595595,0.14174424813518877,0.09715901382148036,4.129358846356926,0.04719314098926821,-10.69313434423626,0.016453398688434557,6.22668778155801,-0.13554727444119571,-0.8904718103490559,1.828125
0.7781696435545445,0.15755212260796067,-0.17894055646651563,-0.07591444354759866,-0.05115116294678014,0.08181493646392901,0.056655559962040164,2.246956914172419,0.026766094206557338,-6.092933501199354,-0.0016109682594729533,3.6553850391814886,-0.07650012087602566,-0.5297426208507867,1.8359375
-0.3089464284431641,-0.04789085146790132,0.05940588822919986,0.025789091340988515,0.006804590159915893,-0.026578089960964137,-0.01815606819093645,-0.24812246737027696,-0.008418082310781644,1.6529683851255714,0.03720534310424607,-1.3607600949326601,0.014979104713641734,0.22051042686864214,1.84375
-0.9775350726481333,-0.14257153894570956,0.1835640384826348,0.07784025753030686,0.01822677357471172,-0.07977814965750418,-0.05672943387990501,-0.3847893325130056,-0.02358079275247393,4.763839640063026,0.14157911162145717,-4.263614651680704,0.041616629788094626,0.7048072551916745,1.8515625
-0.8867673229133155,-0.11698351947665604,0.15758249178358863,0.06650728276760873,0.006703477692561844,-0.06709102871268827,-0.048474358436029104,0.20893891119095584,-0.01887868528725646,3.6642858635548015,0.16062867033845146,-3.797476815463115,0.025841921217012283,0.6490615674274199,1.859375
-0.47106844878972537,-0.0735102968495551,0.0911321790826411,0.03919206469428047,0.011046755012985049,-0.04047548389824481,-0.028071251398210775,-0.3676065861533851,-0.012532577208212436,2.5187647134146616,0.05771526712067154,-2.080145952748867,0.023341920706376054,0.33772271070144494,1.8671875
-0.19589823773657444,-0.0464007923548827,0.048374646748120975,0.021740378103865022,0.015493513027287688,-0.02363125196405152,-0.015017162274969232,-0.8400524539724971,-0.008716276163237472,1.8648071230908752,-0.015835575072751264,-0.9523362841829278,0.023583813820382545,0.1290357546855496,1.875
-0.14264422021557582,-0.016870326979797623,0.022964653813144328,0.010406400753203952,-0.0018587088009547317,-0.010157248263154985,-0.006873836419379366,0.12055085917436544,-0.0030866993972959427,0.48771306297819206,0.03044043221450586,-0.5995860681444665,0.0013032234776246836,0.10523459048769335,1.8828125
-0.14719786896261866,0.004984723180069035,0.007933953241774797,0.0032943499419431834,-0.019005347535294384,-0.000993250108219894,-0.0018574761377264835,1.1153829786794442,0.0013813092158894476,-0.6706883658776428,0.08880931012232145,-0.49689824996158066,-0.019627426299602867,0.12633886207254427,1.890625
0.0029700251135993364,0.009063280326804458,-0.007782775948296167,-0.0028451564184280476,-0.009032309766773824,0.003781361019640634,0.0028962401939270337,0.422900839904181,0.0013617379816441432,-0.5038582853751706,0.024290370159698545,0.0555553812665853,-0.010257715560810912,0.008815210741520895,1.8984375
0.3463948655599356,0.017921094738102723,-0.04345381372317581,-0.01648707635065217,0.014910118034089922,0.014355521385743565,0.013455582382437754,-1.2284715290030603,0.0011389602742482065,-0.052252758834007075,-0.12808457329278647,1.318498772925022,0.012575720858646285,-0.26644180811317575,1.90625
0.5789343944726852,0.037331808145799186,-0.07709978656375786,-0.030010132737600375,0.021282803101516302,0.0270951048514022,0.023620847313943334,-1.7789792011701464,0.003667431657493715,-0.4258917786195052,-0.1988972445890766,2.2469851092873654,0.01598928205357824,-0.4458074097355773,1.9140625
0.3678400280755514,0.039818724935513895,-0.060695936982643695,-0.024139640258169996,0.0007956037295564596,0.02387931779585887,0.01893539351137006,-0.43146381248137494,0.005389649047399519,-1.102867115978134,-0.0864016458774091,1.519928859536664,-0.005116152153987767,-0.2729521073765566,1.921875
-0.11575505453513611,0.02091575605952583,-0.0057532164039266805,-0.0028752755179204705,-0.028053831121805057,0.006308450119630252,0.00268608267116017,1.6119717849801505,0.004417403004001684,-1.403045187157827,0.11178109006809592,-0.28061910028543446,-0.03132480868360945,0.11010943399672839,1.9296875
-0.3385773855526061,0.009972572205176115,0.021085893978842838,0.007552055398508839,-0.039769350493862904,-0.0026600172588087494,-0.00526905408205392,2.4628423974358356,0.0035288577966771885,-1.4299315101264625,0.19804356425778133,-1.1249407379031298,-0.04147755246560378,0.2862254599259819,1.9375
-0.14202594739867133,0.01441063869957725,0.0009146453888243927,-9.548749195997329e-05,-0.025736569979262804,0.0031784962865013338,0.0005675179403015133,1.5003565871560354,0.0032753270904636255,-1.1480535850770042,0.11017302713813958,-0.4210425350656375,-0.02800273607296289,0.12952911627652994,1.9453125
0.08924785459446734,0.009836610831976494,-0.015805026849831445,-0.005764067346034867,-0.0017840502170145983,0.005852641946765249,0.00512337396120179,-0.06248921084125895,0.00099573565008094,-0.3080791329666526,-0.018201003291382547,0.3581452602801635,-0.003006085906226872,-0.06286459975864035,1.953125
0.07610001662225313,-0.008831155343418906,-0.0013933452385213076,0.000819622148742201,0.011128024076346683,-0.00231525905090003,0.0004803436283943688,-0.7991577435057968,-0.0026936771236643463,0.6241723346342045,-0.05867107524097377,0.2163519120658786,0.013108643987861398,-0.06613987347302312,1.9609375
0.006530784102317886,-0.01640038837676265,0.009990374269084935,0.005423560927627111,0.0107253928058417,-0.006927975415929674,-0.002917979388689042,-0.7237490999741581,-0.003820024236150979,0.8392026368286377,-0.043004407263605944,-0.06100983476164029,0.013970431783330982,-0.015397176503010585,1.96875
0.08787735894402544,-0.00488758157537643,-0.005275039647169819,-0.0010023839130432872,0.009298016882586305,-0.00045648503576350714,0.001767252029701417,-0.7047859818223707,-0.001985673083314964,0.45799285438641835,-0.05523896408816121,0.28086421272529183,0.010678409629283698,-0.07316464177825661,1.9765625
0.18065397910832073,4.5559094849024456e-05,-0.016862494865224086,-0.005552285923495133,0.013710150583421067,0.0035053062260980363,0.005148569163184479,-1.0298369238137872,-0.0015338328538148322,0.4379610279281425,-0.08889142292797296,0.6207491468367985,0.014284258144899389,-0.1435640138695867,1.984375
0.13863396506326445,-0.014708315545471196,-0.002700805385382269,0.0007095044288727104,0.02098545914884198,-0.0035435536878506532,0.0006602267267372778,-1.4160535697734167,-0.004252218426236303,1.0855490191971653,-0.10395441868571723,0.39235853693758155,0.023956810442343594,-0.11838147481979368,1.9921875
0.09681083414604004,-0.024242992441146364,0.007872030807650728,0.005320986221650922,0.02455443270659043,-0.008466465120158341,-0.00259659583712314,-1.5907800202851055,-0.005931345708654538,1.478059168305216,-0.10736409089566976,0.2036796319345216,0.029122114033497747,-0.09202607469701182,2.0
0.1456951324146494,-0.008157706211501322,-0.007635028812733646,-0.001382022874211553,0.017039814230120694,-0.0008008357210312278,0.002298472976806346,-1.1963325236871483,-0.0029951569232523827,0.7900999915533733,-0.09314755646201739,0.46795744204566503,0.01899680928503248,-0.12288346053484263,2.0078125
0.1187405371893094,0.013018862505756661,-0.02043623559544595,-0.007525841444009963,-0.001199362368067226,0.007589584925037633,0.006507317916169719,-0.12125800917630428,0.0014198678744025124,-0.37317327323583094,-0.026730781582144734,0.48306407633071874,-0.002863141379354253,-0.08651742949705674,2.015625
-0.05481520947139334,0.009990275128707735,-0.003550051265698156,-0.0012145598601628913,-0.014564987386766932,0.0029498262802749426,0.001544813948162771,0.7878360522905764,0.001849447420489651,-0.6893302157617288,0.054884740032991035,-0.1515855152839052,-0.015985441866958792,0.05498362935319102,2.0234375
-0.20099186235061242,-0.010183689352500266,0.023244178841041113,0.009922372093984468,-0.01265523975490353,-0.008381732758441767,-0.006674847500393271,0.7919334062301538,-0.0013189599840963322,-0.048191995199577266,0.0796869446750899,-0.7762480041770068,-0.010879473975459882,0.16171423870844112,2.03125
-0.26341809144841316,-0.019794738138713817,0.035536101106462485,0.015078472160913466,-0.010889909007051423,-0.013679403731576546,-0.010394416314157003,0.7371066308823233,-0.002882883882053233,0.2906853053822389,0.08651128421158773,-1.0367460703826423,-0.0075146606014430736,0.20438005088568645,2.0390625
-0.35338271268950744,-0.011970847504991786,0.03789486033323588,0.015402672958107018,-0.02433865554614965,-0.012236277618289545,-0.010797125199957654,1.582640610806378,-0.0008271790036232921,-0.3232616052037109,0.14934349866395175,-1.2946564867383505,-0.022282237668274266,0.2800693066609332,2.046875
-0.4161744713386728,-0.0015580311418945867,0.035911741936446986,0.013944117837727891,-0.03748976383340411,-0.009129558407030383,-0.009958398940868531,2.3917839274199264,0.0015884108588020392,-1.0117764806693017,0.20602595059401868,-1.4559971567460772,-0.03721395431163484,0.337552165384355,2.0546875
-0.38258893909752106,-0.0008002599003056442,0.0322848952143546,0.01254529220952098,-0.03529263227659679,-0.008079966665627434,-0.008967813094215463,2.240193364128869,0.0015599433453195649,-0.9776203412787667,0.19214986325524802,-1.3461623892409824,-0.03515950178922414,0.3124831070466295,2.0625
-0.4381421238175965,-0.008131957064239713,0.04209643207526228,0.01659247737966467,-0.03504353536548727,-0.012171835357709515,-0.012015869843095413,2.268878894928793,0.00047554434756559273,-0.7635589015131136,0.2035050014019393,-1.5874042989251176,-0.033789391229852105,0.35407314596068945,2.0703125
-0.5253680306723448,-0.010712572109796956,0.05149359792683167,0.02013950445294036,-0.04085202070685936,-0.01498414519583046,-0.014734180197975929,2.670144772003429,0.0004978238445615228,-0.854764872782855,0.24100482749345264,-1.8983016567932798,-0.039220314554512914,0.4226547932631782,2.078125
-0.045055688895769004,0.001450281507593768,0.0017766069781000322,0.001120765335583442,-0.0071990828464301455,-0.0004313510594162352,-6.796683273112836e-05,0.3507806404244669,8.794467025607235e-05,-0.21027141973576727,0.027537396148758757,-0.14227309778148978,-0.007026119536019155,0.03926057993078834,2.0859375
1.101066783518802,0.016596131758516403,-0.1073731890298341,-0.03972436066739296,0.08301679276169824,0.02861252135395609,0.03168278944208432,-5.751478106097217,-0.0036345195246824617,2.003823441398696,-0.5136175844365592,3.9435806286746584,0.08185067822894347,-0.8817180883763069,2.09375
1.7895679642077171,0.017512180715819115,-0.16721810921021268,-0.061566673807414436,0.1430484176594593,0.04270334027162866,0.04886692900868317,-9.752894670803332,-0.0074689597009907314,3.7363644684143105,-0.8575659969666638,6.3444916314529465,0.14235377814508848,-1.4389657401006772,2.1015625
1.0927943167810863,0.023775966607688732,-0.1117628665326763,-0.04177676216879761,0.07636065245626654,0.031639910361935426,0.03318122569700628,-5.3584405986559345,-0.002035053996678221,1.5799882684445676,-0.4890824570648615,3.9489559817503594,0.07378480559982155,-0.8680247858238581,2.109375
-0.17267491570979712,0.0691763198903354,-0.03503086012055232,-0.017034969468835166,-0.06972400145454535,0.025754437296037613,0.012583232646531656,4.062488078135078,0.014605436967281924,-4.0567657929138985,0.2620078338120788,-0.1951135381361361,-0.0812828815952306,0.1885850671902526,2.1171875
-0.5608393872319496,0.11666025070487696,-0.03512715394183189,-0.020455390619579523,-0.13936228484786467,0.03804695679260889,0.014069460524641806,8.385539982044337,0.026429750008617095,-7.495854243827725,0.5741347929839729,-1.2646490341925294,-0.1592697161803597,0.532956446248403,2.125
-0.14091803809296208,0.06954897684085834,-0.03787612483576738,-0.018090942052961405,-0.06648321589614532,0.0263862570273621,0.013420794156130206,3.850591681952386,0.014361557587018993,-3.955153658375322,0.2437909950080548,-0.07346772359038097,-0.07794205124080571,0.16009077309233538,2.1328125
-0.10736709334651988,-0.07863203557213029,0.06380514907149286,0.029592869501764197,0.04766843229477577,-0.03556981987651999,-0.02032932274616136,-2.7653501663268996,-0.01581073596202019,3.7651009316132598,-0.14083604444662404,-0.8332021223274176,0.06125862978937721,0.03702807448226083,2.140625
-0.6174028847417116,-0.18609132349664545,0.18328836931394657,0.08089547788820603,0.08277095845528967,-0.0910268361866088,-0.05801933494689117,-4.3926776181577125,-0.03449013055854227,7.948118796764987,-0.14839681595139265,-3.258815742862847,0.11391426618266108,0.3834786199034409,2.1484375
-0.6597072141688308,-0.13976380197066782,0.15406915361882903,0.06696342946814587,0.04391802008881188,-0.07222802768797201,-0.04829636629958636,-2.1153445044175037,-0.024825097630474753,5.43006893050696,-0.010407284880019881,-3.1429811396899208,0.06713436077651226,0.4498516848659451,2.15625
-0.037366317137569605,-0.016216579109686536,0.013446556917594416,0.00681542689912639,0.006411635414840691,-0.007700862399005908,-0.004085202582086641,-0.4367733940146527,-0.00351150023805548,0.6954055745475997,-0.018335384299186384,-0.2378082167057486,0.00943164955947927,0.024222627715118683,2.1640625
0.23623969066522538,0.03716381097385797,-0.04762103819523538,-0.01931873253337608,-0.00897431476831748,0.020188141899230877,0.015203583919280892,0.23460590775670623,0.005621557673937656,-1.3140158253947445,-0.026155310571664796,1.0431062150283479,-0.0145856735762852,-0.16599488850188754,2.171875
-0.20943914803063657,0.008102426021713542,0.011166369540847786,0.004212119209512954,-0.026399456993412236,-0.0009937960965927953,-0.002560023755103579,1.5869072390009742,0.00233560330342145,-0.9685680288099986,0.12553436942842422,-0.6829000530632597,-0.027505073588760923,0.17554511932645278,2.1796875
-0.5388230179269259,-0.01451140008154768,0.055335562418268903,0.02197062912419134,-0.03886554997231223,-0.01703721446975349,-0.01604576460456347,2.5663591011869533,-0.00027536410841394693,-0.6817284901026202,0.23711348370632507,-1.9753010056716052,-0.03655278971560485,0.43018808028462857,2.1875
-0.36609675731228614,-0.004369063748646779,0.03329910503270626,0.013194856640984135,-0.03154919059714325,-0.009212710779927243,-0.00947292730678348,2.0124745390777328,0.0008062053718315533,-0.7749082223721808,0.17701293071838162,-1.3178776815060884,-0.03087012850999606,0.29901118231338697,2.1953125
-0.2753971311089557,0.011742806153009627,0.014133229463484897,0.005032173311724894,-0.035585597572804495,-0.0005247799722255308,-0.003423642683693087,2.1742243219901307,0.0035552213838925986,-1.3657667629671866,0.17098721145945553,-0.9004158468503255,-0.03755344720058352,0.23514074626880457,2.203125
-0.3077956305320622,0.05146267655626904,-0.01106556052437806,-0.006993841900744313,-0.06797728238773929,0.01561079984693804,0.005141516262533232,4.066101700428981,0.011779811093610723,-3.478972767924471,0.28421815657814115,-0.7663743557376587,-0.07662366141088008,0.28418802020590694,2.2109375
0.2578332348500054,0.11938715026310295,-0.10739355373150135,-0.04704295375975949,-0.06877636355912299,0.05546228273189602,0.034999265454553855,3.6684464872712166,0.02218431935313731,-5.49219298279503,0.16661009221997616,1.6216347265771427,-0.08824105884850406,-0.13236134094880178,2.21875
1.2195054879405953,0.132482786478465,-0.1990110188649228,-0.08154573444409945,0.0063651511702858595,0.080000690882676,0.06176814976673191,-1.4194277115769502,0.019160408718565152,-3.6603763451669984,-0.2853506305291949,5.059072783474993,-0.014294267936601499,-0.9028943480678324,2.2265625
1.4127896257732608,0.0440039577979789,-0.15319065584498218,-0.05857741667825936,0.08970709553561937,0.04642769348730345,0.04582517962007727,-6.379179721206661,0.00010391245734577802,1.3933994564055783,-0.6013041724526846,5.198259566945501,0.08415636358537705,-1.1145966036441526,2.234375
0.6882184576262197,-0.05061118086520407,-0.024443073978325677,-0.004717470549403205,0.0965451542487495,-0.007898356298462146,0.00579836762067637,-6.20652395576888,-0.01477823718653263,4.369026055036111,-0.4699927861559534,2.0915324291002455,0.10615752546013525,-0.5867722895996381,2.2421875
0.11008397179470598,-0.06016519525686675,0.031804264591945366,0.016672915512949582,0.05259741328317881,-0.023382905648381882,-0.01070606782241362,-3.218532072993856,-0.013291927723016453,3.351488037087351,-0.2023133495019808,0.014190209599535824,0.06319484250281228,-0.12476765648012504,2.25
0.01977315348241351,-0.03746055568264032,0.023646432413472238,0.012120073030665944,0.02764704475296837,-0.015600881874263868,-0.007594664049200282,-1.7093336797170076,-0.008156948346854783,1.9532348855430772,-0.1012226514160062,-0.15315607799812705,0.03436241447109315,-0.03849333569263256,2.2578125
-0.2908752082036926,-0.056588651504650485,0.06393804369210568,0.028124606918993954,0.01457773082490756,-0.02987887618127305,-0.019723006680701108,-0.7125450028905785,-0.010218315737135483,2.134102486442737,0.007531152297142556,-1.3442253859646396,0.024256444680543304,0.20085306099678663,2.265625
-0.9234834890525871,-0.08203268300626292,0.1361289101252144,0.05625593678884094,-0.022304017331799007,-0.05316904658804355,-0.04132695259137131,1.9123301576370988,-0.011669693743861566,1.7916581059488965,0.2638683652956621,-3.7146469621135436,-0.009004521365544008,0.6991109316171932,2.2734375
-1.1020875468422144,-0.06502391349275878,0.13929674432222494,0.056204801409192054,-0.050907559056525296,-0.04946059166995521,-0.0417663238007661,3.7039785513275487,-0.007172775760269146,0.4452081855306795,0.3966684120994767,-4.247516295886489,-0.04072512089072273,0.8560689378761766,2.28125
-0.6212334046037599,-0.03768369009591113,0.07868225018682945,0.032101018348349754,-0.028880115665903917,-0.028310450513398467,-0.02342517271729158,2.0550166028690264,-0.00443743602560643,0.2945388716342802,0.22170177884089587,-2.3984615877154276,-0.02281622956645647,0.4825965721290697,2.2890625
-0.1654290291161182,-0.028612373208370935,0.033260502886783484,0.014853803417635583,0.0046881898993309645,-0.015456364710470249,-0.010004436409544808,-0.24102654855554764,-0.0052653983727165374,1.0229702494161237,0.013616970310478937,-0.7390419126133223,0.009751505725186075,0.11697266398869689,2.296875
-0.1029898485118302,-0.00538790027603864,0.011641309687764969,0.005374251058318343,-0.007159243053742495,-0.004501129122409391,-0.0031283767596172567,0.3947349077568027,-0.000958988305106199,-0.009143624933895618,0.03955938002193258,-0.3841504509899832,-0.005925766270524164,0.08126780216314708,2.3046875
-0.0070098433922890615,0.048249603811542675,-0.03445124292270628,-0.015193198327227372,-0.038911425446706234,0.01999857767101114,0.0116467653533643,2.155255350353692,0.009289774864406162,-2.5269476757566482,0.12473545306142969,0.25419684183409835,-0.04667411422232566,0.03950531404281119,2.3125
0.4418253951292044,0.09455225630059909,-0.10584770026038738,-0.04460155148050362,-0.034051704505894655,0.04852329800293921,0.03355455958050798,1.5249032294657643,0.016025199999903764,-3.750217271042223,0.01397778262108404,2.0853335523588616,-0.049213025642252564,-0.2937073695031031,2.3203125
0.8108223590500339,0.0988307868891467,-0.1407448463337709,-0.05779135957149411,-0.00477951500682395,0.057785248052324864,0.04379013941210781,-0.4550515527589737,0.014779371864348398,-3.015854552820027,-0.16109379699310955,3.404103591097602,-0.02027905520842551,-0.5907457026331416,2.328125
0.6109463582946594,0.0647587355085162,-0.0994510875160787,-0.04036674728291452,0.003083623093978685,0.03947654947597264,0.030978134177187627,-0.7545970257918179,0.009098274803556591,-1.7803141884173075,-0.14520051877705936,2.519731264212794,-0.006833839362030972,-0.45181542261718144,2.3359375
0.2575255416283852,0.03273327950426009,-0.04613456053814293,-0.018564950426921377,-0.003947819981857314,0.018836120595545715,0.014733904704337943,-0.07182773211469472,0.004657134604975729,-1.0403890128066495,-0.047434847505617536,1.1072661483036679,-0.008800248147432393,-0.1865931882786687,2.34375
0.4489032581079667,0.04729739381733027,-0.07259249646447025,-0.029183265083316697,0.002248217890280992,0.028668286198614105,0.02277927577138913,-0.5768508266435791,0.006412167258220538,-1.2828307160187005,-0.10839543465835136,1.8587526609714475,-0.004878818256851023,-0.33220839415137615,2.3515625
0.6160321703968451,0.0667318134778293,-0.10079917089420544,-0.04086676764743683,0.002375465592013179,0.04021607818674074,0.03142623062304823,-0.7140459995109354,0.009358753840258374,-1.8525088568873886,-0.14384816634869663,2.545847531859746,-0.007893491584527172,-0.45419086919209445,2.359375
-0.4672088023991371,-0.02669689373467214,0.05784633453633703,0.023675733538368146,-0.023587210070581063,-0.020637118666567252,-0.01708369524002617,1.629506464666901,-0.0031176399605956553,0.12726025911157765,0.17169284193379228,-1.7954345713615771,-0.019216764021624998,0.3652834166862839,2.3671875
-2.132335679807774,-0.2164234258269706,0.33462273905443535,0.1382741253517643,-0.02861009484108804,-0.13382599071400525,-0.10246876180626754,3.21884453728076,-0.03168796914176645,5.559565685750834,0.5409443634585275,-8.730212927237552,0.006093988147489864,1.5939211938655176,2.375
-2.0439484407700084,-0.2836875345045384,0.3746149721071194,0.15775416989202418,0.02984169373460825,-0.16063665744063613,-0.11605418992451184,-0.223973252854314,-0.04586502582765209,9.262555816694205,0.32885191313872875,-8.81944460721283,0.0760297757928233,1.478374275199572,2.3828125
0.11246362116262966,-0.11432823447553239,0.06999493815979549,0.03450905462722949,0.09368643963450403,-0.04640413697271632,-0.02334997543211224,-5.592744584416039,-0.02432972728529389,6.163750041789167,-0.3389653561768803,-0.29272514526883947,0.11352035864230466,-0.16237005896362214,2.390625
1.7519938149771832,0.09890577887501507,-0.22136920466771126,-0.08712337671695784,0.0786535384307675,0.07631006670371082,0.06694344301967571,-6.005846203611052,0.00920006745249615,-0.5525372739939041,-0.636505189486141,6.69206732520081,0.06415649690678477,-1.355345922771596,2.3984375
1.359988919099803,0.14810941456202337,-0.2225838587309286,-0.09117397281469514,0.0068228945341241845,0.08951178682488795,0.06887458706145021,-1.5548218702673249,0.021541584200378258,-4.120133074494931,-0.3160608755408609,5.61973720363529,-0.016416361903498922,-1.0057780686401157,2.40625
0.4285213947559361,0.09369008576636338,-0.10421559309300124,-0.0441270451768828,-0.034851124212434366,0.048107397628231845,0.03323331395832198,1.5776656698744032,0.016042804707252445,-3.749375426617227,0.018937896275857014,2.0513601427039276,-0.049868472241838636,-0.28507665332523874,2.4140625
0.2869702281485206,0.07166355862564633,-0.07631786545537717,-0.03233745995005761,-0.030663970265570644,0.03589659059958964,0.024526287054153034,1.448121754255382,0.012361976849709124,-2.9735034693023064,0.035006589415194876,1.429951387028113,-0.04208532655388778,-0.18416122991942363,2.421875
0.2198659604619827,0.06304139071976428,-0.06421354991081932,-0.02723861975118036,-0.029844508787512755,0.030816643755141957,0.020763442116227635,1.4553353316367896,0.010935909147353658,-2.688319482491276,0.04634709780336571,1.1472062028464476,-0.03985403017717433,-0.13534397444704616,2.4296875
-0.17039257299197164,0.03100281875624069,-0.008083867920843677,-0.004432913766476294,-0.04025855348995204,0.009540867785961884,0.003642417890592988,2.361248036832553,0.006745092008602574,-2.052999097822788,0.16331647386678835,-0.4046860916950982,-0.04525642076602466,0.16002705019076457,2.4375
-0.06037494267010858,0.031939185564222435,-0.018482644356770373,-0.008310130865471126,-0.03141894730125336,0.012184428782141614,0.006621163612724039,1.7633293571949629,0.006346251756617028,-1.8296889305354251,0.11099377126120863,-0.02173785731459523,-0.03648128248468934,0.07105195356247611,2.4453125
0.25487057414096725,0.04824474008707373,-0.057306591563768224,-0.02365352098960223,-0.015940635711643784,0.02535607908129473,0.01821837191564167,0.6231502162786842,0.007821563936865243,-1.8606833567747114,-0.006541427071716726,1.1649758884607841,-0.023462082870083237,-0.1734674733239006,2.453125
-0.5495063612508604,-0.027469820846197833,0.06527687708351251,0.026525409930766974,-0.030243973185702374,-0.02261833452587665,-0.019337619041822532,2.0784076387463606,-0.002802126307256102,-0.05136660400142019,0.21121570550162638,-2.0948181332730615,-0.02582304360098592,0.43136303216285543,2.4609375
-1.874526008889542,-0.15767536248350064,0.2712057426977423,0.11101075183662175,-0.049610656961247945,-0.10396346246398785,-0.08243491150136265,4.231664240190524,-0.021393901478912743,3.2170822271095827,0.5555059283742668,-7.482941588507604,-0.024543684832011456,1.4222859115622706,2.46875
-1.6153533169262586,-0.1776642855134961,0.2632095224879163,0.10948957067975806,-0.011635554972838458,-0.10731989990050161,-0.08065501210226894,1.8353259313775931,-0.02695394394213234,4.927515426432752,0.37470126959909344,-6.684655684038653,0.017109006252336672,1.1979928483617195,2.4765625
0.20713943082340497,-0.07696128939387535,0.03561875152084262,0.01917317127219421,0.07392901102578221,-0.028663840737160197,-0.012123181005166336,-4.528890115326078,-0.01726527358217282,4.481808160660047,-0.294018513011023,0.27559241664932244,0.08753308234901043,-0.21588449613074515,2.484375
1.3271743703877334,0.0008257909385244701,-0.11557968092102679,-0.041589142453652486,0.11449095851825285,0.026432818406158007,0.0336690990145025,-7.744365870237411,-0.008099022773061303,3.3821697062455827,-0.6647973678519222,4.634752174661871,0.11605385042617165,-1.0729884669691532,2.4921875
0.8380751778128591,0.020510508622144395,-0.08762392533301784,-0.03277890714474843,0.05634077234844339,0.02513919726827282,0.02615002322247201,-4.00414230422767,-0.001233494530213674,1.0878679430611458,-0.36863953323417475,3.032619439857931,0.054048424524778635,-0.6623157718567155,2.5
0.1279631740260236,0.06422082056196139,-0.057542279750498325,-0.024923284438079632,-0.03927820482822437,0.029612474730458072,0.018801625539106998,2.07008617975413,0.011799949059304109,-3.0105721888355927,0.09764879434630724,0.8163510004347176,-0.04963201013157097,-0.05882610649448885,2.5078125
0.195929420208351,0.12233145619633154,-0.10423882424804094,-0.04613707493586571,-0.0767364336800959,0.05550909191601105,0.0340493956721456,4.1784548548503615,0.02315417163570023,-5.816366813429586,0.20656263460251847,1.4131948250197335,-0.09675802080651938,-0.07827827312678695,2.515625
0.42901395692878563,0.10492960909513438,-0.11179612273268769,-0.047639547530566366,-0.042875400241743064,0.05270174989784015,0.035738496612307845,2.042159504471644,0.018224264267157866,-4.3037636955839105,0.04495809840828539,2.131156033311106,-0.05969898179887719,-0.27919132067458,2.5234375
0.23757112308913836,0.02218171988598171,-0.0370238160584041,-0.01438513751833126,0.002351615660279832,0.013902081181390295,0.011663324009102617,-0.41744357529356474,0.002572051055149331,-0.5412671406017553,-0.06379808188912184,0.9622167663246186,-0.0007415334659165784,-0.1762370873700171,2.53125
0.09703836857570988,-0.01961010683321486,0.0042985459175373724,0.003697730734892584,0.02115846785388644,-0.006486408887603871,-0.0015782501582149104,-1.3924374025055184,-0.005042709556829265,1.2356236860034266,-0.09579609497580586,0.21057201932208217,0.02492383722028633,-0.08807400789489955,2.5390625
0.4836414533036652,0.021706837843479952,-0.05814295471263438,-0.02211274805162802,0.02417281777361296,0.01872622332223608,0.01766890454194748,-1.8695741067838225,0.0010949091965136726,0.10744120264038788,-0.18762798150147586,1.8076382848613546,0.02135427718065307,-0.37524774844380454,2.546875
0.7650995565384903,0.06209103008687267,-0.11065509182943553,-0.04421667160729469,0.01876377475630483,0.041369844892439334,0.03412362810956812,-1.7792981248614985,0.007633898263471225,-1.2359233812312764,-0.22980754468362408,3.0438866254702877,0.009459772764292688,-0.578871737197857,2.5546875
-0.09303159387987132,-0.009412908109949365,0.013654661724030735,0.006354256812449729,-0.0032505073845486665,-0.005990239520299305,-0.0037792521243007744,0.1612641870965141,-0.0018302771770225279,0.22152771055668277,0.024461020639071258,-0.3710935999387309,-0.0013332866687920972,0.07017080056400594,2.5625
-1.766136528746855,-0.17066134322014756,0.27111576420007133,0.11200171921215195,-0.03002074144734855,-0.10743734630112432,-0.08284169743282059,3.015412237474216,-0.024683118064714422,4.173117328473542,0.46768083712985414,-7.179504032408838,-0.0026327034302733063,1.3240712554211407,2.5703125
-2.387216990119102,-0.23660594890482753,0.37089306097980135,0.1531291395670428,-0.03555780140046388,-0.1475885883935712,-0.11358990470899931,3.8218446764910823,-0.03437915892523652,5.94550228193118,0.6179881468544709,-9.748834551925198,0.0022661810268749037,1.7869414042695304,2.578125
-0.9404617673607597,-0.08919896983129831,0.14257046962142939,0.05907483105452652,-0.01853013117776348,-0.05643734663639111,-0.04331984215211343,1.7073568199949989,-0.012989369235876538,2.1118428338263104,0.2551427770861771,-3.8180739623136506,-0.00410736713477215,0.7089176003703478,2.5859375
1.0254657719882243,0.11781697613332993,-0.17232369268189507,-0.07076962007185188,-0.0001633404516353917,0.07012052572105401,0.053650132654266235,-0.8913151241042667,0.017399394562606016,-3.431500089089152,-0.22245036281013347,4.285201058919273,-0.018612048765001134,-0.7533705059640673,2.59375
1.4978172967179277,0.16882838675953943,-0.24880096794833137,-0.10222160607334244,0.003512185713288115,0.10093677397955025,0.0771246952091131,-1.4724224547605007,0.02491508319167543,-4.820239024733453,-0.33472878327004285,6.237291529034787,-0.023026770605830083,-1.1045707288370539,2.6015625
0.8512368402165417,0.10970392813845081,-0.15151070331551378,-0.062333331793835746,-0.009060955153243247,0.0629824786895042,0.047191892111092655,-0.23894883042435078,0.016679712542198036,-3.4520215610441425,-0.15577272394897212,3.6168717964698316,-0.02630342550780081,-0.617757083655106,2.609375
0.649238435446598,0.09683453592416703,-0.12521100918388078,-0.051845948063830784,-0.017322542854284143,0.05355763226159738,0.03919141903568157,0.3965259231356187,0.01525591123425213,-3.319271318468739,-0.08531792604502082,2.825790319349441,-0.032625405974844875,-0.4611593878478275,2.6171875
0.7441023300744842,0.0643321218752379,-0.11061342424909129,-0.04435150076436913,0.015152558896284451,0.04184424446030846,0.034074776024037245,-1.5544057289223816,0.008195238160819638,-1.408840564069372,-0.2128791017211736,2.969141574409769,0.005442057919633681,-0.5586031922552833,2.625
0.07652850434502981,-0.10361946691543525,0.06526779888761139,0.03178926931242755,0.08198138792799328,-0.04231682913886419,-0.021555833787998777,-4.891802698639815,-0.021814802648173495,5.498363757408211,-0.2927201251423944,-0.3444904996099396,0.09994896622305875,-0.125471924328419,2.6328125
-0.7536396462749251,-0.2292002781074327,0.225459877856434,0.09932820504149995,0.10299125984632986,-0.11194876601048034,-0.0714498458434386,-5.453883466379374,-0.04239264111799429,9.810856178884691,-0.1864385766273523,-3.9819322464700586,0.14129130090591147,0.46673035580455746,2.640625
-0.5135579630306512,-0.09386642638895215,0.1095325014916761,0.04744294489807515,0.022983691101495816,-0.0500973224390978,-0.034014386062609016,-1.0203544559964495,-0.01650226119699885,3.474772186298035,0.02734468301036525,-2.348062034243236,0.03866506075727574,0.35885714924506207,2.6484375
0.06604615918091111,0.12139583449048541,-0.0922460866949252,-0.04160417304944871,-0.08721917797530065,0.05240672094995473,0.030580423993194543,4.888041233010191,0.0236368972020664,-6.101647876212577,0.26898237246894513,0.9447856245571733,-0.10728329583278488,0.02705761077465535,2.65625
-0.46696000722748854,0.09528815088478769,-0.028240988694188385,-0.016462574309377268,-0.11496471635156187,0.03094286115163584,0.011431088024411834,6.903883334298809,0.021552562915820906,-6.151356155946061,0.4734630081703752,-1.0671310664678053,-0.13116650842164893,0.4424335896418017,2.6640625
-1.4005383463210312,-0.08758986976109552,0.18093277010992515,0.07292624662905936,-0.060432421992135235,-0.06478985529306705,-0.05426912984592179,4.484439740103364,-0.009921099684617681,0.8324396814727435,0.49076033390630475,-5.404298201690342,-0.04672500746415214,1.0818263927945035,2.671875
-0.9686813950029426,-0.10140793585440233,0.15364875518981522,0.06404186394469087,-0.01171731659106021,-0.06216592208413856,-0.046910704408657106,1.3360047875457888,-0.01529777076870974,2.6733856607815634,0.2383142960230683,-3.9839302041463402,0.004769067428538366,0.7223696019682945,2.6796875
0.5184563962070917,0.05997480537025433,-0.08791817782498462,-0.03555411335953639,-0.001069752086150901,0.03537830865360035,0.027385022962076143,-0.43962980380105887,0.008551368398584088,-1.7581793221319104,-0.11168724790768769,2.152747212330945,-0.010285387496348233,-0.38030263792248314,2.6875
1.225112223155523,0.1310258047964824,-0.19876857421189661,-0.081103495565621,0.008059423332950831,0.0794184741353509,0.06144577432121615,-1.5197832927116866,0.018788971315760485,-3.5772698100383833,-0.2915880824792298,5.041263192955297,-0.012414370746778607,-0.907843324167344,2.6953125
0.7504320764473543,0.05623557835766447,-0.10529604304485622,-0.041768640661517135,0.021905869865351854,0.038545472012309415,0.032388485782996496,-1.950234152102595,0.006527117306630519,-0.9688686033627032,-0.23705996558836934,2.9534197201498897,0.013573290264856732,-0.5707051832447637,2.703125
0.2674620129876386,0.0077194993604956285,-0.029641377141919178,-0.010775284995121186,0.015429003281248053,0.008547218418133938,0.009181670144101067,-1.1995305024014369,-0.00041509279332959135,0.2682296279739069,-0.11338076244192478,0.9855060815359169,0.01479811654029703,-0.20949762244153722,2.7109375
0.3365975129073276,0.02450421063534516,-0.04734540681956922,-0.018405362223101056,0.009060195575612938,0.016919570572704837,0.014713142126861423,-0.8841851427345898,0.002521391803945342,-0.4111188040516076,-0.10675307208876562,1.3204285499842514,0.005680307224393651,-0.25397093082562217,2.71875
0.4518975665584064,-0.002319360920865247,-0.03811692657748472,-0.013063852653810373,0.03954887785757448,0.007749933854256101,0.011211258612647245,-2.7323681985171437,-0.0036413382345570635,1.2765818260569117,-0.2319433472806899,1.5632270999161315,0.040827366703981356,-0.36479337433268244,2.7265625
0.2718138715520541,-0.0655229758230258,0.02202490186603156,0.013406276314979584,0.0710725165709368,-0.022531121580441155,-0.007961648274751447,-4.411516732027853,-0.015361121758651945,4.061007658413639,-0.2982711034494381,0.5689722911997228,0.08284081946053062,-0.2605178142283875,2.734375
-0.06274011622092625,-0.06382271087158593,0.04936388433784741,0.023265300694731296,0.04016709182364922,-0.02838608187030871,-0.01576852072379902,-2.3674743962046074,-0.01301442286845705,3.0953622754061465,-0.1252462235853218,-0.588793548674489,0.05129053711342818,0.011312930046456856,2.7421875
-0.40905757121759273,-0.01598489433657148,0.04511499618257479,0.018333964721498314,-0.02639615778065677,-0.015010315160938485,-0.013167194217709555,1.7453902660462894,-0.0012956482574123962,-0.275872689838202,0.16862893384924568,-1.529923073792931,-0.02374908617882687,0.3242355053123631,2.75
-0.6207258138737913,-0.015667928995891534,0.06307160229638135,0.024866943423769546,-0.045451117512423374,-0.01903842051291369,-0.018353217962657938,3.0122785252336337,7.01119174208126e-06,-0.8466672016694111,0.2768091940336217,-2.2769765161183724,-0.04312249760215527,0.4977974200251041,2.7578125
-0.5545809963325263,-0.049141759939690874,0.08120196448623183,0.0338208768179336,-0.014570450613703809,-0.031811158020418846,-0.02450608293840682,1.1787806921752684,-0.007137540714523385,1.0497073238993273,0.16042642036934254,-2.2341901933912185,-0.0065222469473333105,0.42223580027571556,2.765625
-0.36818963786249276,-0.04170935921067347,0.06011069948159856,0.025580613140091187,-0.003541580825294468,-0.025002670642338912,-0.018118820954318885,0.3949817092487788,-0.006725963784944762,1.1594831222681776,0.08394996577987145,-1.525682243107012,0.003489791513583102,0.27378346151527977,2.7734375
-0.2615125387658165,-0.0011075254734078336,0.02233802869139562,0.008962716578507519,-0.024305575429404834,-0.0058712552628790654,-0.006007575634879939,1.5083022266278658,0.0008214490251286715,-0.6433228682209693,0.12990769968043814,-0.915656239978728,-0.023991034297048592,0.21241853606480296,2.78125
-0.11495523851851863,0.022101322946411116,-0.006707312977886617,-0.003254700291340015,-0.0286875612767688,0.006777690222680955,0.002992334613331842,1.646952072781091,0.004624620139502199,-1.4555402928280328,0.11375300595367417,-0.2801994927129683,-0.03216782669279772,0.10961494302622608,2.7890625
0.043901718635981836,0.030827751817672895,-0.026683152232065802,-0.011217694703125593,-0.021415105561099403,0.01374088842779454,0.008931986971627521,1.1047989452109406,0.005489386492293144,-1.5021557637556355,0.05643800481544719,0.32020105229563905,-0.026247365242164696,-0.012283018079883511,2.796875
-0.11755972701394246,0.04616801729076452,-0.023758831256658442,-0.011303347013962269,-0.04739897060953312,0.01716446468229151,0.00853137409069958,2.731486888263159,0.009595671288035635,-2.7208480231747467,0.17649754604333018,-0.14562298325602832,-0.05498348359128858,0.1283250676045518,2.8046875
-0.3521264937777572,0.05799919549760864,-0.011857814863497667,-0.007802342359369563,-0.07688973730818437,0.01747416349797859,0.005512701333128314,4.6158573108217045,0.013361678091023154,-3.9322928045710106,0.32325590262693477,-0.8831929387255337,-0.08665474260907162,0.32482222496027313,2.8125
0.10356334164215056,0.05546764830063292,-0.048988920737625216,-0.0211557918403941,-0.03440154477612972,0.025290291097080527,0.01617679960748731,1.8062350217151215,0.010108234210726317,-2.5976329714581374,0.08582983632964244,0.6990055747593091,-0.04320615253830778,-0.04745995383251414,2.8203125
1.0259230739777192,0.03650635551717709,-0.11476446444227827,-0.04382106601634662,0.06146228995000912,0.035509371728066966,0.034511336531161035,-4.447133176627072,0.0008113268221414496,0.7860707429836301,-0.42650638961367904,3.804640158747557,0.05681782781653643,-0.8075309526506157,2.828125
1.2417836300303362,-0.0020524358325355635,-0.1062192378788996,-0.03797238845333911,0.10921567126969682,0.023580921634477937,0.03082661262305161,-7.370613156534049,-0.008225907334586625,3.3198410951178756,-0.6297219817463439,4.323525431325084,0.11124767116816373,-1.0060126273349226,2.8359375
0.6109426203874523,-0.030210396576047186,-0.032265746720160075,-0.008983395506315826,0.07420809733949679,-0.0007131130589678253,0.00870161478736194,-4.856834236256316,-0.010144807906041367,3.1089966013922004,-0.38005503292232207,1.9526434388161724,0.08028643652137377,-0.5111952299275815,2.84375
0.18994927007839812,-0.009550681304034065,-0.010691821146660774,-0.0025763367471315288,0.02139217228321736,-0.00030089556752589436,0.0031767142506221573,-1.4808928878635168,-0.0034551540843833174,0.9447228037284094,-0.11642142055121259,0.6094492496836675,0.02355868868373942,-0.1567695734482934,2.8515625
0.13483759671617368,0.008159126307276231,-0.018494774595204325,-0.006625888929626121,0.0035012206176457047,0.006011295929935957,0.0059387518259943805,-0.4065091764705466,0.000415507680053336,-0.09914124548510345,-0.045923919240608874,0.5225202891258329,0.0026812719133912826,-0.10229996720872583,2.859375
-0.44940805151168167,-0.06315766161770223,0.08194109539832507,0.03523123183433498,0.005686936127336538,-0.035833032320733954,-0.02522839332596617,-0.07556971425613147,-0.010648597646042448,2.0645753261770916,0.07066494159362346,-1.9481211722026512,0.016326540344311944,0.3248984556354352,2.8671875
-1.357165500166616,-0.15897462962057296,0.2275543469978643,0.09526598869673797,-0.0026910872282142834,-0.09436828670781462,-0.07007793000105453,1.118981874661323,-0.024717638988541894,4.632142021293188,0.29112511643000016,-5.693769950826943,0.023128372530204697,1.0008902329342146,2.875
-1.2910881736034396,-0.1195050738836285,0.19412697307735632,0.08015984318809954,-0.026828925485793687,-0.07628196714588566,-0.059172327456069033,2.4612073176202016,-0.017057818129340555,2.753607219726365,0.3572924597998638,-5.227822898234416,-0.007686166213493042,0.9747390242794756,2.8828125
-0.22925016029389123,0.04057835943804929,-0.010023818085703896,-0.005917207532643128,-0.053297618680260575,0.012564049270501662,0.004548452492095568,3.1582903591417044,0.009156449401713975,-2.737017219511529,0.2196727915458258,-0.5621879603507831,-0.06009494887310506,0.21654950137236514,2.890625
0.4621681587311417,0.13449659022947305,-0.13572189276388794,-0.05854402233289906,-0.06236722308218028,0.06598182231650267,0.043597907494032646,3.140381192748933,0.024070119226443625,-5.759616265777767,0.10259430581270947,2.4160213871486125,-0.08422980780312198,-0.28612851580757237,2.8984375
0.3531638885893501,0.09639533697501208,-0.0994109744718734,-0.04252259876078233,-0.042944655267630374,0.04759476266186813,0.03194199114190559,2.104570831471954,0.01690884859884435,-4.055349656139387,0.06112727906271361,1.808032614934861,-0.058409090188459835,-0.22411199281828836,2.90625
0.26221849857562696,0.04037252780152182,-0.05194409302582281,-0.021178217121182816,-0.00889548166206262,0.022018352620429667,0.016542754146474502,0.2114292640621592,0.006065350151013933,-1.4012759698584836,-0.031855801397417366,1.1513082824755123,-0.015006787489859253,-0.18535076577391646,2.9140625
0.4042111200319594,0.02272765134839906,-0.05168665523402708,-0.019877718281695395,0.016477987350032815,0.017436674658074167,0.015954713566519608,-1.3633488998754246,0.0017186135451448365,-0.1428271104464811,-0.14526884534875176,1.5401556850307276,0.013412208223352666,-0.30930743342572503,2.921875
0.22873877612954538,-0.015851658033525853,-0.009524553673420661,-0.0017644451178940636,0.029613001374896974,-0.0022276040527050476,0.002686100633593376,-1.9851893850103877,-0.004981961603527325,1.3723607974178342,-0.1515114755191088,0.70448131355607,0.03284598187050707,-0.19140326265375016,2.9296875
-0.14863489155228912,-0.0692960276851364,0.060498715236389014,0.027689957151157903,0.036548620363818715,-0.032308954782702265,-0.01912308283702818,-2.092332083598179,-0.013583512656751066,3.1528528802604656,-0.09501375019098782,-0.9264875255901649,0.048480433222379604,0.0778472299341375,2.9375
-0.129768112447619,-0.053768838074178996,0.047944920889361455,0.022132855821249988,0.02691084724060762,-0.02551281186463255,-0.015140030363043884,-1.5512264427241456,-0.010615404916810104,2.4188766609999797,-0.06739023800097325,-0.7750602855499233,0.03631036630467322,0.07070102136496431,2.9453125
0.08712816988099943,0.019897644446706875,-0.022577932627558937,-0.008813231394303173,-0.009189148526477918,0.009857154955798086,0.007342943879206781,0.3646870827113024,0.002991641890844639,-0.812429185148191,0.006362198966747899,0.41243262731907515,-0.012032852903549543,-0.05654778909388187,2.953125
-0.08872965386278814,0.04787661769607774,-0.027172278301893407,-0.012545869967082924,-0.04601446202390406,0.018304149987079573,0.00957434701602325,2.629569137410408,0.009730338296375025,-2.7250138262084436,0.16571662041091698,-0.030338984624051928,-0.053848662250782414,0.10650607129734939,2.9609375
-0.4097459054425148,0.003927732902989736,0.0313503851193076,0.011884136106184027,-0.041568041824444235,-0.0065126826467828995,-0.008546823523784114,2.623877366473627,0.00276563208498148,-1.3026528324646156,0.2189430747756411,-1.4030827052022914,-0.042337108284202195,0.33908271354622155,2.96875
-0.22336696101020542,-0.034738330872426185,0.042510183059227234,0.01872276309030655,0.004050078161987519,-0.019188582423179557,-0.012984051453521857,-0.15568898177708793,-0.006173740356865974,1.177838957777855,0.028459441522475988,-0.9851478649836493,0.010050823802977716,0.16167399186338047,2.9765625
0.33674613598134456,-0.017733780083378666,-0.017622129093281366,-0.004412375381022984,0.04098161731669276,-0.0010006668978580749,0.0047754355755719215,-2.7252649528819,-0.006069630367385739,1.761982640214675,-0.21230961220132297,1.0620859814957693,0.04472851018793306,-0.28286240379067273,2.984375
0.6205810376670996,0.025165886294334475,-0.07215160096836788,-0.0274219448872529,0.03389539268624121,0.022750435769733745,0.021838692216802902,-2.5382462304449995,0.0009434650777674301,0.2900259346327301,-0.24911962781673136,2.3113846133539813,0.030691734288365382,-0.48575525312429224,2.9921875
0.46687902281346055,0.043963039104255835,-0.07210991148564831,-0.028847022603567685,0.0060911035547091385,0.027730018762087732,0.022531025374351085,-0.8145234840477003,0.005691958774321227,-1.0775963226364702,-0.12489045266668788,1.8996006315929057,-0.00044713710772626634,-0.34872529629770155,3.0
0.1534364633606968,0.01851391226970948,-0.02730753658662271,-0.010734119227744875,-0.002633740782868966,0.010798559103420015,0.008898374006954262,-0.06703775975117744,0.0024042845738907305,-0.5831901124070595,-0.029562126086842166,0.654501675544146,-0.0052027515204750435,-0.10987446940033614,3.0078125
-0.19317861860151433,-0.033438994028572554,0.038972069605222495,0.017181757503952108,0.005637218403663961,-0.018063002616571684,-0.011811026070015229,-0.2731153843095511,-0.006088569112604883,1.1844111772670582,0.01701990961854445,-0.8791404867335287,0.011447648594593001,0.13929242162517247,3.015625
-0.5028347305308942,-0.0675202754408502,0.08962953414109234,0.03814348583534591,0.0038264643264716504,-0.03862889357917594,-0.027437551846987283,0.07404925962083596,-0.011174413869234094,2.129501627692959,0.08880780172438077,-2.1690439573815588,0.015041923355445755,0.3687756016917061,3.0234375
-0.526079461649376,-0.05161840557463583,0.0805779744852631,0.033755074202368465,-0.010038812872422637,-0.03237275567338071,-0.02432331099942411,0.892050842463795,-0.007811368739060007,1.2584391956958416,0.13910892612348538,-2.14354851283943,-0.0014969992928517055,0.39605275149147473,3.03125
-0.21186277400813097,-0.0024950147184643616,0.01902088384646938,0.007864928541852527,-0.018884819293581292,-0.005430640656913467,-0.005171662740076373,1.15692246835159,0.00026288791957214543,-0.43697849765536195,0.10135205563656856,-0.7455948243043913,-0.01824752952211814,0.1708908043280814,3.0390625
0.08425660955150789,0.03546959487190591,-0.03329192504091898,-0.01387232927052071,-0.021053629665629202,0.016413561133443052,0.010923752711535093,1.0522261279966774,0.006154056029826054,-1.6145302367993521,0.046065704790669924,0.5029550034694484,-0.02652039332155824,-0.04448811816666823,3.046875
0.1328132885405267,0.04231496883748353,-0.042395923743953665,-0.01771986202572992,-0.022029468634577963,0.020279597661623978,0.013740660686939778,1.072147947966202,0.0072421881638503145,-1.85171585847682,0.03957773202422058,0.6988788468955992,-0.02867229671223449,-0.07754912685433574,3.0546875
0.12230782873697403,0.030747037617760646,-0.03328273513569786,-0.013659893258517951,-0.014522057888679822,0.015281653199523022,0.0108677288452406,0.6465646254307292,0.005020637901683602,-1.2978992713545872,0.01701497286760911,0.5984604713451306,-0.019268708705950207,-0.07586765712032897,3.0625
0.17031790147273032,0.015099367845409361,-0.026242436583801994,-0.009978327837991413,0.0014392267156844766,0.009680714157087338,0.008411925618950544,-0.31354978071224704,0.0016220736045992677,-0.36642535336186355,-0.046434435104471074,0.6902013893360521,-0.0005827355502007155,-0.12636438744106226,3.0703125
0.09207141035982194,0.000456879621134745,-0.00917285988499862,-0.00260709233618093,0.00572187761558344,0.0018912234836648558,0.002977422831228923,-0.4994739116399821,-0.0009090104725908595,0.1971021757521751,-0.04434509914433356,0.33517121507088987,0.006149667224337852,-0.07359597652239487,3.078125
-0.13483105823233016,-0.008647896705232158,0.016611133816874797,0.007504090582722157,-0.0074111405478395325,-0.0065166162384914465,-0.00479109540411552,0.4370677095548334,-0.0014722594704171146,0.07962928051508332,0.047373845834807096,-0.5227044675081769,-0.005676782840151577,0.10542411835015161,3.0859375
-0.2488204100785774,-0.014231670234727477,0.030184487908713063,0.012781195970256056,-0.01353557607998298,-0.011096694142134603,-0.008826260884407544,0.8796625361993281,-0.0019177157003867167,0.05586495835775493,0.09221769221824917,-0.9650195648036771,-0.011031817182351791,0.19620930818814372,3.09375
-0.1652594326789316,-0.024545169792121596,0.030230245554521563,0.013421144174757678,0.0012832110842429182,-0.01371361409601611,-0.009054657304531996,-0.042833278687172655,-0.004424551891384863,0.7875751832498623,0.025669596831930496,-0.7327611414869711,0.005573719357985443,0.12257950460862094,3.1015625
-0.040146862713061754,-0.03075429185254847,0.023944130516234004,0.011525177056278483,0.01701354373879445,-0.0138652906633715,-0.007383368780301189,-1.0505698512415285,-0.00639146753213614,1.435222978826413,-0.05312880750495574,-0.32321127225781027,0.02252008256014591,0.01618022064859567,3.109375
0.07925782914505827,-0.014381109347546939,0.0022646800369376403,0.002469565685414826,0.01560757519596502,-0.004680455769237326,-0.000673053231336022,-1.062830577363289,-0.003840234346873881,0.9218080031939889,-0.0741690964555553,0.1966440458999714,0.018556248910970692,-0.07147442004893528,3.1171875
0.190213419122111,0.009633597139497909,-0.02414876439357963,-0.00883670874384763,0.007645059757008286,0.0076152834368132345,0.007594480071430156,-0.687967607653655,0.0003028552196717165,-0.013471502161353887,-0.0714008722393509,0.723616779481243,0.006676711996409548,-0.14637233232192876,3.125
0.1921519118754853,0.00947108529223152,-0.024247071613658334,-0.008829404486757234,0.007829146714025102,0.007654530864515738,0.00757717382465399,-0.6981219128650319,0.00027256245577046337,-0.007723490450286284,-0.0720744251868579,0.7225956289678647,0.006819814670969365,-0.14726964168747794,3.1328125
0.19747197855515378,0.005155484612207651,-0.021738722300114897,-0.007616199358430779,0.011246109254281308,0.0060337390964541665,0.006737936350735468,-0.8995063835842528,-0.000566918898688918,0.21251013526319704,-0.08421174494224572,0.713659126763579,0.010903279032962523,-0.15363596624135803,3.140625
0.4468758803764133,0.04118778614520877,-0.0685877881143592,-0.027318180257494835,0.0062020066983950175,0.026211231194554815,0.021351292459180223,-0.8045008080870434,0.005280847268171709,-0.9960319307777297,-0.12053682922183964,1.804127542982849,5.7446127230250205e-05,-0.3333119621957744,3.1484375
