AF3,AF4,F3,F4,F7,F8,FC5,FC6,O1,O2,P7,P8,T7,T8,time
0.11384980911701034,-0.4194276096516465,0.5029767033657064,-0.20069361558267665,0.04515586285856915,0.12989002146657014,-0.30187745811855726,-0.21467346900840512,0.3576683166848987,-0.17365419970216206,-0.2473178442446521,0.11059010961158844,0.2987686575016388,0.0004612152363885537,0.0
-0.062243474871925296,0.21401123705180233,-0.20504136105757875,0.08321786125716718,-0.030839652542995276,-0.04615821751002625,0.09224254059146747,0.08027416034939759,-0.730920424342908,0.1865695016136577,0.32023402949996144,-0.08232623341590048,0.19409619776387027,-0.011421355527515177,0.0078125
-0.1681938467524594,0.45278474366203203,-0.07873873376275076,-0.1034111976136143,-0.0587913392090717,-0.09837716572344696,0.15779821536659455,0.2820219203947033,-1.1724340597716696,0.34476700362306195,0.5973263730160743,-0.16895249627062117,0.033972132929573705,-0.019271441924196036,0.015625
-0.2686670474867792,0.6063112050988683,0.2760969454210066,-0.49572527822885726,-0.04879367426752623,-0.19302385010618328,0.3362100257212384,0.6279814601577255,0.5983443717365726,0.1012795451419653,0.11359039512763976,-0.14442336784329252,-1.5222606933629845,0.01260299911727448,0.0234375
-0.2900838633011134,0.6992903091544728,0.08220635820593339,-0.45266435051436,-0.03358061636527894,-0.2905716369364839,0.600209345903606,0.7983319959183172,2.449935664278337,-0.19935590033771866,-0.4988645727875314,-0.08277168743896181,-2.8314779597799746,0.0495287353716313,0.03125
-0.05769191685862659,0.2517587035552484,-0.4550994937555019,0.17095214421481753,-0.001990941517186431,-0.15124873333015793,0.3974965675026161,0.23795608222885065,1.770538910068463,-0.24723084830603242,-0.5462528374279678,0.023919251193902483,-1.429455835169356,0.03785772293889047,0.0390625
0.2433757663717228,-0.45479067234755566,-0.6231978354172808,0.6862288856467115,0.03364008499863375,0.13311654058798503,-0.17478492818832958,-0.5758142069532212,-0.522998991014449,-0.08096501023982372,-0.1151885773834234,0.11776474987036653,1.3440442220414064,-0.00845175802937097,0.046875
0.18943331966595847,-0.41450201074579285,-0.21965801923832423,0.4059093765216096,0.015011506828034786,0.17573796466376174,-0.346739996238593,-0.5344269444018888,-1.7284516944283368,0.15904305396169605,0.3671522310432762,0.04196494943393146,1.9246110247107147,-0.0338427091857891,0.0546875
-0.19939838669033477,0.42021743432488945,0.35951202991503434,-0.4103406665555752,-0.057118311676709166,-0.06732440773185691,0.03310464304534866,0.3442325712771572,-1.3664168544832882,0.3872548457274842,0.7070713741302678,-0.1827133191595546,0.05838901399791456,-0.026187974137955136,0.0625
-0.44594183832103956,0.9621580097064771,0.6724861500703038,-0.9007922088284668,-0.10096584988343882,-0.23544995345305086,0.3143517592306185,0.9168536766336405,-0.8946278006911652,0.4913770456657662,0.8390426291041697,-0.31631791839872275,-1.2861289009766292,-0.0163071326819224,0.0703125
-0.28170496756158636,0.5714761640977327,0.5675709841522976,-0.6589726749261143,-0.06034140544368085,-0.13264241917181022,0.14715784271168886,0.5798399121211695,-0.5849876372721284,0.3082945671928928,0.5393285252401727,-0.19572997746520135,-0.7881399103486496,-0.012008687116972758,0.078125
0.1251995901595297,-0.3514514704278598,0.12106744081274125,0.04775763802548425,0.04012741110624202,0.09068115369679866,-0.1705798225791873,-0.2337275512061279,0.5345939926768604,-0.2000435401515907,-0.32770069650293493,0.11230145002793725,0.20285996062487857,0.006903857761226253,0.0859375
0.4452097574149125,-1.009839699680323,-0.5078103079462263,0.7628205123775865,0.11930963781956946,0.2180789781813694,-0.274661211742545,-0.8402441554519255,1.9689139704440703,-0.6866533445075128,-1.2040622695540162,0.3694825844257574,0.6020164712276711,0.034605934762724645,0.09375
0.3743932585399909,-0.7001040575971408,-1.0141043613391831,1.011595701538647,0.0856137119689958,0.11652221935820499,-0.021112025344561407,-0.7114074956307403,1.7360544411077528,-0.569319647581089,-1.0496379554652804,0.2932057143486933,0.41067658484903613,0.03558999688018485,0.1015625
-0.08893460406059153,0.4469010587101701,-0.86203589483404,0.45993523422476823,-0.050467141056941035,-0.14837808019413473,0.3845522358656448,0.14831346274796064,-0.41822750935870284,0.17768910850370676,0.23339396324064554,-0.1098746632236298,-0.17369718460934946,0.0005085497413743118,0.109375
-0.4133910238255213,1.0124850333632476,0.1797422940490835,-0.5145810232226248,-0.12310383190622592,-0.22557672669336282,0.32963836704792293,0.7543881151985695,-2.104550968068104,0.6965157105879424,1.2079327778749247,-0.3664728298772209,-0.39733244551973673,-0.03540782219672609,0.1171875
-0.15687162427173362,0.09729362544211491,1.2088081579640522,-0.8948980521503045,-0.027246868111724293,0.06516386269312077,-0.3403464200652884,0.25112342111271435,-1.5893046740918162,0.3598384367651822,0.7478443325583891,-0.13359264202822965,0.4503193264697665,-0.038296043203803636,0.125
0.2736775086986513,-0.9201863087468294,0.888806887879114,-0.25458556578928554,0.0881346827366058,0.3063677698286248,-0.6960680087755063,-0.5819698658449177,-0.03911472567278829,-0.24787707243600102,-0.2924086910948779,0.21432432033765686,1.2739245146702933,-0.01270425807702861,0.1328125
0.28192966735922964,-0.5964382172308744,-0.47743971368188354,0.5996713432917135,0.06359779138814607,0.1387066269869933,-0.16904649802199104,-0.5726784016981348,0.7005549675959635,-0.33244796159430284,-0.5776087238161213,0.2038507905027753,0.7263434397126048,0.012811819975259492,0.140625
0.12788213773451124,-0.06388446301980465,-1.034602317301287,0.779969602329886,0.011895746674632661,-0.03927188205803747,0.23996067730609988,-0.24818833083320274,0.698594986761799,-0.186513940519378,-0.4056160550275473,0.07992734288364584,0.02211742867069264,0.019823231454210104,0.1484375
0.2584341768753635,-0.5859734508923607,-0.28714569878567886,0.4471855550421584,0.06517483303997551,0.13689414640063097,-0.1887244033988403,-0.5081429464722468,0.848413788472494,-0.3466485798291171,-0.5976044589589505,0.20142336043874834,0.5432325208570555,0.014311272301113237,0.15625
0.23458792710471452,-0.6564690533510027,0.22510842433286635,0.0953077928325032,0.07315937044574983,0.17534684898853123,-0.33296505141400173,-0.44812908166004944,0.8400255920313582,-0.3454528138337911,-0.5585914049984751,0.20347571341201195,0.48459626096454456,0.010124745919541944,0.1640625
-0.35040428755019626,0.853690157816565,0.12678235095183585,-0.47745122877524315,-0.07892840973150199,-0.2555889613749374,0.45912440062715226,0.7693381302798186,0.11351015329803313,0.25801312015388367,0.3732364350085909,-0.22645530817114998,-1.570353026102383,0.005956841179977501,0.171875
-0.734385046448205,1.629529098274193,0.9076942343316045,-1.3884972880820137,-0.15671751490478364,-0.44435165419901834,0.6830495008726593,1.5799025654032466,-0.40914420661783485,0.6299986593670581,1.0142557987908245,-0.4803440723076542,-2.8260728386338405,-0.004868894824235141,0.1796875
-0.25041298286704744,0.09565458810917764,2.1005175084648875,-1.623534525805365,0.0006216034417789523,0.030006779685616488,-0.3448705774192638,0.6002223304714513,0.31474321081173984,0.06682720923146458,0.21919528022220305,-0.0791849929602386,-1.122417496631187,-0.008597858147007805,0.1875
0.30993361509689626,-1.0516933162610786,1.016896668051251,-0.3324165954978809,0.11707347523111576,0.3081010451922701,-0.6812364295790049,-0.5745240246002241,1.1831910226336715,-0.49690763109977265,-0.7515636883204156,0.2980346159534663,0.6452609498599154,0.008734682584424556,0.1953125
0.09520465986421259,0.2575311944466269,-1.9637788515546972,1.3452729654726299,-0.026555794098625508,-0.1521937175532201,0.5688746968461226,-0.22219807530779712,0.27984495362699785,-0.05173258837499132,-0.23893698376976777,0.00579010877705736,0.083189024265854,0.020374075685627137,0.203125
-0.2738014785076427,1.4307343435833146,-2.8507931325141227,1.5582866060846794,-0.16788366238374433,-0.45969155793194394,1.2012316859879928,0.415718469542364,-1.8653506621900233,0.656772045463224,0.9135019158297762,-0.37073317476841583,-0.179410775172562,-0.007044216396752965,0.2109375
-0.020955952186577552,0.23696146052373065,-0.6614093082511304,0.47594818833007513,-0.05940317863709808,-0.0030004606791779642,0.020191171152502248,-0.14760791770338585,-2.631373614425121,0.5043306916712375,0.9153308329081631,-0.1561614450640804,1.5713772809818585,-0.04399127147223154,0.21875
0.32990983753796677,-1.0623607459831366,0.9157620751117872,-0.17620952818682276,0.0873479994221075,0.3870988371951341,-0.882453667407399,-0.7780396649587149,-1.124031490800985,-0.10363527677676257,0.013650844211606549,0.20434305956430596,2.2217220729895537,-0.034243744678781315,0.2265625
0.16235715373322013,-0.4447588212497652,0.11602462113183666,0.09022023676589638,0.050137823996545865,0.115316193480636,-0.21222891516056677,-0.30780596780614056,0.6307590391003622,-0.2466343512149934,-0.4044060418518729,0.14151048552429857,0.3003777222892623,0.008213153408999373,0.234375
-0.05220389044779348,0.2748531014496912,-0.5842560513127639,0.2836216775192836,-0.01527303412306638,-0.13486798007852488,0.3611680642840074,0.16820079215397932,0.9591133689805036,-0.10465634764321144,-0.27702006644830107,-0.013341639201426671,-0.8892281617361126,0.023585342878689654,0.2421875
0.1027442843500305,-0.29436327556190994,0.11456798704664133,0.021316462398202694,0.03708934830161772,0.06721650115578805,-0.1201907852312701,-0.17247345156372798,0.717009639365526,-0.21361244431483167,-0.3640828529772771,0.10526456750963836,-0.012041929703657521,0.010729298396985786,0.25
0.1748809112130088,-0.6172935934725141,0.6578913413742943,-0.2506779638991413,0.0725487392378572,0.17290654164330754,-0.3854019856456485,-0.3013278810742266,0.9835199095668695,-0.33936760554684625,-0.5310485594275858,0.18531536071069088,0.16630186068451913,0.010044429377632755,0.2578125
-0.047860551152958945,-0.06956097334002333,0.7232819235992067,-0.5398037996047149,0.01998160589897338,0.013924871005673281,-0.10237490371678612,0.1769006676562536,0.8956776485217545,-0.1467075188782993,-0.23905760845720148,0.0337713205885392,-0.7306885628761502,0.011137969086398953,0.265625
-0.11196045543573575,-0.036559301953642195,1.2586850797017473,-0.9163380100804606,0.002999624021049694,0.06169323962635772,-0.30182213155948606,0.24524984318799437,-0.2674424833369536,0.08943577306838164,0.24335714206961742,-0.04230945740345807,-0.2104795873534274,-0.014459451519430308,0.2734375
0.012150558469149067,-0.35027750183149503,1.275299878134047,-0.7650213311004708,0.02289950272935396,0.18147927171995457,-0.5481609985311452,-0.07405864700690411,-1.0005445772565362,0.11787887958797924,0.34948671607617976,0.008933863274135435,0.8015008168961252,-0.03029461283123464,0.28125
-0.11116495483256653,0.31901016059771564,-0.14787897614854242,-0.02964007986141863,-0.031185760383839023,-0.09984657403043476,0.2054506758865294,0.2362834414414562,-0.020923112226048857,0.09926220834363945,0.1348549802215538,-0.08133734215343369,-0.4733061272975305,0.0022139202314366414,0.2890625
-0.29284980080866213,0.9807696554699256,-0.96510083373186,0.25128320945289484,-0.08103759804186733,-0.36356930884841687,0.8441492667843032,0.6931307589277139,1.0954365296095765,0.08064004647076418,-0.048249109410225526,-0.1829796318093919,-2.04256235213836,0.032984753163956854,0.296875
-0.02674490124862973,0.06747441391273015,-0.006949470790215048,-0.03631620772925949,-0.0018019528840720895,-0.033468451852319815,0.07374693982556284,0.0830253856412822,0.3768254542517687,-0.04399271425503972,-0.09768801628508458,-0.0016477684157577249,-0.3576790256471706,0.007257081085318356,0.3046875
0.3546825012595032,-0.9227743396006226,0.12491567781679146,0.35325192971785685,0.07212323570577625,0.3187405982898062,-0.643359023318738,-0.8447224514110524,-1.1142655330371949,-0.09480896854405912,-0.031045369063785813,0.19298590823040665,2.263238001213715,-0.027688300621672993,0.3125
0.18906226444397803,-0.017413264459434426,-1.7857081740749188,1.37768337484384,-0.01771191131504677,-0.01826658818399556,0.2552903437167106,-0.5141087533812466,-1.0503928142522956,0.09950812481332089,0.10956895575311991,0.015710122676553594,1.3643317046996133,-0.007650434129384485,0.3203125
-0.2586646660635547,1.31694538154306,-2.610374829824167,1.3546912770921904,-0.12675698580340367,-0.49480337320842804,1.2998302092228189,0.5416275249488646,0.38536880686671315,0.23925641588172322,0.12800168334130138,-0.2508955380988391,-1.558623008305687,0.033183135623080943,0.328125
-0.26937408725634626,0.8478547402640257,-0.6810967641264185,0.0968981756396692,-0.06784016247204537,-0.31430696396552465,0.7119863832171932,0.6465298317416942,1.0888175099766626,0.05113247204125898,-0.06901068679558559,-0.15718473010860814,-1.9162317883093636,0.030107496400607316,0.3359375
0.07178018507036235,-0.4953069858233275,1.2183054696498803,-0.7025370194376742,0.05400428360999706,0.17722145174863543,-0.49273266237165037,-0.11291529231572749,0.330704869375024,-0.1627845908275736,-0.17740335859556977,0.10675286713557344,0.1885884114075242,-0.005540993727111133,0.34375
0.17413182457948576,-0.7803636376789492,1.3421755122655583,-0.6378584734357812,0.06887376159003918,0.29863985179461705,-0.7635535714260013,-0.3968512986700295,-0.6011363265568205,-0.08625988553279311,0.024111612526151283,0.13832600913006715,1.2439719709241386,-0.02571493602434823,0.3515625
0.02850421814732056,-0.3995930652364318,1.2943561018267324,-0.7725412642415971,0.03366957396577063,0.18093904230067706,-0.5363186632725873,-0.0775332919364367,-0.5411387877666296,0.02278054947399266,0.17306056219975297,0.041243963264098404,0.5742058636404324,-0.02201050897814419,0.359375
0.03134644186911905,-0.43072407459238293,1.376380892757723,-0.8404390006289323,0.045225484774571896,0.17154768232444167,-0.5115845587791875,-0.0388489688906229,0.09032822071415607,-0.09312174867982939,-0.045277207426458806,0.07433404336464226,0.18248193953093678,-0.010847683480351063,0.3671875
0.12349356025492093,-0.335548559023192,0.0879756601936038,0.07818437006304782,0.03364956452831842,0.09786755159693591,-0.18991222644842917,-0.2560170303604138,0.1640133326393278,-0.131469635930386,-0.19920629054756703,0.09327940011950629,0.43442940248143636,0.00019213406762070287,0.375
-0.02682328201532038,0.4207160879786772,-1.3769186589427034,0.8535839798666575,-0.04816888896381702,-0.160781864935655,0.4835619441254167,0.011287460337515777,-0.32279212293829546,0.130487238042597,0.11958792313188249,-0.0823307207127994,-0.007014900228675118,0.005787533464446849,0.3828125
-0.25986265730524993,0.7935123544791409,-0.5303980377968639,0.05307653946859392,-0.08021146116566144,-0.24647737350632626,0.5244640601033249,0.5354198264431543,-0.26601616996958344,0.2760597177793438,0.38646207491610873,-0.2060566585229522,-0.9834703373761131,0.003095503314337159,0.390625
-0.15363297201798654,0.0865712870829443,1.1725766488190985,-0.9272482739841929,-0.0005596543055393238,0.0004333235137684069,-0.1567637130459296,0.37743726497926927,0.3603170048215002,0.01575543102808553,0.07533981856371806,-0.045169888963729754,-0.8042634943107388,-0.0012388520208462437,0.3984375
0.1555312922214078,-0.5406742576520321,0.5715913572346745,-0.1915560117002735,0.053703572507997455,0.17675732057919288,-0.40621503222630095,-0.32017741356019763,0.12026206673319052,-0.16842942329129676,-0.21379020581925018,0.13045685838486634,0.6375987842125131,-0.005236963532522715,0.40625
0.17770104671567216,-0.11891384740125567,-1.2732665388088495,1.039952096760404,-0.006840188152762739,0.029680020731869382,0.09315902562906966,-0.48141388238625243,-1.0629097361964888,0.09176405267998039,0.13562509852853677,0.02586408476213083,1.362093410546092,-0.012112174200509904,0.4140625
-0.028340656105864084,0.36968707003185886,-1.1424713133342157,0.729771370465222,-0.054183473468738995,-0.10826753281683418,0.3272173710476795,-0.04061222425928962,-1.1865046940715598,0.27475492872131824,0.421177551095136,-0.1136338780914845,0.564974594661983,-0.012491983403357075,0.421875
-0.006973723821891366,-0.10177625011953237,0.4564709001553009,-0.3071281510089294,0.015045780840414868,0.03316924054688582,-0.11602212000630119,0.04650398963340585,0.35504321820844975,-0.07414539006132526,-0.10580359532046885,0.027493000352615395,-0.22313167675432,0.002603245846046141,0.4296875
0.13916698582628478,-0.556466626873072,0.7640069702117153,-0.37147357054025076,0.073265920180567,0.14206409691250751,-0.3291860693355068,-0.18992835024530022,1.4523416847864679,-0.39657181244643874,-0.6477133816700018,0.18612071022795912,-0.2831234852160529,0.018500070043316153,0.4375
-0.06447903778405241,0.19244127057042562,-0.1348817370442273,-0.01242662000665193,-0.007545559719813974,-0.09180577719084536,0.21458721218856464,0.1957451071948334,0.8607739165778233,-0.0941241111865456,-0.22169438531163987,-0.009963977173003472,-0.8443324130320641,0.018052915123192504,0.4453125
-0.3754678916534688,1.0367756647370059,-0.34187917673240203,-0.20995899705848217,-0.096715442322754,-0.32804409671719054,0.6617934439924104,0.819626363274045,0.1720353058039143,0.2856015288271767,0.3745333516635791,-0.2577014830280395,-1.7524551807639623,0.011458535529830565,0.453125
-0.10133883755637542,0.2698661302793508,-0.07282968879559798,-0.09253603618340156,-0.01507397300739675,-0.1118614558127632,0.2419161576411164,0.27463947825804846,0.8283958984765584,-0.061419465140603445,-0.16653015378965996,-0.0339549584347502,-0.9776674601653269,0.01747510147600045,0.4609375
0.5150019872318838,-1.1919498517776346,-0.4806862210018262,0.8328024846286131,0.13288002803476043,0.2828665616011428,-0.406940239441873,-1.01002274141665,1.695440999000331,-0.6957552193701563,-1.1910881153769242,0.405266981479138,1.0832405427685714,0.028161933001471035,0.46875
0.4815562563419958,-1.062949374006167,-0.6368888566763828,0.9175024143678231,0.11020540074839057,0.26515777669387064,-0.3745196331557498,-0.9924839354051753,0.9331485223660453,-0.5287166349698675,-0.8933851390861178,0.34293796110948455,1.422458781101128,0.015604540774857612,0.4765625
-0.22849623095321128,0.4433180407850896,0.553069076380582,-0.5736653478794976,-0.05543496857449713,-0.07632494838251995,0.02924780886866549,0.4275191232635009,-1.1197784034545604,0.35999406279152557,0.6598660823458973,-0.18437883626902962,-0.21277062331245852,-0.02276407295444375,0.484375
-0.5223056069861819,0.9828131131923131,1.3761141816185847,-1.3978386253197395,-0.1164304700852031,-0.1782394828728168,0.07327426493385043,1.0140720427095813,-2.0659961493766708,0.7320793891795951,1.3411767588934942,-0.3950137338125576,-0.8015284089033429,-0.0432953416636285,0.4921875
-0.03792207019939133,0.10332115464541995,-0.010970086702543272,-0.009933935460149918,-0.02147922271734563,-0.002252961555830385,-0.02052168512641947,0.022471063761119077,-0.8540641329961307,0.18081913484094037,0.3368491183207334,-0.06445909373963342,0.3931652648377796,-0.01576095597863015,0.5
0.26024097369132915,-0.2304430789315612,-1.6799481277786457,1.3597533593916655,0.01606881017058844,0.01439484475208916,0.2097999029805056,-0.5969754118552952,-0.036574092514206395,-0.14002958834678192,-0.319139383091022,0.11289529637894291,1.0207062996500191,0.009509840745993363,0.5078125
-0.18557145613756176,0.6620748551811918,-0.7095902679797794,0.30139415611669634,-0.09076698428711467,-0.15471898898729236,0.3285968729632493,0.2544446806655071,-1.965543397062253,0.5220174962227144,0.8790038698448558,-0.2388452920772941,0.4265955733086622,-0.028568528137002308,0.515625
-0.5650132501791452,1.041206690274667,1.6093345200763371,-1.544541701611923,-0.14268582382305675,-0.1325195611126414,-0.09270689391183168,0.9995038059671486,-3.6834442110514036,1.0422052908650483,1.9491148871398996,-0.48793648920042004,0.08284164861425197,-0.07518559453993003,0.5234375
-0.1627458089527332,-0.048527480064321504,1.8223824050604378,-1.3141365811069392,-0.0014915284536797847,0.10260538576148907,-0.47349838509751485,0.3278035393483419,-0.8102724000729178,0.20461183353730839,0.49765956864437116,-0.08059984657312581,-0.03453605003004134,-0.02876238214247578,0.53125
0.4281379369603546,-1.1640125081734711,0.2201465788611708,0.22194023435693583,0.16251136691354562,0.2192554868772103,-0.31950397358713417,-0.6519085811300415,3.988603549064254,-1.0547713729405799,-1.8636492566498482,0.4748196878969558,-0.7269413339141422,0.06672849711415209,0.5390625
0.42819944951593764,-1.0282291564709765,-0.3108614219790302,0.5611735550815271,0.1472262117853296,0.16365040417217,-0.1433917482785715,-0.666441506775695,3.9104482288144378,-1.0209451372240368,-1.8455537114163876,0.452283104281435,-0.7159862838921458,0.06979428670542898,0.546875
0.16876821584523496,-0.44925882833679814,0.09610232476576817,0.14417400447224982,0.03556216861570823,0.1547437835267643,-0.3163112844670861,-0.39962344916905057,-0.49924704242212153,-0.05213290700956832,-0.024793821981284814,0.09447755991361434,1.0608408687129205,-0.01305332044214994,0.5546875
0.25337622855334657,-0.46237183186939823,-0.6616002517883636,0.760270791817986,0.01696784896462677,0.17932815950049275,-0.29455274825837463,-0.6883338717894723,-1.8381069310497615,0.14344108044418427,0.32248168004585054,0.06410808203151355,2.237321604415735,-0.0330944784360931,0.5625
0.3341841249791782,-0.4391521036039625,-1.6332612046242019,1.3654995656989928,0.05679183480706453,0.02413478892816212,0.23223752507564005,-0.6478515651129815,1.5460131134495319,-0.4797885015857407,-0.9472023357793915,0.23533588577827827,0.3144390165693873,0.037886572550381255,0.5703125
-0.10965647339765396,0.4403122320347225,-0.717055343993305,0.23196432966293837,-8.682160166595077e-06,-0.2697381647449416,0.7007770883559413,0.4528070747183998,3.3202053342797777,-0.46809262449403627,-1.0207855108316137,0.04905661518180739,-2.67999551119196,0.07013252956569808,0.578125
-0.5633714886152462,1.2900023823520463,0.5153989777991149,-0.9811099183460367,-0.1110828011921756,-0.39401541438644216,0.678965485144677,1.2790809929470401,0.7114302588281044,0.30988950156707645,0.4237921257252428,-0.3290941624655539,-2.8469048183696652,0.01710261916281443,0.5859375
-0.33201685202176384,0.8969046209798025,-0.1869372714966566,-0.20697006065856094,-0.10619691976641588,-0.22140854731414902,0.3901617500007871,0.6083622530138231,-1.5684081059727715,0.550382780220528,0.922654002546555,-0.3008595745776868,-0.42290756658596673,-0.023355585511909433,0.59375
0.09987248215970732,-0.01265073916533205,-0.9290070469958964,0.7210321346790155,-0.010442477616771115,-0.005011070015644446,0.12107167134201335,-0.27808138899913876,-0.6478249568120691,0.06806351657135784,0.08990986355734784,0.004539839125459368,0.7835582439766433,-0.006061583350170962,0.6015625
-0.06364070725136127,0.0536934904470872,0.4138289902002151,-0.33957983542368103,-0.0018998744762026467,-0.008868889719965651,-0.037274507811489624,0.1570747737618654,0.1852738816111286,0.002765334397840294,0.017749146293437833,-0.019813152597823215,-0.36018744281060355,0.0006020190314061183,0.609375
-0.40284403980625016,0.6385960158358331,1.5263843179068715,-1.3734374620333563,-0.07681070741797584,-0.08788025861771993,-0.0998443273227752,0.7928793075238817,-1.548746402633679,0.5391813782229485,1.0268058175563841,-0.28589678154999887,-0.6111762266624456,-0.03658728494634769,0.6171875
-0.0852051371628025,0.14062806977071685,0.36869520693693686,-0.22715415788383803,-0.057130004412308755,0.08497334310599614,-0.3106344790446449,-0.040801651764185966,-3.361617721803796,0.6453366712750997,1.2573051066503351,-0.19505387817460465,1.846381985365402,-0.06561536360706119,0.625
0.49592912898197977,-1.1192990077281215,-0.4767650112705845,0.9337795821343663,0.07122265699627178,0.4035004929229799,-0.7554521980738979,-1.2536251547764863,-2.454546745678321,0.04914167274890002,0.25277960211039835,0.20631832653050383,3.6960488131174043,-0.04992625495528034,0.6328125
0.4077526558390224,-1.2474057054703476,0.8415509259405285,-0.0842108089427442,0.12285716274553542,0.39307092236055635,-0.8426490469506817,-0.8534039076376918,0.25284795984505093,-0.4050972915491918,-0.5500002067350493,0.3156961182962147,1.6576715459911189,-0.008823275863979825,0.640625
-0.12407686805790048,-0.0877281499843633,1.5308262248108886,-1.1724495989897736,0.03927227125737627,0.006958566453479366,-0.16985608218577297,0.4354903440545669,2.047309315808658,-0.3172402555071703,-0.5310319085322038,0.06298160026306715,-1.7456854846494099,0.027061473635232376,0.6484375
-0.1941862176172134,0.5309059484527261,-0.19558185211362497,-0.14453543233178526,-0.028367818975201183,-0.22440367470178835,0.49493362837461496,0.5345832433467779,1.7112655704415685,-0.1365271572309902,-0.3618928493744419,-0.06122661681722653,-1.9594433902297874,0.036563026181492896,0.65625
0.1570826742667854,0.008399537381158471,-1.6054221922505227,1.185322251297692,-0.0010196694430005472,-0.06848474823035353,0.3652492724911129,-0.3446384305796301,0.36020874068141623,-0.12961138361013408,-0.3331834344356348,0.06404685176955739,0.3241515873335203,0.017919198099803715,0.6640625
0.174347461546035,-0.24798833224005926,-0.761562427321399,0.6817775596995957,0.01965999299866488,0.05153129922319322,0.009407899803669588,-0.39793927915175825,-0.08230703664326056,-0.0979061049615386,-0.18825275946827585,0.08616281065912218,0.7493627246343113,0.002083448238688467,0.671875
-0.19986413123313032,0.4032162096384787,0.382151302355253,-0.48789110609600056,-0.028226524121990712,-0.13206429859187585,0.21106711285900467,0.48668275664563104,0.6911460440578218,0.02490091117290755,0.003223564581782793,-0.08996445567347866,-1.2780229669738026,0.012452369077176548,0.6796875
-0.329828849807827,0.7918741594519016,0.13988061000539967,-0.4912232355606619,-0.06049465611796159,-0.2695641541578907,0.5121375943795596,0.790547865858923,1.0713484158605477,0.0721865453727874,0.02111659508004013,-0.16912943875798958,-2.1027619518708556,0.02363709938232048,0.6875
-0.02581378237569543,0.22211004740335738,-0.6223774532789513,0.3604875134895693,-0.020504261097296368,-0.09424196153895507,0.26873098414035823,0.0579764695022402,0.1988184283224922,0.009086242855704538,-0.04812871128484421,-0.0310547534936614,-0.2846149794584362,0.009174715733192703,0.6953125
0.2523509856459537,-0.4007127448602979,-0.9194522048409506,0.8870854990091742,0.026035772091705833,0.11188615354589135,-0.09749645711789333,-0.6093887508921879,-0.6569028227389903,-0.05356665340802207,-0.0852273721475598,0.10706919092041013,1.4464350863476048,-0.008576101836193017,0.703125
0.21082687306658415,-0.3882438114876188,-0.5622808352746532,0.6033192228945923,0.030439849601831562,0.1083306894155743,-0.13139426702609333,-0.48956903021115233,-0.31335316822431963,-0.09365216896918366,-0.14841043752020694,0.10733171629863897,1.0716236512448492,-0.004543184570352723,0.7109375
0.0625682799163789,-0.2706638952723097,0.4281588767466702,-0.2178888937437404,0.033706287477309374,0.07607248955934347,-0.18581328918436127,-0.09071408090052081,0.5603383218705411,-0.164942787029267,-0.2581671402266725,0.08236434451668091,-0.05943396980819209,0.0056699676439127935,0.71875
0.03222062787274121,-0.34982779787090057,1.0311894582371974,-0.6428121814486057,0.04651511077239,0.11009173808635518,-0.3260275013856861,0.004885171486560364,0.840041921399743,-0.21268720678186204,-0.30875051017548516,0.0962337597183637,-0.3264545423367412,0.006248220528328581,0.7265625
0.003919200977113069,-0.08438399139148056,0.27810135630053806,-0.18473149950544437,0.014104573075273434,0.01897146796112693,-0.06196615911537632,0.025952416614658566,0.44331450013802387,-0.09193215960288441,-0.15184493777741478,0.03233656052895115,-0.24747987532507865,0.005637502425405598,0.734375
-0.15498222331177292,0.45577904363205396,-0.24690930972564287,-0.010133647416169816,-0.04714485522499857,-0.1372095235783042,0.28210156688934046,0.3151389023126762,-0.23062561605569126,0.17460056518217573,0.25660261089773523,-0.1237770954938756,-0.5335010355020149,-0.00022901264091299372,0.7421875
-0.25919987146683127,0.36456193919184504,1.1654235706336344,-1.0003846395549487,-0.04484353313508687,-0.036090983360344144,-0.12933845580411077,0.512038298752985,-1.011086808603791,0.3425922811889507,0.6687755758322903,-0.17820369108356615,-0.36909014844024396,-0.025508242268239712,0.75
-0.13142650362155797,-0.2198497750447804,2.205949859060396,-1.4957091228581185,0.0037502698843033975,0.19797730827358576,-0.7324975309120183,0.20417060062581455,-1.7215297564709504,0.32500326187795275,0.7792912651878043,-0.08663503055858139,0.720602874874548,-0.04972206153026944,0.7578125
0.01354775961096786,-0.04962614204613925,0.10321378204354424,0.008309666690252827,-0.020959857232561278,0.0842001091786648,-0.22892741231021815,-0.1608713106514579,-1.928085932465527,0.32383773493034135,0.6461297189732923,-0.07388167995059994,1.3205080468189179,-0.03776689233607534,0.765625
-0.038586534051678105,0.7403004865425111,-2.495756360673054,1.574849385076788,-0.0919021568775777,-0.26667472194681796,0.8154912197682954,-0.03682491658845376,-1.1131567403494673,0.3211314270863,0.3857911863903012,-0.1658762215659761,0.37119450266684595,0.0006370086619165578,0.7734375
-0.04652926610174649,0.5056006079579157,-1.5355382600832364,0.9043379122167156,-0.04428840619291375,-0.22342252375112262,0.6502386337008228,0.11535068974795398,0.6094472582760779,-0.011424179796332834,-0.17932213226695964,-0.05944812110909623,-0.709076589670148,0.025035368716088285,0.78125
0.1891996806550716,-0.7542007114694054,1.0351052746097908,-0.500090970712669,0.09797856138566742,0.196895960871065,-0.4579086129572035,-0.2664250353085693,1.8484267632415374,-0.5168209470075213,-0.8376872887765126,0.2472684760332837,-0.3047564377167553,0.022901053086642833,0.7890625
0.29267230837367997,-0.9252223269765697,0.6904268483036543,-0.14649116260293976,0.1048900439433035,0.2577384694655776,-0.54041441296243,-0.5394587166493449,1.2298191088253003,-0.4788304519521573,-0.7523419007861077,0.27682972685853907,0.5165802996465602,0.012646187940198977,0.796875
-0.02010737695778152,0.47862655382629493,-1.676488476591788,1.0492659021847623,-0.053540212663446496,-0.19094059174078787,0.5844035715437133,-0.0034235483109643903,-0.2468863680932058,0.12264213980361875,0.08100028108974552,-0.08506643250730474,-0.04989667468202479,0.009704265225392835,0.8046875
-0.25268222840309534,1.139195914752521,-1.95772269695069,0.9652660137063699,-0.11582874341306013,-0.3999440030169886,1.0139851074478963,0.4999833242607984,-0.19413327025080004,0.3119146343117722,0.33037732876153864,-0.24941735808837004,-1.107137151591922,0.01657047790185655,0.8125
0.056356723732054685,-0.13149130114245525,-0.07429014563774591,0.0733358685503609,0.028289384537458225,-0.006181458668527548,0.058845867259572714,-0.03829706982990109,1.2522490929286703,-0.2627973531320004,-0.4960549974309789,0.0911888299131405,-0.573627348873772,0.02313779410403819,0.8203125
0.4116588640857494,-1.3380318943418175,1.1268856032993617,-0.29490618352348474,0.14732139766593483,0.3899738320078601,-0.8426173368724904,-0.7777976660200406,1.4052037390272036,-0.6219022165198816,-0.9445414564038549,0.3804182953649734,0.9479192577711016,0.010444316265036824,0.828125
0.17451139177294975,-0.743580608494796,1.190723119003971,-0.5484741239110841,0.06807375119686905,0.27474699166010497,-0.6906630807314637,-0.384199578712238,-0.36793570586486374,-0.12140042220804775,-0.05868501363840477,0.14354155391129234,1.083011658845444,-0.02003989435872452,0.8359375
-0.31005299390644464,0.46439594124359473,1.2900630176708947,-1.121457447522901,-0.060362827862190556,-0.045086179145364544,-0.14460897033168765,0.590918369327416,-1.4998874011935939,0.46481162654451535,0.8974435580297679,-0.22985443020268734,-0.26145719958124664,-0.03503674589832627,0.84375
-0.3473839110245494,0.5659747228239644,1.2418936983612872,-1.1591827370468093,-0.058412669834608986,-0.10729471277332597,0.004081500461321806,0.7316709727277788,-0.6191175009813067,0.34200531981002175,0.6385447899781935,-0.21720445069961627,-0.9980120894813143,-0.017441161738290314,0.8515625
-0.0611610287906175,-0.02072198039964741,0.6757513001876619,-0.5115796857311281,0.009766883164382298,0.012053214280510295,-0.10443642844021049,0.17646563069343119,0.4795579302821046,-0.06061926151654333,-0.08180873572316454,0.004399855284254448,-0.5214014965933647,0.0038799377878089513,0.859375
0.007136445827719503,-0.050280388905010145,0.11749240410159577,-0.07550883392448707,0.008696845742108406,0.008275663611671315,-0.023420403831002492,0.006785400721562292,0.3073865120186474,-0.06436509885679657,-0.11173499479296627,0.02257803091905602,-0.1573967709326583,0.004390525040601606,0.8671875
-0.08480331459137362,0.3622984245047149,-0.5772055883207184,0.2760796631219601,-0.03822449974768986,-0.12260541460425077,0.304331339328755,0.16252804658180292,-0.15434555710930806,0.1172619547853832,0.14270562833682068,-0.08500227768324868,-0.30586137653395185,0.0029913039325618093,0.875
0.05209808661702404,0.2897402643591994,-1.6591129811686192,1.1066340223834032,-0.030050705323402205,-0.14818708038507158,0.5152503248712543,-0.13027788834577333,0.17815349930347832,-0.010637844360299836,-0.14895550498333798,-0.01683506244649804,-0.013723704768269429,0.016490643514039855,0.8828125
0.30416212522855296,-0.3291829559793975,-1.743232418694024,1.430854083430453,0.03342049886055863,0.020442469212073242,0.22639382005119793,-0.650411272222966,0.588253657984214,-0.2828590858696219,-0.5856885519230483,0.16820678569779574,0.7992283389334619,0.021198392642173266,0.890625
0.261069198096364,-0.6203383061293487,-0.16140040178972415,0.3949938868465983,0.05800985993073644,0.1790985292039621,-0.30902727643812455,-0.5675387168144683,0.036583563822547335,-0.21108377240162854,-0.32055629980010986,0.17134132997285156,1.0910557465446389,-0.002112110908143986,0.8984375
-0.05519933199354976,-0.06029952088153697,0.8063853715956791,-0.5408357143300742,-0.006889011996643706,0.08192609962794296,-0.29964075673046003,0.05793367394237305,-1.0893374394596753,0.20514651713767132,0.45093962401490995,-0.05721953324855741,0.5330597895227019,-0.02693829652861366,0.90625
-0.26357905772757917,0.7601933246480871,-0.33250545730690906,-0.03794791637085982,-0.09363435554161632,-0.1855530483818474,0.3442312383845524,0.45772926541574493,-1.5630705785714785,0.4995628960191782,0.8385786540017415,-0.25966413199097005,-0.1423940288521547,-0.023030310085771267,0.9140625
-0.21214368530331315,0.8570561762887928,-1.2357261109606104,0.5750285376978654,-0.09728042598648604,-0.2652965280163721,0.6385348419789441,0.3721349681247598,-0.9566369760178689,0.3858154109178285,0.5559765439736465,-0.23034845483766384,-0.38267072741276453,-0.004618976663308602,0.921875
-0.0663054107323103,0.13247494039632762,0.13752098799597195,-0.1613655531526572,-0.012447914653634344,-0.035495455910029915,0.04592836840533693,0.14559086836688417,0.005336359657070629,0.04723344559160687,0.0780329088028487,-0.03970812342238237,-0.2760356598955875,-0.00038485820292056584,0.9296875
0.03360413577913582,-0.5559557719947211,1.8321905680367923,-1.1424287162412186,0.06493568574007022,0.20691253652095445,-0.6269434441537038,-0.0013857344665733195,0.5932208651828983,-0.20085716009392668,-0.21274504527965912,0.1148312357330397,-0.10000663954145138,-0.005282303580321064,0.9375
0.09310831778087882,-0.620452126413625,1.4872878540317012,-0.8655219060241263,0.07380186873408884,0.2050615834542451,-0.5661127798072452,-0.11686511552885215,0.8777453076306702,-0.28576538581131483,-0.38534138968211507,0.1552637833272193,-0.05429647864008797,0.002146372251694641,0.9453125
0.11246821000922193,-0.3162466863595385,0.09708451071356058,0.032502566337755584,0.04389086831505931,0.06090203145141261,-0.09517214602601091,-0.16913060505546593,1.0787324803168152,-0.28396292371610127,-0.4994041203466986,0.12733877452172165,-0.20601251590520547,0.017547827932766373,0.953125
0.04324808915898048,-0.013665925710423408,-0.39915310370798773,0.2750438222267222,0.01172932287393463,-0.04048240195592082,0.15848952238916392,-0.03918301552082007,0.9088770464815503,-0.1796391483667405,-0.36848819223456086,0.055297402930323196,-0.4314840484430039,0.019631944171198047,0.9609375
-0.06396373995402607,0.19002600293379887,-0.11838895195486017,-0.0023816143447715527,-0.01601214038551645,-0.06814049285092387,0.14890004430660986,0.14988356994384405,0.20354865184895235,0.01980915093683751,0.002937105069099481,-0.03838901579858988,-0.4143514715235036,0.005525527585774858,0.96875
-0.03798179617213833,0.10801742606615485,-0.037763387066515365,-0.0029529457942951438,-0.01754783897230988,-0.01625188721535546,0.01957668711387924,0.045544707185208234,-0.5148764184875434,0.12207066674464895,0.22004930788818705,-0.05022731926786962,0.170281644926479,-0.009116250403839921,0.9765625
0.15392498796150003,-0.32457185004747924,-0.243762956353226,0.34419753204482567,0.02233121035037087,0.10748724317578652,-0.18161970966382368,-0.376060612583492,-0.538966289115203,-0.020212941268447394,0.0006739856184859424,0.07042460299747041,0.9971875645303666,-0.010680893184611724,0.984375
0.253330471550639,-0.5590368149217374,-0.3303431280722134,0.4843629174097763,0.05589592033176415,0.1445342144700285,-0.21164392971438756,-0.5322806313864914,0.3472549457377323,-0.2525984707758727,-0.4205343552632241,0.17395568686887453,0.8433476884286747,0.005300140733175723,0.9921875
0.0414022572491072,-0.0823638055766542,-0.12100984724248853,0.08195086278984637,0.02531076392219261,-0.027021447200297314,0.10802572870736571,0.0025565073647363205,1.3862689310871321,-0.2724105364285929,-0.5251508158363933,0.08546284990558811,-0.7282406446816733,0.02627661162772757,1.0
-0.26746883162635404,0.6416816524783959,0.11189612418462991,-0.40335570386318065,-0.0465152449252677,-0.22511976464104355,0.4330003495647555,0.6542746289326773,1.061728024474567,0.02476216723571377,-0.048822503370391554,-0.12860290414083186,-1.8299638314787876,0.022757824840144287,1.0078125
-0.27747424618411254,0.7720369468436823,-0.25397349762717786,-0.12263776517869084,-0.08591498100964823,-0.2085860556473823,0.39548541158068673,0.5338455325634116,-0.9131904432250748,0.39384584972585335,0.6333574995016975,-0.23709127992403614,-0.61832982916464,-0.011229648674809816,1.015625
-0.005774388878412615,0.30538700492466503,-1.0893382187175815,0.7542990952421442,-0.06239273259881923,-0.04971819945980512,0.17850206257426832,-0.1638297733724566,-2.2795806353742605,0.4462890526411195,0.7696369000166958,-0.14552988023285457,1.3754922199178765,-0.033896251276796435,1.0234375
0.14248062983514018,-0.10758238694036466,-0.9671887944794896,0.8120094491839751,-0.009564321817409408,0.042604516768675764,0.020429746247784195,-0.41237274851250194,-1.2487920620064592,0.14046767634380627,0.24491258448723816,0.004935932861550968,1.3535159417146891,-0.017684143584644447,1.03125
-0.01234821244235222,-0.14358815683785098,0.6750530138399696,-0.44951630949149624,0.018146678803785565,0.05675676841265913,-0.19458324917625305,0.05425855400547772,0.2423191613727355,-0.05887776814812538,-0.05762213334781791,0.026666845859156126,-0.1571814533151567,-0.0013085484428330728,1.0390625
-0.19844787778762904,0.012894965887646884,1.9219676926338718,-1.434616367023088,0.00032285686583131317,0.06849331782066002,-0.4082180287789302,0.4449064623338462,-0.2575502971556236,0.13251633056316214,0.35218605236153444,-0.07625150483328011,-0.5391899917036207,-0.01867071882502279,1.046875
-0.1313257601140923,0.06825632129532877,1.0609073890403014,-0.7867995344432067,-0.01850904952637383,0.052514251636098346,-0.28153530488659834,0.2260451754209157,-1.1053150886765852,0.26039430334939523,0.5500929864889958,-0.10012653815801334,0.2356942910067702,-0.028306564685216203,1.0546875
0.12106184450339776,-0.15529920920601195,-0.5993711980208394,0.5084264679273656,0.016148679645693085,0.01713232422823551,0.06095843359699075,-0.2551012658308224,0.2759510948419257,-0.12336299444604953,-0.2457871876218264,0.0720335734809498,0.30005781845154844,0.008229264887502514,1.0625
0.29606630754797775,-0.5259442963114878,-0.9245829323650172,0.8581044336590569,0.0732826714529582,0.05749759396355185,0.08417592205685771,-0.5200467374463519,2.0239487170215074,-0.5597901686924925,-1.0548635544549905,0.2565950003695103,-0.1063860002911315,0.04140694449989034,1.0703125
0.25743925053149486,-0.5976984261405403,-0.23621992708265538,0.4077192690113988,0.06894088375000615,0.1356603566313456,-0.1882467975508135,-0.4921731351223235,1.0355800053222326,-0.3808737458329028,-0.659807133258331,0.2109941091958075,0.42073338422095696,0.01743173781606224,1.078125
0.07518425174686671,-0.19090954167330568,0.026455326655974463,0.09823475688762265,0.004405703176018336,0.0922902287617142,-0.20588166809584815,-0.23235153014181978,-1.0035211006265956,0.11480368373656429,0.2562389628875899,0.006231872017505529,0.9796424114074961,-0.02059194740967396,1.0859375
-0.12574181493253342,0.30164044647528676,0.07757118039669797,-0.17387768750492846,-0.03571036971232003,-0.06963528018462772,0.1014963706540643,0.2364671330835139,-0.5372811053067539,0.19288056718488847,0.3322882784966147,-0.10625868248733375,-0.1846472378754105,-0.009233008541433697,1.09375
-0.28624582333931897,0.530019481466045,0.7267376147001243,-0.8252618142571364,-0.029533440342198215,-0.1836854611118962,0.2797795875777108,0.7304732953567548,1.4215944968177385,-0.046732794232309326,-0.1403908641751996,-0.10300152024551207,-2.0988203318786147,0.02457855357910819,1.1015625
-0.33696174631429254,0.5434109143930087,1.1777050167273642,-1.1664347235486592,-0.030216097964591914,-0.17102545633781976,0.19100024002615879,0.8447626053032206,1.3713233579895505,-0.013991340387507762,-0.05628460148322787,-0.12311959383978978,-2.2502542480732415,0.0205284032737652,1.109375
-0.14740042702518247,0.3168181328722868,0.22835304545013627,-0.2957153356824851,-0.035544348897999734,-0.07242659556980056,0.0885961346408828,0.29232981813476533,-0.44336699591371265,0.18813985390499602,0.3282081364592772,-0.11107435978616716,-0.32687916968375264,-0.008413942136033303,1.1171875
0.24881418319631965,-0.2516099908022498,-1.4631092888256778,1.237565272341147,0.0066675191051299544,0.05886848326020412,0.06989306606126672,-0.630688166921355,-0.9411553455774466,0.01989196545270536,0.007497503817706472,0.07246229440496967,1.5750578536765192,-0.009225051173273107,1.125
0.5014534230009852,-0.7278077454925402,-2.134960956402452,1.9078055329462207,0.06675371050521617,0.13495521992493362,0.062327639077389314,-1.1014512929176514,0.3522412898821129,-0.386134353803486,-0.7421839782081574,0.2764125271466592,1.772388429800476,0.017173736454400103,1.1328125
0.3130922540484235,-0.49696064502365384,-1.1854821795357802,1.075021149931928,0.05561043148776716,0.07677967668042011,0.05328871895594449,-0.6352667391852228,0.9505424400347614,-0.3753501382316056,-0.7112544677144573,0.21061100128326432,0.644312238849534,0.023132444676149784,1.140625
-0.12052345006642126,0.18162582979954014,0.4881004217384288,-0.4360225922714166,-0.020277999587715416,-0.02773724146700001,-0.02777190089553062,0.24754572948124393,-0.3117030068934494,0.13318288328939967,0.25570511168585536,-0.07777691606597681,-0.2772099220295612,-0.008569733752598225,1.1484375
-0.3469240403575775,0.4658950148239884,1.6547926048723136,-1.3883283362272973,-0.06226924964474677,-0.02619233652237122,-0.23777538832819153,0.6626246106646301,-1.7108167712758404,0.5177606085548441,1.01877577964637,-0.25105745732492585,-0.25580194548606083,-0.04159246662035201,1.15625
-0.24766783107765827,0.24766576765306508,1.5197873983081431,-1.1985180920840706,-0.03877764555342313,0.026122239256117702,-0.3081298510759969,0.4622259744358901,-1.4591656208081807,0.39862460156203333,0.8142889991013849,-0.17780851924844113,-0.0018508020830044407,-0.03716201744659551,1.1640625
-0.08827778630444948,0.1841606806678887,0.15831770404039294,-0.19133788558667944,-0.020709584996762412,-0.041391540672972564,0.046367113639721264,0.17580438596930748,-0.25361275221808527,0.10978939142381247,0.1928758220868654,-0.06533810564013323,-0.2005373047316655,-0.005129754254791137,1.171875
-0.053066894573693256,0.4326979710495254,-1.172109968574838,0.6844200633344697,-0.044178958486530286,-0.16964867167304398,0.48148228429496376,0.09570380894936162,0.025597840689242236,0.08279276516172954,0.03449863657989848,-0.07692284634191088,-0.33026863522827693,0.01099752796716454,1.1796875
-0.02510219343139127,0.29905565241647075,-0.9112022279853687,0.5673950020171343,-0.03858969307893027,-0.1007973436055786,0.298871204055013,-0.0007180863196625399,-0.5618436269604095,0.15355113915361943,0.20717824874260962,-0.07510198260085064,0.19104743842488608,-0.0027452450417440833,1.1875
0.1394209171980408,-0.5571514517759495,0.8036059856933059,-0.3505955621967778,0.05290228358146897,0.1972933034436662,-0.48456747797510186,-0.2969295204170254,-0.11018090933694527,-0.12361988065471553,-0.11224884447587949,0.11750930214959136,0.7351045306972398,-0.011349539693512972,1.1953125
0.322942253431764,-1.2740249933312053,1.751098303588911,-0.8003416975489319,0.14706086832341714,0.38147417097739916,-0.9066959208665455,-0.5541819485788028,1.7028667953209322,-0.6261901379752822,-0.9326359188695085,0.35642520373276865,0.41939207465840567,0.012033501733067513,1.203125
0.2681673198550402,-0.8028987210402597,0.42279281807435387,-0.047827391329473494,0.1120420844778355,0.16203368995284442,-0.2807816382832423,-0.3900071982745813,2.6977315552922025,-0.7064707151791554,-1.2308916558053706,0.3164671540612948,-0.5625086761518581,0.043007979730935536,1.2109375
-0.05314829197096696,0.5106187302207044,-1.5133037772991738,0.8563084210612616,-0.03282703395944355,-0.25542182991216233,0.7337558093518393,0.1923641546594301,1.5139954773969002,-0.1659642351186058,-0.4809021059031639,-0.02246680976941613,-1.3234593296296062,0.04203257560568213,1.21875
-0.340997786239938,1.2079174207900003,-1.3424718234972945,0.48735198194300705,-0.12563404170540818,-0.38720365129676,0.8917119845594255,0.6764105286007699,-0.5745288137862083,0.4267175276247557,0.5740765600575931,-0.3037576857138224,-1.1941449653571707,0.0054392564840981756,1.2265625
-0.30876560906581607,0.6386252188597105,0.6030744683078391,-0.6710669750516727,-0.084182485719183,-0.1061559909921938,0.05391534145706371,0.5481565391310591,-1.9115114599393541,0.5620638306090063,1.025903968770011,-0.27214494703170145,-0.04061942317233645,-0.036933282152354835,1.234375
0.0014603330101599092,-0.3622557887410909,1.4545847870456892,-0.8579758081740135,0.01024626831171021,0.2280212977550398,-0.6924114521559775,-0.12217266421049895,-2.083070250740637,0.30978503553675585,0.7354236711416072,-0.04046591799601215,1.4709965443231316,-0.05208556409867448,1.2421875
0.2935360015829373,-0.8022996936219647,0.2569540133877351,0.1994590731190804,0.06152347447669815,0.2860455893360846,-0.6005446989445627,-0.7080969020315949,-1.086419456825149,-0.05586435913720923,0.03268523533409369,0.1578125027440466,1.9913300330438548,-0.02737162953645735,1.25
0.2742837097750109,-0.4317308946133594,-1.0476101878928454,0.9540011980873523,0.045370929963677954,0.07356934761959083,0.02956394821676349,-0.5721786876545417,0.6092671900429725,-0.2893530715933645,-0.5469531414363605,0.17411432214471176,0.7087390354360517,0.016098507400341775,1.2578125
-0.09000149298153025,0.5259463428594838,-1.210498551709973,0.6207228268300157,-0.033064939969015425,-0.2506877955354192,0.6824867828080464,0.27915735040544715,1.5366402567606159,-0.15239376401918026,-0.44104028678965385,-0.03529567730443158,-1.4746326197785913,0.040432242017053026,1.265625
-0.4023040192626871,1.2860108166931108,-1.076445307666767,0.20315285000251154,-0.11189118352913387,-0.454413265205874,1.024702727898216,0.9195047143820713,0.963457421538301,0.19555099393832862,0.12304678314582805,-0.2664557491879874,-2.436905027612126,0.03310990769379979,1.2734375
-0.1716634835514748,0.6858480418490949,-0.9900831358829564,0.4331120024770067,-0.06640425770535208,-0.24230851288761238,0.5930420193221826,0.36172101076516044,0.10843710816885739,0.15682828263376897,0.14768370420954866,-0.1465184144422213,-0.8814259161573149,0.012778722889069513,1.28125
0.42092439536185794,-1.068169240724714,0.010474312325271028,0.4679538581379107,0.09938848472328721,0.3225488644297389,-0.6027850020413348,-0.918394127319256,-0.06334056980253319,-0.32895558326754415,-0.47047220744887447,0.2806626802759003,1.8576920384070006,-0.007859378014103772,1.2890625
0.5454243871297108,-1.7987874529235608,1.644212998154516,-0.42158508877044437,0.169444038656132,0.6043459685817217,-1.3651100877383096,-1.1775376473145813,-0.31567801695543946,-0.4470906581523317,-0.5031483524410343,0.4119521496575032,2.680831822891168,-0.0284529996251589,1.296875
-0.08201501812079683,-0.27969831503816905,1.9288195892742894,-1.287803910406523,0.019039364741068102,0.17932741618768086,-0.6345693269692166,0.1466759141435195,-0.9256888221015596,0.15560513484179428,0.44461283720569883,-0.02753942325025719,0.3964967594413999,-0.03306265766549458,1.3046875
-0.6345781930050955,1.5225458356476116,0.3412880455736005,-0.9090630390937368,-0.15155656312227403,-0.42281344968188883,0.7164900932019743,1.3368400603799306,-0.6521591268326208,0.613771328763241,0.9716872784156962,-0.44438197898805015,-2.2802252526776914,-0.006102443188603263,1.3125
-0.36732431490902595,1.1509721988323156,-0.8819200847348363,0.12785699994347413,-0.10292122357447421,-0.3959621400397473,0.8783322240582014,0.8244240159107674,0.6341141485281638,0.21868616632085755,0.1984511191559675,-0.2508386122477939,-2.0569569429240335,0.024653784570277587,1.3203125
0.2725973152144081,-0.7091824000900467,0.051124625359899104,0.2391353184791258,0.08158828574470191,0.17523016230818073,-0.2995618688589519,-0.5131148718671282,1.1370926941232102,-0.4212606477405367,-0.7074181648101943,0.2359801664198836,0.44226351546389786,0.01663535167135698,1.328125
0.3938286271780422,-1.411612701314453,1.6266234186661113,-0.5936981616839809,0.1390021889434794,0.47182809368593626,-1.103470120632762,-0.8172751455267441,0.14378276989974365,-0.4041497817065527,-0.48322504650061,0.3296334935035172,1.7281664902199296,-0.017401708153213995,1.3359375
-0.034112219528130726,-0.2094141393174291,1.1832512226922984,-0.7611539158256379,0.010828252763629304,0.13217170827264635,-0.4408070737493517,0.03230670042393779,-0.8902218634047593,0.13960107653330447,0.3645160829549482,-0.02074897285983116,0.5233130232029295,-0.026747805155602853,1.34375
-0.30702402402687207,1.0302766218598072,-0.9698685022060655,0.30167290041030903,-0.11341608397518342,-0.3067773541246487,0.676712974374953,0.5796586023970143,-1.0013195743176402,0.46048235216042566,0.6864245642997006,-0.2867538885105352,-0.74281185183591,-0.006321106667067211,1.3515625
-0.05951915960175912,0.6561307268441099,-1.9695530034172077,1.2056407201129908,-0.07750244798415609,-0.23669112030133044,0.6967382903307152,0.04362443818852243,-0.7394250611729885,0.25181889425917453,0.29022468349826946,-0.14420159782880335,0.07655391785167269,0.00354507836221547,1.359375
0.34885573057656605,-0.6637235467974326,-0.8614665110620734,0.9460843894691313,0.056560525554022995,0.1780314148434778,-0.21537835816131362,-0.7884648816890933,-0.23409378281146961,-0.20907601989092964,-0.34276227929277003,0.193281163677572,1.5902490592321716,-0.0024578767791472653,1.3671875
0.3783409527986091,-0.9953098366691039,0.11994891799857793,0.3223618597764369,0.10563715734927473,0.27055447225278045,-0.4926753406684681,-0.7570984005114076,0.9093004166644935,-0.47076180398377915,-0.7524444131197718,0.29969148625225017,1.0494724864059362,0.01025649905953413,1.375
-0.06694654348527641,0.29024135935807055,-0.5189354211347291,0.20214141325508958,-0.006083799235251253,-0.16450513161579952,0.43063776676791193,0.25552904143343785,1.750271186495177,-0.23429632846982373,-0.5294775485742874,0.014639146062817899,-1.4614484757727535,0.038184507684712383,1.3828125
-0.5497166676450222,1.6908779390933535,-1.199082213799238,0.1157270113156207,-0.15079107124692367,-0.5782582175667944,1.2708824359905218,1.2344628869329266,0.9263241692106419,0.32617880235562435,0.3064892141777912,-0.3718014412104103,-3.05630032345763,0.035625115882927556,1.390625
-0.5542083407649022,1.462260784103816,-0.22197995432182283,-0.4625886524437972,-0.1472616207322573,-0.4237539179082242,0.798749256932501,1.15353316083379,-0.6385731288446705,0.5675508863409223,0.86350349545878,-0.40989748930692166,-1.98570949650174,-0.0022049951452242423,1.3984375
-0.019974474121866526,-0.31555001439788005,1.4493465622307564,-0.9199465697659415,0.023444786805710237,0.1678474367302189,-0.5400588480168316,0.01618075481645084,-0.7438494140381765,0.09154927667555732,0.3017795252425982,0.0051010813742026415,0.5095024515882012,-0.02645788499777294,1.40625
0.570830192927125,-1.9133400712666853,1.8246712611105211,-0.5316296341495698,0.19132824407007717,0.6169644334154502,-1.3905417947453764,-1.1743242106406833,0.48785872009527914,-0.6153981315134721,-0.8050644080097578,0.4715103132650209,2.282475533370476,-0.015238294363647709,1.4140625
0.6447591624905471,-1.796918364484334,0.6299166116694376,0.2996464970801335,0.181425899621738,0.5313971609824749,-1.0523999455124307,-1.3326183313855058,0.8168131155016315,-0.6871408641512103,-1.0236133670705738,0.4929951872684632,2.297174499499487,8.581215557122087e-05,1.421875
0.1342054258278981,-0.16934017106431415,-0.6561127048119088,0.5795373427256424,0.008312935953944767,0.042963368193275495,0.0003892278915179569,-0.3313235928907705,-0.4075450018708413,-0.01133930702613751,-0.027825439776831985,0.048121722454554025,0.7964242230534446,-0.004404375838754746,1.4296875
-0.38674855802773245,1.1849521749249912,-0.7755491522690157,0.10068408016949215,-0.13272948171350868,-0.3330861039942986,0.6861182757289331,0.7286852211342905,-1.3977452924289964,0.5872814538969905,0.918943544752616,-0.35121567705014006,-0.8132437886863295,-0.01429724374382855,1.4375
-0.35191895395038697,0.9340698847855471,-0.15233069176826577,-0.2719507282154599,-0.10010568984762563,-0.2561061006332049,0.4713137091521498,0.7015578417918384,-0.8493304805932517,0.4390490219003208,0.7004730152209844,-0.28068734594979267,-0.9726298084354839,-0.009785544263039129,1.4453125
0.042743208171656846,-0.07717176855831491,-0.13231017124561728,0.12215852259774741,0.011106541250891236,0.0064540524568478365,0.01683536769049882,-0.07167068584917284,0.35175650677356357,-0.09139803030697997,-0.17254136855711324,0.039594714903992585,-0.05186390004788812,0.006847763065719141,1.453125
0.14481577579360297,-0.17626764067451528,-0.7617964910775231,0.6290514302615456,0.021767078380785353,0.0072300425427206955,0.11152730336458301,-0.28783985206224405,0.5852303739912426,-0.19123487893771562,-0.38246041496881056,0.09611552658079757,0.1881765657368707,0.015132952820265055,1.4609375
-0.13081042423798092,0.4746438657111452,-0.5551714901516693,0.21818562683971937,-0.052040280615968756,-0.14711487354414943,0.33916521069776356,0.24572236109481294,-0.4039338549091014,0.19702902581966453,0.28206685446262947,-0.12638680937392416,-0.3410806427592253,-0.001200493055574602,1.46875
-0.24176072380353136,0.3712358579165822,0.9673553745298755,-0.852437229555486,-0.046991754141534614,-0.04225095100995639,-0.09182074321840622,0.4659189340039851,-1.0836984366024351,0.3484558799172925,0.6696160659232178,-0.17681406099734615,-0.2624190676126956,-0.02542173420145029,1.4765625
-0.0039168751432991505,-0.567724196085676,2.264127050892755,-1.4394844265839104,0.05859084978209185,0.2472924608108357,-0.7828650435115477,0.042296903813076395,-0.06372498873695166,-0.07171599271996172,0.0632196226610541,0.07569336265689486,0.19761795244799993,-0.020821103476176158,1.484375
0.16030459603168545,-0.9022233552333382,1.9094455006865094,-1.075853851784438,0.10921714419490536,0.2836007217735893,-0.7543838126892372,-0.2155489690187787,1.4586036967502305,-0.4583334494178665,-0.6562115195569312,0.24178203156659236,-0.11052168024567176,0.008505229417977652,1.4921875
0.04399009501786399,-0.1446959665321698,0.10524705783366392,-0.046097525731516216,0.026181918418678264,0.013820866025865328,-0.012423940330642187,-0.02869613254382946,0.9586266262744094,-0.2082523239485325,-0.37836339444179445,0.07616804144012246,-0.42303428847804225,0.016248395345157707,1.5
-0.06862240268366462,0.6529754414353186,-1.8569165351209,1.1333655027093013,-0.0810419847504254,-0.22141648390728574,0.6424741382821254,0.043573556161613125,-1.0525001206529017,0.31048477449884726,0.4104672975743029,-0.16042179835829498,0.2501941401656978,-0.0032430584780481757,1.5078125
-0.012019610736620202,0.6311257440095258,-2.3308128990150587,1.4999038732852903,-0.08125608086082473,-0.22819877106922662,0.7201149209061778,-0.09223264571514234,-1.12232119456562,0.2951639049027455,0.3607498777681774,-0.14248673423561312,0.5040909592934679,-0.0013538669095412928,1.515625
0.07121883257130716,0.0014637943398504683,-0.745850692852498,0.5136975975523249,0.015110625731337344,-0.07159144946810433,0.27854079083390726,-0.07575305331967873,1.3481200126401727,-0.2660454643734315,-0.5569198813034575,0.08137143014868045,-0.6218659600934658,0.030469985855501817,1.5234375
0.10601805218487118,-0.4869811776117513,0.7941406642491371,-0.4623094153088638,0.08214979970788994,0.08247386681705424,-0.1879124763647443,-0.03765967368069411,2.6142621188099326,-0.5748749515024301,-1.0063074157337362,0.2169793121406218,-1.1780660838564245,0.04066884277799565,1.53125
0.11670586835662657,-0.2726318172341904,-0.11132574714038787,0.1770279202733328,0.0360347139616365,0.04885675716436447,-0.05017128560678852,-0.1980810789306507,0.8439215642868646,-0.23823521049693522,-0.4271661521911223,0.11221055665629955,-0.050616713429085906,0.014837706687441454,1.5390625
0.06990010759492907,0.3154046991668435,-1.9089721541518845,1.3208535984782501,-0.04912312201827144,-0.1228311561494442,0.46727887225463066,-0.2562144127064143,-1.0287133844130265,0.19637693357913252,0.2396890758503814,-0.06793708072676617,0.8283171815130123,-0.004427584110078497,1.546875
0.0171099802643628,0.24897838481397708,-1.1259094711311546,0.762296466298214,-0.039636394733852214,-0.07954804833464432,0.27821030337495933,-0.12281993882780154,-0.9516326851092444,0.19562590907179753,0.2875320735428938,-0.07187488814546054,0.6095776683255767,-0.008880033096868249,1.5546875
0.06727320218360863,-0.5851418649971643,1.6450207140163393,-0.9432222017229399,0.048355600865543476,0.2581913703870718,-0.7379055669942233,-0.17521725425508142,-0.8280673932202124,0.028683843830151164,0.2314534344561098,0.0670514558486673,0.9538828936004548,-0.031005880890127836,1.5625
0.07991021571265775,-0.8595317555403181,2.6159653511501997,-1.519385593556744,0.0655218580282257,0.4023088407705703,-1.1690660227846175,-0.24523182393605314,-1.6927540606586073,0.1338394448492201,0.5287789237370818,0.07168529255425003,1.6430788187703973,-0.05583401095050854,1.5703125
-0.15344448975287267,0.1310650272445605,1.0420632079416867,-0.7888549864763593,-0.029633718433647052,0.04654215445273238,-0.27977095054053935,0.2470809079391399,-1.498975431906936,0.3475356190676856,0.709953830998953,-0.1332819951398177,0.39384442671291436,-0.03523706418408771,1.578125
-0.4363258515840898,1.2029922358401401,-0.39411326384649764,-0.24533147716598422,-0.11249749070638977,-0.3799110937746932,0.7657742117148384,0.951065344623938,0.1778010569775577,0.33531685552491586,0.4432013621548785,-0.3001244797815954,-2.0216496931231056,0.012926819166830295,1.5859375
-0.40177141714091763,1.1424711269575736,-0.5141077485960154,-0.14781640167270088,-0.09921075832198926,-0.3864553134844573,0.8131270263390676,0.9153246308115222,0.7795037871671712,0.2063467187946214,0.19479064062488463,-0.25419745754292755,-2.2728485582209306,0.024809860718657508,1.59375
-0.08369492132607702,0.3032584513716008,-0.3561683960353404,0.13942366286442093,-0.03288178040938256,-0.09557514746707826,0.2209851442934585,0.15958471608482075,-0.21677395009467593,0.11902554984322818,0.16658854081746566,-0.07910555532369452,-0.24418745959564755,-8.273414831039883e-05,1.6015625
0.21862576314131837,-0.5100934697839726,-0.164598162738576,0.35898111791801607,0.043516437901774174,0.15661874378739105,-0.2762522086545188,-0.4969834920218245,-0.27589738925333207,-0.12173260787996072,-0.16390532494822,0.12861855642131628,1.1105876535324357,-0.007346596679109585,1.609375
0.38647368010485833,-1.1159628120572411,0.5131886057154695,0.0739130473069154,0.12153448458219146,0.3114157701611463,-0.6167815854840576,-0.7504566511387583,1.1637917888608944,-0.5358190061015757,-0.8426803989309241,0.33051739713714234,0.9494884370208597,0.011523054333069131,1.6171875
0.40521925833054884,-1.2907686384035975,0.998581247202093,-0.23227222579211818,0.14781001465018842,0.3580512581454757,-0.7530540985663684,-0.7388052455379961,1.803178266203735,-0.6814867864717095,-1.0756794405349395,0.38924604259247625,0.6517342489005685,0.019152491995058894,1.625
0.19592896405171034,-0.6083563044047378,0.41555068580680143,-0.07579601777631916,0.0723822420720854,0.15882901823745468,-0.3219390207770531,-0.3442464301875515,1.084763374383623,-0.364226584388087,-0.5939189607615447,0.19521893278730887,0.1734939053949479,0.013692785794326366,1.6328125
-0.1471011433983654,0.5488052606947944,-0.7130089634794647,0.26430017574245396,-0.04392761528758842,-0.21476472173497127,0.5224372680377924,0.35896182936842447,0.7731958340510646,0.009693987960715942,-0.10413105324971698,-0.09015236761821802,-1.1861641849745617,0.02258204495262602,1.640625
-0.30242198136101395,1.0806696276581937,-1.261593025165115,0.43417602715456677,-0.0939176705511326,-0.39674456758519244,0.9419256817460563,0.6951058486737329,0.8994705972174406,0.1333027875239153,0.025288725224943152,-0.20873290609691716,-1.9785342561926178,0.03198276710144117,1.6484375
-0.1380837559200739,0.5760837411492576,-0.8869891544755724,0.4139117348709741,-0.05966476828667039,-0.19594307717313614,0.48357830300062815,0.2705843542353432,-0.18522672946937763,0.1773368061656375,0.21063662764387192,-0.13336819055684612,-0.538528032306673,0.005857693278119855,1.65625
0.09411084682178886,-0.2041937983076027,-0.08954293003651008,0.2200501212957787,-0.006447879711602308,0.12285582566375529,-0.2724744365927848,-0.33653521924587165,-1.891375727816758,0.2598831205042046,0.5363938058293711,-0.02500169449548415,1.6292801115621125,-0.03663353534605997,1.6640625
0.0920812046584836,-0.309984945600942,0.3460721949997835,-0.05752985604548167,0.004061147870615806,0.17084886720905457,-0.42503262140127235,-0.328189350094097,-1.9440032053644656,0.2540494357105369,0.5637743956465763,-0.013031971731280992,1.6875723131437248,-0.041325973244503274,1.671875
-0.1290044826087223,0.31680593392083356,0.04723554525977673,-0.15848090515851793,-0.03749319724770334,-0.07447543197063662,0.11424941917205544,0.24162490642442783,-0.5565153504407219,0.19950740499565311,0.34222332112591153,-0.11026802258155695,-0.18796006993489955,-0.009283670061926824,1.6796875
-0.2522039214111703,0.7592965650989453,-0.47751202172790147,0.022104127654440857,-0.07444890746898723,-0.24071571970473318,0.5114641902472836,0.5321720148800221,-0.08536038793437904,0.2359297463124191,0.3165033170285182,-0.19090639438416782,-1.064025876384305,0.005939610055589202,1.6875
-0.055733061135030106,0.2748296279890675,-0.5084903223416006,0.286351968616201,-0.039118977266847335,-0.07019445598858498,0.17637793286794282,0.052316619115052525,-0.8565709439693062,0.21434070190039747,0.35033317237537626,-0.09441787802521971,0.280406509273124,-0.011271689560254625,1.6953125
0.23547563000794572,-0.5536328797821707,-0.14722973161002834,0.38591981552117693,0.0393511736892974,0.19159811376661093,-0.36214730428220177,-0.5763029581902928,-0.9007158863473314,-0.026330898540908157,0.030588408732790225,0.11256193256321526,1.5903340418824508,-0.01953251307865326,1.703125
0.2263173673589143,-0.5774639692848059,0.008841727826877654,0.23848363815841925,0.0587028768203461,0.1608668513261795,-0.2898043452538872,-0.46719350223243433,0.35776986731010546,-0.24584550300476163,-0.3871213477751137,0.16844612985534213,0.7455840743337405,0.0030103683164631116,1.7109375
-0.02431156002144283,0.060411394899201144,-0.02591632436957679,-0.04896648892563242,0.010729906645000623,-0.06298460443445031,0.1579946685179044,0.1393594895076821,1.2790081480829834,-0.20411997342289392,-0.4098574531576059,0.03981052834714151,-0.9344986702762238,0.02441711129821589,1.71875
-0.09470977431111392,0.13473268260727314,0.3894019733229573,-0.38097093195545323,0.00026723204911698436,-0.05951410165342342,0.08224663167179805,0.27523545350916934,0.9293010798421859,-0.10168874797688615,-0.2010761809828215,-0.008325088686563524,-0.9794218521943644,0.015314539909607218,1.7265625
0.0701572314440113,-0.5428935414584252,1.4236817371584256,-0.833724311917652,0.05892907502430608,0.1987754037466331,-0.5618811437035183,-0.10651005893763636,0.32013963579590404,-0.16690124624289715,-0.1687185602557984,0.11254488081573104,0.2040220924885747,-0.007483875861979026,1.734375
0.11991728603965136,-0.8695723464570089,2.2067011818098927,-1.2796227021133233,0.09393825885754421,0.3174837252852329,-0.8886744125368802,-0.190398726799957,0.4733296965340927,-0.26345770494982285,-0.266582183215522,0.18109522714656118,0.37805976153216403,-0.012044631300534825,1.7421875
-0.010729583979261118,-0.408586918357195,1.6848495896655538,-1.1101059234555317,0.055483249711961315,0.14545887806318808,-0.4810697471388384,0.11737764190086732,0.9575594727964429,-0.223233743055877,-0.28782279712748593,0.09609512914477907,-0.5381747014069843,0.003494761343755156,1.75
-0.06161034223162292,0.15082485184221583,1.9493076456809033e-06,-0.0942918469809384,-0.0036192736371985323,-0.07375145232956618,0.16093603864798828,0.1898847825108735,0.8306112302943426,-0.09620845002850258,-0.21226802113166648,-0.004487133422131631,-0.801952718023256,0.016281622650217552,1.7578125
-0.04898483998548958,0.4952900198322905,-1.4589800314219437,0.8677507141903721,-0.04978630952250854,-0.2005076978914094,0.5817143198949343,0.0872540969747742,0.10496072238002434,0.07618265627868077,-0.002482667412298839,-0.08103762468270555,-0.3864446654388102,0.014897302735100546,1.765625
-0.1847911756980684,0.9114316274147796,-1.7316178756591103,0.9044036382644368,-0.09674931807899032,-0.31621382407951093,0.8196885194526128,0.34089905722304653,-0.42224475132594974,0.28869235861734044,0.3325093681946399,-0.20586838660422968,-0.6494283667094961,0.009308470955063368,1.7734375
-0.30211950336666177,1.1085930001245687,-1.3399381614108705,0.527011967763278,-0.11535554444606663,-0.3595634259352614,0.8421282667066818,0.596579317373236,-0.5062961960359698,0.383214142220332,0.5050901211563671,-0.27444861098653,-1.0706058270356957,0.006122446219613009,1.78125
-0.08833067976435252,0.4921547925549321,-1.0405195074742455,0.5835669812404936,-0.05922528778362293,-0.15788126938208147,0.41888137308573714,0.12370614534124073,-0.7150661486540729,0.23589505946677175,0.3313953992442498,-0.12910500510749218,0.008065437622796687,-0.003557037576791483,1.7890625
0.2650601050349686,-0.5413125976799064,-0.4865185643140414,0.6388984995535045,0.03515611744464071,0.18199914799624045,-0.30107417240369877,-0.6570460307841902,-1.0581997138918429,-0.009885522530121675,0.04448888868330468,0.1132510898398011,1.7945004007685357,-0.02004134679902255,1.796875
0.31922160908478414,-0.9729330583895186,0.659959858557468,-0.04094337740608636,0.08466997140840728,0.334995285242119,-0.7352044631657166,-0.7257448949426976,-0.6348411927205346,-0.17118179910414374,-0.1451499784768365,0.20986850328970513,1.8393167058900615,-0.022681032493669213,1.8046875
0.10834864072181924,-0.5807615653879749,1.1909058649433168,-0.6460325245804996,0.06301722805058996,0.1994070228146203,-0.527714220723041,-0.1874512981479167,0.4068817942131406,-0.20417497790620714,-0.2466134764364173,0.1337525336459618,0.29459780866306684,-0.004423304557591592,1.8125
0.0071037420275120965,0.013611840609820637,-0.13375367122397727,0.08361619760397447,0.002152315813630021,-0.01970981163134249,0.06443817530311939,0.0034500492520352175,0.31960382923943115,-0.057128730622443294,-0.11996708789541853,0.014091523653796147,-0.18478800916859622,0.0067819264468318525,1.8203125
0.05038995288733123,0.3819800461119278,-1.9717136913351723,1.3455965632680018,-0.058426097849174505,-0.13735636280739394,0.496862385359214,-0.22982050968811452,-1.2469912273991375,0.2528556497093718,0.3360457659290797,-0.0931165573874772,0.8805851743111568,-0.0077034247285281045,1.828125
-0.04596132892353356,0.5488487316794947,-1.6559648105381544,1.0548370914151075,-0.08105703167906485,-0.15663445240981552,0.4703812795980888,-0.05592142035611411,-1.8363210530443397,0.42232773033938076,0.65587659368308,-0.1730395483035105,0.8725154874071775,-0.020100270237988556,1.8359375
-0.2613441983457334,0.45465685800673494,0.8070705718035978,-0.8062190429295453,-0.040403041192247996,-0.11123847248768642,0.09308858215846308,0.5831532043664536,0.04604011481119938,0.17202198819662542,0.3031295863337344,-0.14500010425182455,-1.0918194578330702,-0.0024387599124880083,1.84375
-0.22322760580773857,-0.09058135377945846,2.5192941189962226,-1.912018435898318,0.043024992095987556,0.03822469638353032,-0.3657418197511075,0.6717836498088466,2.1085957618472437,-0.28606121671496326,-0.42025747728610313,0.03470771075584833,-2.1383289167531663,0.021270016512550925,1.8515625
0.12953459824066063,-0.8629073662678958,2.054496131046739,-1.2142859321381259,0.11119139557420729,0.2628921672165326,-0.7247952390830762,-0.11869310087658567,1.8584556568188517,-0.5088712456789929,-0.7547304320679347,0.24413959524135873,-0.4915111411040537,0.015248462046810417,1.859375
0.33928082295737483,-1.1681965602013333,1.2034674709338826,-0.39811390580207745,0.11943339121517554,0.37330057475777073,-0.850348271292353,-0.6827836455791154,0.48589232681810596,-0.404348456979509,-0.5434583753694209,0.2931155989603598,1.2396935656240642,-0.0065253507747174535,1.8671875
0.12512201089748165,-0.6379980154518354,1.2532903627244287,-0.6638690010067058,0.06700790112212197,0.22277538996675786,-0.5835583018052741,-0.23086131246268823,0.2897059501160081,-0.19906219972173547,-0.2248532357012051,0.1420054941277866,0.4487107043142655,-0.00745498761834214,1.875
-0.17232489914043297,0.2478422555033979,0.7163318075551465,-0.6725222351783958,-0.010826627368658056,-0.07917464432076958,0.06981895925655117,0.4423491482543913,0.8305982655220866,-0.03428459376062349,-0.07128562127897892,-0.05319027487160226,-1.2248367949978778,0.011819907268185006,1.8828125
-0.17854316095016168,0.7899909350243911,-1.3426636966993273,0.6355983584946963,-0.07130293129052681,-0.30057963702598706,0.7647822392984904,0.40139142448307064,0.5551082675122182,0.0967499414405386,-0.0034770000735733016,-0.1437625484825442,-1.2286760715265401,0.02436006906703834,1.890625
-0.04353998699542598,0.8148468184021447,-2.7607377494612146,1.710303298658238,-0.0878928920192239,-0.32830298879538444,0.9939433095588083,0.030442454775123383,-0.22406605351807318,0.17853369703867825,0.08249325726502964,-0.13885322574839387,-0.24798076680144082,0.019772519040061616,1.8984375
-0.04052822499912551,0.5251549806302529,-1.6443731149003398,1.0173958236581038,-0.0627514857220033,-0.19071351369088274,0.5682540597503157,0.01573533169330258,-0.6232239455887023,0.20427005415878205,0.2340945376728876,-0.11458810774665971,0.10884626979167657,0.0026250635445833003,1.90625
-0.10320169108396558,0.22047175931438706,0.18290216179113086,-0.19800969581693872,-0.03521510669796256,-0.022580624598076793,-0.017133930806212585,0.15072026955066567,-1.0977662041479226,0.26916838712315655,0.49981057077316426,-0.11234358688405399,0.2847983572315521,-0.02103905270478385,1.9140625
-0.08926536646703458,0.23154135438141982,0.0181786636704239,-0.05540829757236017,-0.04666742339363897,-0.005615005532042869,-0.047931992455771275,0.06590826479491878,-1.851036205293577,0.39648512301576533,0.7389485149982453,-0.1426860485707941,0.8213860897795342,-0.03405438022631599,1.921875
-0.018175123408409193,0.38906363416761414,-1.3080249321478794,0.8604858206896143,-0.06299086199468046,-0.10250321725913557,0.32476815850071517,-0.09981383127439367,-1.6836636888259393,0.3599379150686239,0.5769848508228806,-0.13504585779264072,0.9191566604371559,-0.02061266095662098,1.9296875
0.11530479790558898,-0.036077132144886316,-0.9999256554851285,0.7687366362138303,-0.0018702480726804293,-0.017185365266203532,0.16830706549628172,-0.2790337764287791,-0.1547881681747649,-0.02798635190246961,-0.09792496130340102,0.03443863328938897,0.5246370348135422,0.0036108208324118853,1.9375
0.2703341830721203,-0.9232740258834792,0.9078460203612262,-0.309755774030682,0.10553041482161299,0.2640136287452515,-0.5824492516174059,-0.4861306370468134,1.2441168768291404,-0.4711261313650758,-0.7276399666770527,0.2701505879834616,0.4273628907587677,0.01138015554424727,1.9453125
0.20874155506760586,-0.9780049778436272,1.732161998606638,-0.9025915103200224,0.11326329352402091,0.30697874834871675,-0.7785411036695375,-0.3367657848431857,1.2643984182824706,-0.4563522039418529,-0.6491597862704549,0.25927697679871553,0.21079470407724873,0.005631491448564361,1.953125
-0.07388963559697075,-0.02341583139232272,0.8136372209763307,-0.6107241170093067,0.009192251414063001,0.020426006472178748,-0.14241696984450594,0.20029429292276452,0.38895088010184714,-0.03978454358654915,-0.03344177229372106,-0.003231366435643015,-0.5068482625879658,0.001179032847748841,1.9609375
-0.15396653262331642,0.30516422942687554,0.3394570395870515,-0.3744453095347447,-0.03409944862525319,-0.06523213630979574,0.05921280458269315,0.30861275350635886,-0.44266192580166935,0.1889849614702486,0.3373807505817972,-0.11147646454101486,-0.34715895876527586,-0.009266692191918805,1.96875
0.10072000646047155,-0.48800594914070117,0.9296053589047295,-0.45302179828841194,0.038060132431655486,0.20289588797784505,-0.5315854455334683,-0.25547866125452523,-0.7600394585899116,0.016966414105748933,0.15753942781514832,0.06693971996461053,0.9999812539386701,-0.024095040763431816,1.9765625
0.22313566254110315,-0.6649555963419591,0.3934385774130506,0.005663075066801278,0.06163013984798328,0.21631044601181149,-0.46153083341906587,-0.486663906390966,-0.12481634937469571,-0.17322160466264558,-0.21207041449482777,0.158558228401836,1.0739833723830308,-0.009333371510590431,1.984375
-0.02848234769781605,0.47304011630254006,-1.605651556547924,0.9475359631683969,-0.03194301093338539,-0.24076891672791415,0.7137930085386309,0.12433989927410467,1.3278222794126178,-0.1498509477913918,-0.4476808971524023,-0.01755321397175695,-1.1034226758983328,0.038937187656354656,1.9921875
-0.26188728957908086,1.1391096189535275,-1.9180347193642948,0.8598051033948739,-0.08542353071634765,-0.47678499708643246,1.218989077909445,0.6777157103190968,2.0926446090551774,-0.08402090669248509,-0.44159094696090884,-0.15166173860647802,-2.628540764622675,0.059508998525573675,2.0
-0.1812367957431751,0.29650175212390517,0.614411837302224,-0.6210893579066784,-0.014805172042418909,-0.09906401257531663,0.12268711281855234,0.46406146332961895,0.8928293837004037,-0.034049569197588954,-0.08380949217742233,-0.060192980648608535,-1.3112421370780247,0.013978387688401157,2.0078125
-0.017418523097367127,-0.572083906397917,2.4416761799982405,-1.534579570861808,0.045033015607076385,0.29192420162374316,-0.9234554279292041,-0.0004127122999907979,-1.1553295046069374,0.12446432146897828,0.4558372618654618,0.023958013359218645,0.8619757035880559,-0.042753743398077186,2.015625
-0.05355959915068542,-0.13405088041006483,1.0946916020199766,-0.7019681020594267,-0.007721591446535274,0.1357130676869034,-0.4595590924392746,0.014885381818048275,-1.7360372484781208,0.3065962447247996,0.6752191171247884,-0.07474213425130188,0.982043812280803,-0.04163558280076293,2.0234375
-0.2375094627547076,0.8171713417163277,-0.8383604873590583,0.28195001646210127,-0.08674171436474486,-0.25496230788429813,0.576209021535182,0.4637818905984052,-0.5251736155574502,0.3154525760196744,0.4442270023069975,-0.21373897281829576,-0.7421742503061326,0.0005083849452647346,2.03125
-0.27398927866511574,0.8688696004570686,-0.7017370967767205,0.12278470124786621,-0.07760004480321801,-0.3010532693712802,0.67305351458847,0.6159860086594421,0.5035386568177939,0.15904114501421543,0.13666222347211074,-0.1873195768839932,-1.5572074268638052,0.01929346125328965,2.0390625
0.05755777455241425,-0.1382606574941779,-0.030184238426130293,0.08365860888663011,0.01260143226641155,0.04008480510875764,-0.07055415235336854,-0.12576570581295413,0.006732261398298458,-0.04651115719096163,-0.070128261697644,0.03768566388908467,0.2438249073663092,-0.0007752756852547446,2.046875
0.49552963074035766,-1.0806345924400298,-0.6581839320095334,1.0049912345270073,0.08619530704046116,0.33631373225648936,-0.5618254941598597,-1.1564031073997192,-1.0076210098289637,-0.1978385106597011,-0.24517059966859608,0.2644783825147574,2.741446884986425,-0.021066144364914385,2.0546875
0.4722180010375727,-0.8624457001388379,-1.2869560860197948,1.3733185295575647,0.06602328755672394,0.24446530595142302,-0.29722724314812854,-1.1055797649566583,-0.8456978682140139,-0.18372047273338493,-0.2835471252015446,0.2334723485732141,2.4883878162815347,-0.012272994903322154,2.0625
0.03797248341414027,0.09879916387828953,-0.7783680341814312,0.5216691829616005,-0.005015965348071853,-0.07352347769587098,0.26188679625413036,-0.06087275692908142,0.5213075795237744,-0.09290811817785692,-0.23555901869945378,0.02072474573963788,-0.231320969792908,0.015647360832841933,2.0703125
-0.08813767624560666,0.29681814087555897,-0.3263150162514239,0.0625919545571609,-0.009022156273080492,-0.15255789422194588,0.37471332152300185,0.29009393042053155,1.5340887043174125,-0.18629968177663644,-0.4276313208896366,-0.002516446322057709,-1.3980210998695755,0.03277104560502999,2.078125
0.1840029241648186,-0.38280373032422155,-0.3504630455820761,0.39862761824297166,0.04833082389761458,0.0673368634846295,-0.04500950479894053,-0.3348899814918464,1.0360509148966326,-0.31746773250732463,-0.5758525424071763,0.1574766985068372,0.09561331426721915,0.01952459597807009,2.0859375
0.0855779037708937,-0.3041304629933671,0.3527242484015988,-0.11286365504136775,0.023000851691412676,0.11870760453382,-0.28497883860831696,-0.21267159865735036,-0.46959462271883684,-0.00012885608409646804,0.06635768756410579,0.04896984417753388,0.7022492489063291,-0.01344294284847949,2.09375
-0.4913936083274603,0.8886780180378678,1.4258187175086658,-1.410578440016275,-0.10015970767467858,-0.16721295111478912,0.06253619783590962,0.9856335134240655,-1.5157598351792967,0.6086413781755121,1.117139918286156,-0.34777362323866456,-1.0223686401429153,-0.03378337262354369,2.1015625
-0.6582377241160264,1.3628281318178999,1.2158143026070862,-1.4732728873882062,-0.14177090265147818,-0.32571574488772187,0.3948022543022314,1.3629504046806253,-1.2392415676804391,0.7027821077016431,1.214418970207736,-0.45520706622686496,-1.9357132279344662,-0.02429800531297925,2.109375
-0.12150427833925978,0.26440154452798253,0.16783394055727574,-0.24175005505278177,-0.02544307631552348,-0.07240425746886014,0.10874755789515032,0.2627478842817384,-0.04127979036348391,0.09897119373843966,0.1593047134796389,-0.07779657011320948,-0.480359107368851,-0.0007272532399816799,2.1171875
0.3611871826165715,-0.9093683465192969,-0.04682741542957149,0.4027186808884743,0.09926359184578834,0.23388375166107062,-0.39615422740239187,-0.7114147845157689,1.0760635296392547,-0.47893348819136317,-0.7917737561493897,0.28955349087956184,0.8567343172067289,0.01501330744354194,2.125
0.3438491019862831,-0.9687986692623921,0.3505395229205818,0.12194363720074976,0.110006186943713,0.2543719991858545,-0.4813688662513123,-0.6460170814386633,1.3811063811835729,-0.5339005524760124,-0.8698252615172666,0.3058373534174227,0.613333639095669,0.01764524230068724,2.1328125
0.13769838461092063,-0.4753718579046546,0.4775241914578854,-0.16994610165633448,0.05516445714605439,0.13337091852306684,-0.29447496985856386,-0.24203367283571728,0.7193181343313159,-0.25602190416910986,-0.39990975810371937,0.14190603260668266,0.1643278217751243,0.0071456629809168145,2.140625
-0.04997639551741881,-0.06015347224159692,0.7385818048993938,-0.5140350549356852,0.002692887643580233,0.054356198922778855,-0.21685984272731904,0.09608548126856832,-0.3509952384812011,0.07394735557551786,0.19075835869835597,-0.023112419849252663,0.07072027615228385,-0.01250299492086081,2.1484375
-0.21047064894608472,0.32760105415137597,0.8191915425874754,-0.7365309986295517,-0.037544073737111744,-0.048747853562796456,-0.04587864748595802,0.42499789593149906,-0.6514495117772547,0.2533207262737407,0.4828442933661779,-0.14176322366134128,-0.4191660218956504,-0.01647845419940688,2.15625
-0.12186808104800036,0.47350279299191866,-0.6565671478344062,0.26903905246912624,-0.04207032832281568,-0.17613421151557754,0.4303111982882237,0.2770143015609449,0.3615500389040776,0.059545525999024435,0.008112313880328438,-0.08969269216751552,-0.8064993411523343,0.013960577164506544,2.1640625
0.18278459927442178,0.19628089623288272,-2.6167696984832722,1.8267942380780688,-0.008874836735316966,-0.19094294715515775,0.7645497092496257,-0.35189030529725174,1.3173718903954537,-0.28005517275316355,-0.7076078877841568,0.08786591889672497,-0.26280131938126045,0.04424971198022844,2.171875
0.18640917126765336,0.11192673973264071,-2.3007724143666963,1.6581931826797405,-0.01209782437610853,-0.12395068306848872,0.5682077364993299,-0.4169723335816928,0.4049584262887319,-0.13449266357723555,-0.3941740114849964,0.060751989524050296,0.36898080909864167,0.02427156417846941,2.1796875
-0.15911638859895394,0.5027763990651798,-0.3539557256386157,0.09836234392193086,-0.07137396721359593,-0.10396138591823177,0.19177156705775275,0.22071371026915337,-1.7104870026603178,0.44228583253684167,0.7662150565821797,-0.19679208101194373,0.40102919747559745,-0.027171211179521388,2.1875
-0.1956277496261066,0.4446934137699541,0.2528446240074858,-0.30655567333660066,-0.07356338357279442,-0.04221739797727858,-0.03020100973456941,0.2616520611496627,-2.418199760212902,0.5729781045242265,1.0611953556503095,-0.2313288639069522,0.749091378502666,-0.045178036024892954,2.1953125
0.18594717749362302,-0.4448180268810684,-0.08026751385728247,0.2900933042288426,0.02825917101045735,0.16386384900428186,-0.32276162926163765,-0.47305068792360433,-0.9792884706710677,0.0249064242569538,0.11677597746576822,0.0781169227918289,1.4334242067615908,-0.02086058635885046,2.203125
0.24087132516809223,-0.8477905390304198,0.9188179062519951,-0.32812838084115514,0.08914092793153305,0.2655641453274705,-0.6078772817673342,-0.47037267656009457,0.5434131881314473,-0.3247079116920128,-0.4525932204364815,0.21932880406379382,0.7567669962019956,-0.0014999248999120343,2.2109375
-0.20129557869319153,0.0033804684448495758,1.9644553335241213,-1.494416982758596,0.014462827429275595,0.03874304566999334,-0.32928494697077265,0.5200221781141121,0.7341036184731977,-0.041245502560928585,0.016130961676664324,-0.032164646346863356,-1.192950808434454,-0.0002585432961206658,2.21875
-0.3486320886903643,0.6749407335632737,0.7978073510031275,-0.9133006725308497,-0.054977109778227895,-0.19355266844414198,0.2610173107945025,0.8044704421824639,0.5129963429533069,0.16039179632554879,0.24485304741279182,-0.18318938382239483,-1.772319393883653,0.007760981359378454,2.2265625
0.044021647516508236,0.024289553432372355,-0.5511306085772033,0.3786209020105142,0.004698776607378043,-0.049014666140440075,0.18902958435148845,-0.059035788317222705,0.6798309450617634,-0.13447115063694223,-0.29357915708133553,0.040115767597747924,-0.29101508434192125,0.01660032447367362,2.234375
0.20387983592532674,-0.6505995106714422,0.5126350327432541,-0.11425267567826923,0.07011923913712104,0.19148804398298347,-0.4110306999960881,-0.3933946716280223,0.594438728626517,-0.28825865570770787,-0.43369631674472725,0.18209954741647336,0.5337081452018285,0.0034795505156960623,2.2421875
-0.11548136617716255,-0.14969108301084338,1.7304294677958063,-1.231455457617153,0.020136199602677488,0.09805077854691342,-0.42455395401999463,0.2877761010820768,0.12100250543499307,0.00664093375445195,0.12200035779100527,-0.010379802285322232,-0.44241041515633517,-0.011130767379485382,2.25
-0.11107411887618032,0.2221315497710552,0.22679298199029566,-0.27460200844643695,-0.017982344308020565,-0.0661249665094774,0.09605271994934743,0.25797005254692046,0.20434292384890668,0.04520786322320718,0.06358623543341124,-0.057744865695059606,-0.5913745434376537,0.003261851759470966,2.2578125
0.4396851961758252,-0.6191641547695467,-1.9541647315588737,1.7110906496886082,0.06269801521498237,0.09392738213516692,0.12550359418451432,-0.9350121536803957,0.777884247971152,-0.4174397459969912,-0.8128327610241508,0.26033360684337703,1.2435455433071327,0.024564459580567508,2.265625
0.5750752556420005,-1.015029344799617,-1.7424119851831155,1.733900445693532,0.09826169690502777,0.22549166543896795,-0.1540341186732344,-1.2369983848877537,0.6042597192543012,-0.5042487349582752,-0.9081236648047875,0.35132716835851746,1.955644559855994,0.017455461591643164,2.2734375
-0.08778456196148385,0.2897820622112291,-0.25927104142204216,0.07686466352632423,-0.03332014163453788,-0.08303252338659531,0.1791060615477756,0.15973851475418915,-0.3680179708334024,0.14496164861134792,0.22477319107384663,-0.08513190906147186,-0.15567734009212442,-0.0037224518016067128,2.28125
-0.5440541976621608,1.3664287373842359,0.05716317062116287,-0.6223942068159549,-0.1400698289164177,-0.3790471836014991,0.6696187239286309,1.1225807944970332,-0.8397961795757588,0.583804525952985,0.9253493041530021,-0.40204364684366356,-1.7906070214505418,-0.008535273955582463,2.2890625
-0.1910904053618057,0.5695268278377088,-0.32796629841690306,0.009466719813409677,-0.0618635473457512,-0.1640745685166507,0.3349908088787102,0.3723378187172535,-0.518222856739521,0.25728401433174086,0.39587179583535764,-0.1638867279101544,-0.5085790587097697,-0.004419611533292269,2.296875
0.10668807833106211,-0.30706030479728375,0.15521659821970085,0.03883006871993762,0.021648307939077426,0.11559833514068603,-0.25335369771193084,-0.26722745915193247,-0.5469182798115733,0.003953792142322992,0.0650560251997333,0.05264745864527037,0.8288128419355104,-0.013528794771060296,2.3046875
-0.32751565125641136,0.5198339338212261,1.2408632878690258,-1.1130196000214874,-0.06414398885647368,-0.06774794148155301,-0.09169342462911746,0.6365567962777675,-1.3761418307705764,0.4587378769178724,0.8746562453371898,-0.23776325536709159,-0.4209217765448956,-0.0320032987802792,2.3125
-0.7158060323140003,1.4119360481894576,1.6058027232383825,-1.769119055868106,-0.1523909815758402,-0.30919997469624444,0.29282133308931846,1.457755420514436,-1.7755594234179655,0.8283542891526616,1.4716636481696561,-0.5039239550025082,-1.806290627675004,-0.036883811421998494,2.3203125
-0.22151143991733457,0.4092434655995597,0.6026272134298165,-0.6167983733247001,-0.04336066042779223,-0.08701200094888266,0.06197992217243478,0.45844268591303383,-0.4596843903506303,0.23664310587488058,0.42638041623806505,-0.1482700253884249,-0.6074431275888168,-0.010829870471852316,2.328125
0.6235754448317902,-1.2807740850402716,-1.2131055040066734,1.4129137382439658,0.14231572774462597,0.2771861497371251,-0.2851322430402455,-1.2419189297238677,1.9324799425694954,-0.7966338935698717,-1.4112138241111698,0.46259770841870973,1.341984405249714,0.03727182461648607,2.3359375
0.8399667783567681,-1.5710442365908535,-2.2506081249147556,2.2795981424888785,0.18191504016296883,0.29029444597841586,-0.12813573636404998,-1.650304709097997,3.0811296045257923,-1.1340818964172679,-2.074755909721699,0.6225017715857385,1.449660314188343,0.0646156343145691,2.34375
0.4047603209186698,-0.6755816109272157,-1.4098048865674635,1.2993991795932565,0.08134755262039407,0.09812522406624946,0.06717616831145826,-0.7883995251216765,1.6725750088657791,-0.5674255077614653,-1.0694512743534708,0.29658736947731623,0.5531567477771268,0.03732063803957363,2.3515625
-0.022021368933144422,-0.004424433805365738,0.25115067822160453,-0.1628637347864355,-0.008337462642231251,0.0329909527303134,-0.1178938321740111,0.004103029964904378,-0.6850024161725468,0.1286240458290596,0.264549939799528,-0.03678644283772096,0.37136588743285504,-0.015045640514700972,2.359375
-0.09603918686746828,0.01869497037027108,0.9152569022417495,-0.6432550123785867,-0.019347915688511134,0.07586074438482486,-0.31593892969933074,0.12052205077144824,-1.494153106250796,0.3056131568236977,0.6392328775979333,-0.09907534152156425,0.6283724925839376,-0.03491498519565245,2.3671875
0.025038455165270403,-0.22912994016677754,0.6648200016888209,-0.3750686550756088,0.014617120855288813,0.11246054915053295,-0.32309941666191616,-0.08753481442714167,-0.6378390952638107,0.06670063092108972,0.20012711149203324,0.011827678526069885,0.5748488721128154,-0.018420201651943396,2.375
0.06725219776097514,-0.35712471133440815,0.7281924907793136,-0.39285795153642633,0.03757257972304012,0.12520512508187,-0.3317113018600552,-0.1222733146469176,0.17157347451241184,-0.11224027292003537,-0.12564849579830709,0.07884759478346626,0.2355585487860514,-0.004311358482533095,2.3828125
-0.09406933482472146,-0.03421469222024283,1.0597068598236647,-0.7872708959042278,0.009650936008669718,0.03529731223187274,-0.20790391309228884,0.2416941909350761,0.2917349607997266,-0.015724053441689697,0.02725711957546826,-0.012386145881454402,-0.512246823110653,-0.0024682124544425726,2.390625
-0.35170423563719494,0.655100578275199,0.9116849016536406,-0.9821169163288381,-0.055485739338736864,-0.17704898652593412,0.20835852945537126,0.7994075113643568,0.313008195324181,0.19400403304231303,0.3190559806867991,-0.19010633751311906,-1.646507257795331,0.0030495390549309938,2.3984375
-0.46107813081279375,1.0330642231092124,0.5166945011732051,-0.8507499196480716,-0.0937466298534781,-0.2995362938657992,0.48833868699379424,1.0218140457830427,0.19758762160672527,0.31738332509193123,0.48023187585177657,-0.2830909848502348,-2.0722135169286275,0.00588371122233191,2.40625
-0.29929717466277517,0.6890048350452931,0.2785209245303646,-0.4968108011377177,-0.0715740112822351,-0.1792583364471126,0.2768478106203076,0.616665571602734,-0.5301227213756706,0.32389795209474886,0.5364239477974503,-0.21547194400186193,-0.920849290282463,-0.008234646837721243,2.4140625
-0.02368355743498348,0.1102730708800447,-0.1653218885108333,0.12013348551702417,-0.02966598688130359,0.00911750907881341,-0.035701623469653346,-0.048143865331480386,-1.3918797322212457,0.27008288228643657,0.5019745777205864,-0.08463483466371378,0.7923568011342924,-0.024817302755420143,2.421875
0.09244901067800732,-0.020025804989069255,-0.8078466026435249,0.658241318067679,-0.018930864022463495,0.02598096207586888,0.024926939112142544,-0.3095760351844434,-1.3692532569574205,0.1966884960766701,0.3478759432059405,-0.0285124381282847,1.2293756353971008,-0.02061273914731426,2.4296875
0.013773570429726994,0.2375595823848352,-1.0663964869856415,0.6996934089279324,-0.028724746623989064,-0.09944253351745849,0.32885903124253607,-0.06413565539504851,-0.2177342981239825,0.0671725037767482,0.04118104820523442,-0.03899796832727452,0.12303579796510991,0.004525035985416616,2.4375
0.014811466191931607,0.27331062894805835,-1.2519482670522215,0.7756328025790009,-0.01374099447161657,-0.16525872018459606,0.5199767460963954,0.028495834566687007,1.2088792827675152,-0.1775643103243591,-0.4518028985906971,0.019101228093022463,-0.8131552716171139,0.03303486138019566,2.4453125
0.22942301851282593,-0.10557636644702072,-1.9038914147545578,1.4205147473415816,0.02451985931504839,-0.08470154490733002,0.47302059573637484,-0.4255204562704606,1.5418516072958168,-0.38435931951177393,-0.8275614899661116,0.1550408768246912,-0.15431305782145302,0.04170431784408842,2.453125
0.34935079327548946,-0.4101495891047218,-1.8696817104597654,1.5707217401469882,0.03700490086158534,0.049987366798107696,0.18142187740532906,-0.7698509403037904,0.309676625999022,-0.26566150056244475,-0.5452424620204218,0.18163918493420703,1.164886906060244,0.016366008863184147,2.4609375
0.16001536378047504,-0.39272271239956713,-0.02841646100724217,0.2255334634838236,0.024538820199937736,0.1475129251619654,-0.2973057796507568,-0.410626897190639,-0.9032656131004303,0.03057615174921707,0.12167836599061094,0.06589227811763136,1.2758415720886909,-0.01947858336639452,2.46875
0.04214285808446042,-0.5729285575100712,1.8338219798335746,-1.1102538770431893,0.055927411224727996,0.23979780879011137,-0.7125191030986836,-0.07526106282776983,-0.21330861994545025,-0.06603916767747017,0.05351601646894155,0.08441917934400284,0.46058463729649035,-0.020656420241506667,2.4765625
0.2971306445628228,-1.1156959590586732,1.3929290034437045,-0.5936474552492319,0.12753004865627984,0.3315558086026133,-0.7711874134144909,-0.523122858576687,1.4300233569834293,-0.543792831095098,-0.814896174532278,0.31395777111985973,0.45857468567286125,0.010333017116775109,2.484375
0.41102796629135235,-1.0516155172584598,0.010724369835754607,0.4137595146316886,0.11669193320497592,0.26859368616436574,-0.45985953675430424,-0.7985453941259505,1.3658389307847565,-0.5721832000318917,-0.9486649669461589,0.33809636839963725,0.8866897980119649,0.019267679004883777,2.4921875
-0.12239137325247863,0.14100139940863757,0.667457015173054,-0.5497168597073053,-0.016856243651921607,-0.0074217114765476625,-0.09259742484685848,0.25029542116314124,-0.3759458102521771,0.1392006496271522,0.28277124537348064,-0.07548565954431267,-0.230004199865047,-0.011280771586156074,2.5
-0.715095385584797,1.128919498847878,2.693178529659455,-2.4798672803196973,-0.11356430209166944,-0.21195458836055006,-0.021650505290818398,1.5223430983076252,-1.0852235076173211,0.6653836562708454,1.2522846044207854,-0.4334676697586308,-2.169182678355342,-0.033192952578982755,2.5078125
-0.49494941848495105,0.5497121167458401,2.7561974501148216,-2.3040747407323754,-0.04484921097172838,-0.0724438469432786,-0.2581313572564939,1.1183482249743815,-0.02964666576225463,0.3001687659353404,0.6342944018266903,-0.23567259254278025,-1.9017133522761953,-0.017095419902906195,2.515625
0.19782676469793573,-0.5949468292992038,0.35752040096002635,-0.01873803173676624,0.06305990612116456,0.17326589096436604,-0.35845697430402745,-0.3904215075369823,0.48701972028605534,-0.25859099848686623,-0.3923502811385865,0.16761038574095422,0.5652569254773383,0.002880283155333418,2.5234375
0.29374704006168784,-0.3123727901748773,-1.6741002080030158,1.4148420832663948,0.014682082982583904,0.06284167011607543,0.09847127519119134,-0.7169477918955298,-0.7283872478855885,-0.04556161729357862,-0.12150402181985355,0.10462342841531046,1.6141718413023278,-0.004090546303463349,2.53125
-0.2819929194758429,1.174308101422935,-1.7625042668692223,0.8585055932580709,-0.14076429896517095,-0.34617119054741674,0.8359155679568057,0.4516449628279225,-1.8771423446584903,0.6241245801821892,0.9442080826226441,-0.33764562244048946,-0.12579176155247895,-0.016449387979462625,2.5390625
-0.5412203017031307,1.686880806284914,-1.2136686325510861,0.2010851154633757,-0.1795410942658577,-0.5022591906713665,1.0658782881595537,1.064806558985839,-1.2732784355648366,0.7064419359143553,1.0498104752162238,-0.4653327685556285,-1.5924990410354956,-0.005894514542619454,2.546875
-0.05535358349297426,0.4790354302842134,-1.3367469837597492,0.7790782526858976,-0.04575583169791059,-0.1974720432533674,0.5638223508842976,0.11461613100628115,0.27160005970560785,0.04750814161098671,-0.0498337423048183,-0.07339932020307417,-0.5126362967496124,0.017095880000037252,2.5546875
0.4312810746477673,-0.6937422996971637,-1.588387195414442,1.4614327868220036,0.07453264609073061,0.11809055089879598,0.03765077409683355,-0.8905014060490226,1.0709387471539342,-0.4763878015901404,-0.8973058405541331,0.28101045716177586,1.0446027091764674,0.027106905645952428,2.5625
0.2710073580681217,-0.4549096613282354,-0.9309274965008593,0.8695134528232488,0.05126353300999449,0.07518961072612142,0.017976479210134972,-0.5450555060153742,0.8716744101191382,-0.33714791574461844,-0.6308190306139974,0.18786975739894668,0.5333752163201412,0.02010218826580726,2.5703125
-0.11695225446259423,0.19679296859105255,0.3708788380987435,-0.38424194987944915,-0.010289153221016412,-0.06678046774807056,0.08803419598218279,0.29904246128739004,0.5800297252128322,-0.02205346935434928,-0.05554065814458233,-0.03951831818585483,-0.8493076903688502,0.009216343067380199,2.578125
-0.07496229840771791,-0.04048377102212819,0.8865526978294471,-0.6630025802798931,0.012983245715816388,0.022896698344966538,-0.15280551327140152,0.2140527188978062,0.5393273036748577,-0.06809575789113566,-0.0822261191958734,0.005467724121174501,-0.6029174588866137,0.0034026906850600186,2.5859375
0.22460967174891752,-0.5776346548130388,0.026749617181811857,0.2272385455281099,0.05780801729250377,0.1640185884542176,-0.30030608950137705,-0.4680841280535883,0.2854922752852658,-0.2325310113863218,-0.3599696135305199,0.16478947992724371,0.786932273716075,0.0015148164755721936,2.59375
0.24032587160783075,-0.44303630519171344,-0.6460177091117468,0.6853421709646649,0.0373339323887501,0.116718168475081,-0.13033405958687178,-0.5444900550794565,-0.16184478723166276,-0.1411128220115602,-0.23628706916447687,0.1310776732749968,1.0940917969106925,-0.001401100263776384,2.6015625
0.02452765270190295,-0.18398594113873068,0.480404502991225,-0.2712185864972063,0.015647684482118385,0.07772246985270949,-0.21870522459459682,-0.059291025770242894,-0.1967839730944054,-0.003614040943858109,0.046344258540497216,0.024745398431032937,0.2721214724395643,-0.00848499367521872,2.609375
-0.021870391045365124,-0.48864011832076815,2.1297833502845216,-1.376663783469991,0.05185696531392734,0.21625010754198207,-0.7032939519399902,0.08475917833179765,0.0206448440309667,-0.06704253623624752,0.052742342096126486,0.06257893378483169,0.05489413897189847,-0.0177946283171126,2.6171875
0.11519793539667697,-0.7637798043129204,1.8526595806030965,-1.041256403563624,0.0746551345132523,0.295485310464329,-0.8164495896441367,-0.22961554755424596,-0.15704920511625448,-0.13597492092911492,-0.05143666551516563,0.1368766225532359,0.7391061437782331,-0.020808088385923906,2.625
0.2119351654417034,-0.6160989928000294,0.31587803423654043,0.04378080034029289,0.055818937221043995,0.20191709037695715,-0.4264415962582528,-0.4693211035771343,-0.20503116199107863,-0.14719261608332868,-0.17297536695459884,0.1445183022535424,1.0712106461303301,-0.010014798293684225,2.6328125
0.18771822515456857,-0.5332034526480973,0.21466143793395695,0.05739176655456166,0.057707702654692376,0.14804623034604986,-0.28977864847529305,-0.3667117920762782,0.5489577960184967,-0.25608294265148346,-0.4041872947781413,0.15837307186947885,0.4705157359877437,0.005416793179150244,2.640625
-0.05858401693006602,-0.14538644937340925,1.1346263531105125,-0.8076798871542201,0.025872556962366296,0.05682603047312169,-0.24595852172333715,0.19466318602415067,0.7111531633500046,-0.12063233322971081,-0.15648156341487562,0.03296854378197703,-0.6255977551736502,0.004263656311961965,2.6484375
-0.530714302553368,1.2747750946297154,0.29060042394540375,-0.7503423734525411,-0.13255247087911737,-0.3392820016817251,0.5592058300555539,1.0887719368872208,-0.9707508529461454,0.5878701171271464,0.9582862958862595,-0.3906038058415619,-1.6302928511538428,-0.013214702871617287,2.65625
-0.7520263593665073,2.3359847062975225,-1.6439205664858976,0.2674794103773114,-0.2546725346842634,-0.67818088723399,1.4249716613770755,1.4485751024917117,-2.2363140301565942,1.0622551671307103,1.6194320996165288,-0.6659277057547093,-1.907432709145866,-0.017243946981068646,2.6640625
-0.34956557647989484,1.2249248466142326,-1.3188760736900258,0.46262264848259144,-0.12717198039456842,-0.3910526672248396,0.8949084971074033,0.6949238036871356,-0.5808228885893912,0.434450531586801,0.5870240461681797,-0.30909682883211287,-1.2245388915359703,0.0052134885749376345,2.671875
0.18477351558566796,-0.561353155762687,0.3300735846683865,-0.051573089216109924,0.07530551521629737,0.1222919918884016,-0.2253782214188832,-0.2820564674926272,1.6571163240270086,-0.4524169714435617,-0.7778310314415876,0.21028436095594197,-0.25209985985548267,0.02537198889164164,2.6796875
0.2608944680354287,-0.4013311978074348,-1.0361977100504771,0.9260018712512719,0.04557005347295746,0.05671012776606506,0.06599973268368607,-0.5269205749973278,0.8428896738499092,-0.3192178346456239,-0.6102515748974124,0.17593381665669997,0.5015908330657017,0.02057316389390527,2.6875
0.13579621259531088,0.7552182826325248,-4.283008280033892,2.9102989154919077,-0.1007049580273751,-0.32471445361013945,1.1712119940935608,-0.4581589907568013,-1.2882002335211473,0.2787822680339905,0.2131378940543193,-0.12055523563060334,1.1018564496467653,0.010022643460973637,2.6953125
0.14955537146200829,0.42930079961916134,-3.157402229047008,2.1920654619678186,-0.058649029169653505,-0.21077363969154406,0.8185707712031813,-0.4260306061420123,-0.6703216971905305,0.11603382531502543,0.003261672729997018,-0.043079968846971774,0.844091003811102,0.011861999579070649,2.703125
0.038616176685087655,-0.7251657975166369,2.4166824686767594,-1.5399332895674003,0.09637379824517575,0.24096755284950094,-0.7414797827297052,0.06998689972576744,1.6432856992466738,-0.4123533733790758,-0.5693232308886435,0.18645328016084683,-0.7167549748109173,0.009482600734635676,2.7109375
-0.12848642375783836,-0.8927791779562049,4.7314353089699805,-3.1966555073571454,0.11892099998821233,0.3672405480287541,-1.3033787861643558,0.47384616076261477,1.664062347775326,-0.368820000402798,-0.34338641054320995,0.15817120169168725,-1.2755660582716155,-0.0074422031627454375,2.71875
0.23981433878175287,-0.9046335577557474,1.1651820449501844,-0.4630970960002295,0.08520529782885557,0.316612071346688,-0.7594033032485666,-0.5155726865399191,-0.20973666880197392,-0.20152594345764555,-0.19008953914945154,0.1938716404171194,1.2591442922198104,-0.01776682998795434,2.7265625
0.8235665856147016,-1.7489973593918056,-1.307583816970371,1.7732836011678692,0.15259830392252335,0.5011129698374113,-0.7630583103945301,-1.8515922567557093,-0.6027234530040044,-0.5095822715645925,-0.7783957180007691,0.48025349053750915,3.8422360825208046,-0.012720433794564506,2.734375
0.5250750946821788,-1.6531109675992182,1.2607607911093976,-0.22005518163605567,0.1631378790784974,0.5258404050302519,-1.1457883808965188,-1.0956903044502053,0.32679854184009255,-0.5289338125845802,-0.7057693053605172,0.4132058377666432,2.1463159693308524,-0.012734305635839174,2.7421875
-0.4839188044260896,0.4511916843921607,3.0357350375907353,-2.4687935515075172,-0.03483843026901458,-0.03314982761684444,-0.3710283676511786,1.0986680922399437,-0.03998836694692402,0.2827465515023322,0.6292379391738747,-0.21877419737853535,-1.8272737919551951,-0.019844328609454176,2.75
-0.8349305159862671,2.215029901671675,-0.3660688553097687,-0.6670160534770587,-0.2270127295559402,-0.6315254004883822,1.1849938618277884,1.7154562770283852,-1.290281578765771,0.914532650657002,1.4127893464098806,-0.6334567756385976,-2.7830300872986977,-0.009104122505186657,2.7578125
-0.3041559953142934,1.7819271455515495,-3.9408926015946446,2.191179916094544,-0.1934312369128586,-0.627736718447737,1.6917787983622403,0.517262642596264,-1.0728202726817406,0.5833773892226682,0.6589539858761636,-0.39488579528011564,-0.9075584226512293,0.017702464380751248,2.765625
0.03191810681553133,0.5540603861835999,-2.493507205276098,1.6116762016398123,-0.056513120627392686,-0.25691089098020475,0.8372577304479418,-0.09687231436705752,0.2359541362745883,0.027428652740585223,-0.158938723681566,-0.057906610673922436,-0.20111675461246925,0.025016323710190035,2.7734375
-0.07499296127473613,-0.11930200779954471,1.1991669690285065,-0.8602573832828037,0.021268806208188527,0.05654328612338211,-0.2596171717644849,0.21972303091292317,0.5419604785379689,-0.07996754851673099,-0.07807372794756484,0.01660974654416457,-0.5817552852344334,0.0007704787117036031,2.78125
0.08946750766254075,-0.9173379095771425,2.7086704706651537,-1.6171589539237106,0.09338819481605345,0.36473279412047166,-1.062665588828153,-0.14905418161894543,-0.010912704265631306,-0.17271639884507745,-0.05617488358626636,0.15683288859226727,0.5998152142022903,-0.025042414253536684,2.7890625
0.4426172922521885,-1.7255471133201463,2.3692763915098776,-1.0110669496466553,0.17099285133033992,0.5896776498146145,-1.4265489617419695,-0.9084570560775168,0.17036993055209798,-0.4765463409884209,-0.5371357731018945,0.39053676401518095,1.977480512270018,-0.0239754207141845,2.796875
0.23397290086569472,-0.9292483744939399,1.3008160871368266,-0.587412986818035,0.10180885197840481,0.29266680544667184,-0.7035541166420217,-0.4283180120255273,0.8379618241403559,-0.3851567331241417,-0.5392681040409026,0.2416351179172622,0.5645288962042151,0.0008826886457336547,2.8046875
-0.3727359691391153,1.299760044061988,-1.4142915279842991,0.46346264172843915,-0.11989181129409032,-0.4549803746083713,1.0600131587804276,0.8195076520682103,0.527133602488392,0.2611639500138655,0.232929650381708,-0.27830502422642334,-2.0513155677178894,0.027302506864680415,2.8125
-0.5434940646183593,2.5425774053788346,-4.569656233626373,2.3060386375262047,-0.259957021822268,-0.8953449838683868,2.2932734784737234,1.0617896605039645,-0.5435762745416303,0.7060750762265608,0.7478637400553312,-0.5546754069679238,-2.3293857061309606,0.036666166486490626,2.8203125
-0.19696098798296685,1.6508113902538124,-4.505959368289825,2.6609616467261588,-0.17837615443204882,-0.6188726445964654,1.7659289756036898,0.29764321728152066,-0.7409737302698413,0.45906084145498705,0.41041835084167533,-0.32795497214412067,-0.7044905905537855,0.027253953967816134,2.828125
0.11523285727479093,-0.0662193388893156,-0.8931899034226519,0.6895852326849649,0.006519743259083113,-0.018161016134375287,0.16810916052797273,-0.24944843116512622,0.24504667802935873,-0.10241520283693742,-0.23397116743958402,0.056291194334595854,0.2717498243274466,0.010289459484380595,2.8359375
0.24238935650628182,-1.2374768046763627,2.421326641374371,-1.2916807369299923,0.13508772533756774,0.41929138753066697,-1.0946030884653262,-0.4216118640632472,0.9231045139151356,-0.44980473120578884,-0.5605585953376965,0.2914453622418229,0.6293050806544985,-0.007196620775618187,2.84375
0.37444243458760773,-1.6969700529176281,2.925791691788641,-1.4474943094301962,0.17256699727998975,0.5922900991550445,-1.5042127513960362,-0.7369165268650714,0.377652981993032,-0.47985025979674617,-0.519749825592077,0.3739942803777513,1.5907155762738903,-0.023789666065982873,2.8515625
0.4222735686662427,-1.4984192998683143,1.696567690928098,-0.5852204076558835,0.13793615193381442,0.5246071472876612,-1.232128498379417,-0.9266873194351719,-0.5675865488207189,-0.3054708094242469,-0.27216064695957354,0.3195810630789337,2.3178328885745074,-0.03182285772300309,2.859375
0.16165467366868486,-0.5666704721423487,0.6414040912957695,-0.1934286476004981,0.0406810502021519,0.22753618905045125,-0.5455353719887358,-0.4134870377860589,-1.064057346854024,0.032406800923106764,0.18571924381996816,0.08393207628949483,1.4382182888860673,-0.02828602100291554,2.8671875
-0.2781286115764263,0.5801440075562594,0.5157434875812121,-0.5978935660688632,-0.07202921871135932,-0.10907988079414875,0.08697887686076745,0.5156272130540771,-1.3945351757006992,0.4500384804969751,0.8118406073740914,-0.23145767390791497,-0.250472323440238,-0.02690924636080873,2.875
-0.45198202464606174,0.9431678658808663,0.8209188932573398,-0.9833825329782009,-0.10665631260166544,-0.20440506552530652,0.2177000377057042,0.8911763939375381,-1.4928956610637456,0.5960218329753413,1.0538435567620257,-0.34197130012182775,-0.9124445296010684,-0.028786316963442693,2.8828125
-0.09474981482454678,0.1451112383685629,0.3772903844655681,-0.33837546765207677,-0.015791756366368596,-0.023777397490383392,-0.01588998800461738,0.19667801747769642,-0.21069190497457432,0.09945776979081443,0.188931975697907,-0.059989734066319876,-0.24063063157180012,-0.006089070765304803,2.890625
0.450604262245509,-0.9188394827875374,-0.9233220793198608,1.022030162664997,0.11472585775426179,0.16381747998989366,-0.10303630562343517,-0.8322067387456998,2.358580080192447,-0.7430047926252153,-1.3504504008986047,0.3756004922258636,0.34117236800144607,0.04542988068146603,2.8984375
0.488003371615804,-0.858214435929356,-1.5650505602912432,1.4308489588152584,0.12460088559304795,0.07900687947970984,0.1839599852245638,-0.8339598518857093,3.674450249142181,-0.9806042794337239,-1.8549376280030625,0.4367657358952432,-0.4003766756750379,0.07519515666048666,2.90625
-0.09919246578958243,0.4810279864561796,-0.9493198243936685,0.4318741367296267,-0.022364994175841188,-0.24355334993791417,0.6444456670896614,0.3333594847420159,1.9702085409212118,-0.23056022248870084,-0.5739288012451557,-0.01279739964307102,-1.7754742087453743,0.04648229497829073,2.9140625
-0.5688646894374237,1.5318171673666672,-0.3403682319993631,-0.39551413391031415,-0.1574839598213969,-0.4399264121918787,0.8378085562161879,1.1660074902097988,-0.8916962175319739,0.628784176505212,0.9656416056384978,-0.4354406842858952,-1.89321043660461,-0.005768184025380752,2.921875
-0.4124917622705838,1.066186250075169,-0.04129036627789832,-0.3773280782424458,-0.12718976364517237,-0.25297448940485046,0.4158279776797365,0.756940808413177,-1.9819170024266468,0.6828068096634812,1.1609660997397242,-0.36831588579052027,-0.48903568170255834,-0.031234710961897942,2.9296875
-0.10434244397218503,0.050176902679891104,0.8678935310485294,-0.628310817011919,-0.020355670226088713,0.05931745454110428,-0.27407957001436895,0.14864235011153146,-1.3343927419742194,0.285380423013242,0.5935066905484271,-0.09912997201615101,0.4857082684682274,-0.03137087952078159,2.9375
-0.1372991193794858,0.02667974809369905,1.2789502728752382,-0.9348225948845627,-0.012886817444159496,0.06919130659995225,-0.34125334860867024,0.24865645073718104,-1.0233166361633084,0.24161750894608383,0.5320059567781416,-0.09255797117196807,0.17210164414312779,-0.02850742145230219,2.9453125
-0.13963168321203986,0.511453741429145,-0.5921063395533143,0.2613843515640352,-0.0683671819450107,-0.1264137986008972,0.2778880194953482,0.19791466364506516,-1.3654278621029143,0.37472897658884263,0.6211595435940477,-0.17668873251718661,0.24288084491468973,-0.018896950144112863,2.953125
0.21848966633158537,0.11121286848536303,-2.5904655783986614,1.91669645393204,-0.029805884868411396,-0.08959105708265519,0.5078359205241408,-0.5797074355824168,-0.8740002263065546,0.0749443512704179,0.00126165616276595,0.014651360316797405,1.3155583903389767,0.0021566628405349187,2.9609375
0.39783688354060004,-0.683617306402097,-1.288083424743742,1.2464877416398366,0.0680721605209332,0.14164280009494043,-0.0630639801700329,-0.8456817831112448,0.5889044554029876,-0.376457240721407,-0.6883206746334846,0.2478388994943409,1.2363404993843174,0.015938651949949773,2.96875
0.05273507434700207,-0.5228580512786405,1.4880114773172832,-0.9304775517903051,0.07287275377292582,0.1541874126252557,-0.45300356255955276,0.014016259560665125,1.5058609861733576,-0.36392890520823495,-0.5533220003876852,0.15639412114741177,-0.6359689169581584,0.014602451975504529,2.9765625
-0.10832321873292573,-0.09856476644808798,1.4290052205902373,-1.068779066991294,0.030870868754509877,0.030079082650142232,-0.21831091244514397,0.3525658032735576,1.3627801194230298,-0.20593591361080332,-0.3166577457005448,0.03933466783681257,-1.241088660190324,0.014794736922141859,2.984375
0.39178418954301875,-0.8688138016820207,-0.5032275097603991,0.7322391637181775,0.09231303396069103,0.21161745793658338,-0.2942489290856129,-0.7954842792897958,0.9310385818571553,-0.4603084041512548,-0.7851320924559537,0.28710456980398397,1.0473955397289958,0.015741788316102814,2.9921875
0.7313277588090371,-1.7977466986199104,-0.2145381178787482,0.9503647630192538,0.17159275066992827,0.5230174131001578,-0.934121156455964,-1.5742641240627977,0.24647039759375236,-0.625229964474482,-0.9431792426936323,0.495355772684881,2.9760847070112213,-0.004704186159760522,3.0
0.18543479507492486,-0.9164888841596118,1.7737949857334299,-0.8918070172823249,0.07970094135119998,0.3624432586180176,-0.9507374248790466,-0.43096406538179594,-0.8481220260850919,-0.06775847658125425,0.1026022510346112,0.15028049091506973,1.4859524032854246,-0.03426277190968092,3.0078125
-0.5115836148516347,0.8271450709649653,1.858272572229965,-1.7228758495118486,-0.08656713312137632,-0.15135656572153228,-0.013672041604835102,1.070862578883122,-1.0195418676830699,0.5217088627140738,0.9779572823326192,-0.32359817638266625,-1.3983593012853452,-0.027845796922065267,3.015625
-0.4414697943189988,1.0572103861353954,0.22637701687866257,-0.6509034449361825,-0.0943326052932083,-0.32237139627313605,0.5770527707866488,0.9867365599464193,0.37861880258548825,0.2810423295596233,0.39034886244255657,-0.27237968152091396,-2.127780479511435,0.01147728976431006,3.0234375
-0.04534239644265283,0.18807187831118807,-0.31315466817086723,0.11622742273270993,-0.0053740639995157324,-0.10219758644110255,0.26410701258596936,0.16286024552447356,1.0309280264423502,-0.13312154412934324,-0.3052731552085064,0.004146057483119203,-0.8860163698044479,0.02251610519544734,3.03125
-0.1304229468683092,0.3066086853362521,0.10398750283194086,-0.1953104245469771,-0.03660341132956928,-0.06898078683044039,0.09561540787927245,0.24445846222955314,-0.5715286954323436,0.2013920913337512,0.3500215914449914,-0.10997461254144784,-0.1798863734598384,-0.010033994446371887,3.0390625
-0.401038170739299,1.1559473343411124,-0.517735048491614,-0.07342473948835491,-0.1315566209422399,-0.3100655776084299,0.6021784106367443,0.7524818837845422,-1.567296886823926,0.6185638690968037,0.9975082891534867,-0.35910155024772467,-0.7455665150509304,-0.01947114571783571,3.046875
-0.2372875442904883,1.051648709478804,-1.7811944127220658,0.8538804210274112,-0.09947255952899708,-0.38769503367989355,0.9838657915489283,0.509690339305031,0.383859639963989,0.19131808590195842,0.11691876329925717,-0.20670178366442157,-1.4031544057613592,0.025745041706740596,3.0546875
0.063334207661702,0.32101124328211805,-1.938321563749625,1.2421375546403024,-0.009978971158493131,-0.22859361379341273,0.757797143671176,-0.03573720646082073,1.9772490259610513,-0.3256491069483091,-0.7829525307365892,0.06151713444569589,-1.1550224160246754,0.05268352952516662,3.0625
0.01633868133033027,0.2113126361790184,-0.98919126610195,0.6526244105712018,-0.02615326103546772,-0.08842707497168488,0.296586622388709,-0.069387695029543,-0.23187570747072803,0.06459810542661255,0.04450002132733398,-0.03514080719913262,0.1492881385066283,0.0035418413943638085,3.0703125
-0.04136625750240744,0.12766071422809327,-0.021561252576450217,0.05792101327011753,-0.052322886486259795,0.06413718364192551,-0.2066473428241887,-0.11856963673500323,-3.012515529552756,0.5635503914986197,1.0801664580910846,-0.16398260211960702,1.7794484421511978,-0.05636935112100358,3.078125
0.25906681509699964,-0.7905861684607876,0.5652582268649547,-0.017848964701562914,0.05404379377505941,0.31138132045030503,-0.7073673744955311,-0.6651616578120264,-1.6315662404707036,0.05618507588375755,0.26485628426637103,0.12132425909534088,2.220192875664378,-0.03978114624086246,3.0859375
0.49494313622958114,-1.4487753914052524,0.7186539623752194,0.04001858939517092,0.16455155622095552,0.38881566297744685,-0.7645431653554098,-0.9241985855998526,2.0073965757842482,-0.7799400814731625,-1.2551204329544217,0.4488973399510098,0.8843633164306434,0.024088920563621573,3.09375
0.32090614244259835,-0.9094962293313088,0.3094272699106687,0.07597537445109748,0.12477474659601685,0.182055602416394,-0.29545771892656997,-0.4906085613281677,2.928060503951556,-0.7858693610694563,-1.3732635006232834,0.3582908017346667,-0.4934736379548145,0.04754814282951649,3.1015625
0.13364572644679457,-0.29576637279469714,-0.19245288745282846,0.2420379225592516,0.040176345241706365,0.04753983557851057,-0.031491105796421275,-0.22508912810535311,1.0070615499208135,-0.2775929800709743,-0.5042953490733237,0.12795492769678377,-0.09014836577880204,0.01836304257226977,3.109375
0.15275407000401822,-0.43545659067375575,0.20431886276678712,0.060768752589443115,0.03308042885874829,0.15814830482712847,-0.34089544019838214,-0.3707733153607782,-0.6096284483957413,-0.023556814954839116,0.03344887390111918,0.08256418877009541,1.0719040130426813,-0.015830215256643222,3.1171875
-0.017989410731962814,-0.39259658421226457,1.7433162886211337,-1.0922912979294819,0.02662328155373634,0.21377883045216092,-0.677957496082017,-0.008841189455510823,-1.1193273325275304,0.1453493917188518,0.4329873942962279,0.00010226757417426982,0.7838969168376706,-0.036087340196514335,3.125
-0.3781897565875818,0.1929544961964218,3.0245837598904397,-2.3097479041057873,-0.02505068435141381,0.08111078407859947,-0.6142708045298586,0.7940409783759439,-1.130155090218583,0.3894071913812958,0.8792022204723177,-0.19686598845945125,-0.6635805396743739,-0.04191383816072696,3.1328125
-0.35668655338418814,0.39945740060347495,1.9820745844679089,-1.6513384830673308,-0.035298519848315314,-0.046613790341229665,-0.20192177333123618,0.7924277766302044,-0.21605974322347837,0.2512464185372862,0.5238204177200176,-0.17893151592865356,-1.2436990034769022,-0.016059080936679328,3.140625
-0.0015130265445044404,0.3258399700607062,-1.2849433174547502,0.7846443716786241,-0.021568831018013795,-0.1743233340141364,0.5350794393250579,0.04859242545301576,0.9918058307821238,-0.12407400678594563,-0.3589835040091907,-0.0030289998152064485,-0.7453166531952186,0.02944017365785599,3.1484375
0.01817790204264098,0.8499361352268404,-3.53072017292974,2.2448332846235934,-0.08311608736692741,-0.3909568378426919,1.2427291710940493,-0.06330356810330827,0.55112925927241,0.021705146865491614,-0.26772550485058483,-0.09011557439433465,-0.5435422824592067,0.040073770099613,3.15625
-0.25421388976469467,1.2531970897149598,-2.376045802711479,1.2500946555662866,-0.13744608668484687,-0.4228477469393439,1.093717635416721,0.4457422451050891,-0.9291490610991366,0.45750698199252443,0.5769048692103071,-0.2983215836353384,-0.6679945365220675,0.006301616136238464,3.1640625
-0.17988252909495606,0.44644478007860183,0.05076011443535117,-0.20917905150661814,-0.053471462503472914,-0.10335405992891628,0.15884038496060313,0.3322477652306313,-0.8433966164892742,0.2909538353284486,0.5000908856598096,-0.15728748853623106,-0.22061877276632413,-0.013971477757253596,3.171875
0.09141380315489149,-0.3806943520581348,0.574897169744261,-0.2743352547131603,0.04250207156463709,0.11901633847458393,-0.290717162662885,-0.16113492726540707,0.4112440616708584,-0.16793916493404018,-0.23856850763454224,0.10038517899698085,0.17248069552307446,0.0011855916612897141,3.1796875
-0.09332483128663452,0.26007006270157773,-0.1009097364496178,-0.046481764760751755,-0.02239113913119813,-0.08889714109638476,0.18548956936243371,0.21453877648652073,0.2166020011050216,0.040749351295255296,0.03324152773474065,-0.05696058794636361,-0.547491288876599,0.0060558419421237715,3.1875
-0.44919474088516353,1.1256509850170096,0.062451355837335305,-0.5144503156637522,-0.11904480442422628,-0.302757096623447,0.5242511134642946,0.9087440892624217,-0.9585084586834941,0.5279982642195887,0.8547600545540764,-0.3432876916532227,-1.304585157939138,-0.01222408446708366,3.1953125
-0.16021780738812846,0.37976112641261,0.10929217999982739,-0.23390055723933922,-0.04260599413110354,-0.09321555343453287,0.1418373624196942,0.3139408643811557,-0.5043872416294272,0.21330285599629759,0.36194879818016273,-0.12672615609834018,-0.35158549601718436,-0.008363711085302926,3.203125
0.5935118063710545,-1.2781814961601845,-0.9076121714759097,1.2068323883118013,0.1330410738670808,0.3122255997265688,-0.4166787895261653,-1.2230296969064252,1.180412782031576,-0.6522549544545806,-1.1133504329383235,0.41957885648372023,1.723528046537417,0.020913809945909842,3.2109375
0.9275612725236131,-2.1855328178577946,-0.6739076462393604,1.4215432374707266,0.224698666510996,0.5774959014642808,-0.9296455123061435,-1.914812001954027,1.6001052605190946,-1.004117562759273,-1.6440843718922349,0.6716336787294807,2.907118782681557,0.02186057725886277,3.21875
