AF3,AF4,F3,F4,F7,F8,FC5,FC6,O1,O2,P7,P8,T7,T8,time
0.050791692397542186,-0.1285321199493192,0.38832345265289614,-0.8867893421989612,0.16909452532818448,0.11351494779161445,-0.2241868802076716,0.18016851880357215,3.98657828309468,-2.318946768554671,-2.14328393076808,0.29969059838178636,0.12583816937958742,0.385630553466184,0.0
-0.05745921635758151,0.22151926679432715,0.5577962196103011,-1.909999717796174,-0.04519696447419825,0.014844337856599261,0.5929736300656607,0.14823107974717784,2.2837038543483756,-0.9032400059629709,-1.2621433463242058,0.0579801249266689,0.055392969800400635,0.24357297206890494,0.0078125
-0.05382372679740781,0.15286108377489763,-0.13494821789750788,0.13293426468347833,-0.13493875217195478,-0.07732242068047497,0.3228448612932333,-0.09228587019844135,-2.2993396293277777,1.449934809064593,1.227299956490285,-0.20211365123692826,-0.07563954855155591,-0.21657539026999642,0.015625
0.0023070470773429753,-0.058863717143930364,-0.586321770422415,1.726422195856451,-0.07512762816627218,-0.076607575595642,-0.22897811066286322,-0.2035565238093749,-3.871622159548021,1.986193549600803,2.1033268133402214,-0.21862205045700892,-0.10967561662704779,-0.38892202933336656,0.0234375
-0.051996234980665704,0.1543361454103207,-0.04381678117352251,-0.12419646439332127,-0.1179767530392297,-0.06240107439635661,0.3428543756607384,-0.05869476647816823,-1.6353677029459293,1.0979078488462979,0.8675690933499849,-0.161198887477241,-0.05616487980724637,-0.150525538800195,0.03125
-0.0727244838015699,0.26451314294119815,0.5117097619636658,-1.8492216738857508,-0.08502617493238103,-0.008591823305333793,0.6836871592323739,0.11920474296048794,1.573576424906428,-0.459030373087889,-0.8827839386586532,-0.0030946014873383413,0.03193360508990724,0.17645948115005264,0.0390625
0.08544252306474832,-0.2668940458734947,0.02203150666910864,0.3537548451036319,0.1939975364511043,0.10181531188819493,-0.5966584025224584,0.08084359351354024,2.428457568058583,-1.6818064842011646,-1.2835412017078272,0.2559053330486545,0.08787950004769683,0.22033031181176188,0.046875
0.1635261981886969,-0.5676772187564129,-0.6855477257665813,2.802854141273842,0.26584832922755036,0.09157340627851404,-1.3927376224660084,-0.10201040296454039,-0.29865474846270945,-0.6566828297127718,0.22821407813096314,0.2017114814217294,0.024988076093568234,-0.07355476376394357,0.0546875
-0.03461275561791113,0.08511393273852179,-0.2324707483297588,0.5114222406670801,-0.10651061718649744,-0.06918672453689588,0.15495675181232305,-0.11048125245002459,-2.4557715795808632,1.4369986466025169,1.3200695237349214,-0.18569678049239174,-0.07635033243980209,-0.23734680987338933,0.0625
-0.18405783744074433,0.6346643125718016,0.7983989559217813,-3.2312289356097175,-0.2901114876618732,-0.09475602936402255,1.565488946146658,0.12549281239796597,0.5729722393631952,0.6072962977997989,-0.3838094583979396,-0.20892157914073733,-0.018942318863009962,0.10565923333022416,0.0703125
-0.015488452654068055,0.1079227943846665,0.7567969197790968,-2.2869342366670624,0.07514576712705504,0.08971700202474403,0.370164097882884,0.25360740406357546,4.7301162449961,-2.375901837154925,-2.573318365793526,0.2548003353971643,0.13406160626262498,0.4777277879823403,0.078125
0.14391720151803283,-0.46453493117268396,-0.17354397147442124,1.2107477871782237,0.29514605481839284,0.14055528267438797,-1.0755139917778522,0.061585022901341255,2.6457511003035683,-2.084100095738462,-1.3784830596505402,0.3459788839623313,0.10580602427189449,0.2267504449186198,0.0859375
-0.025451029205878013,0.045154388267738786,-0.3609396030435958,0.9324682777263102,-0.10375024875493395,-0.07650989450323609,0.04344627567641673,-0.14751564636571243,-3.074478121890695,1.7120899647821228,1.658885333207641,-0.20889982538936744,-0.09230599163482306,-0.30175261497025363,0.09375
-0.22079813870864543,0.7051182953362447,0.28422170230830657,-1.9065292332087054,-0.44284166065157615,-0.2074227712389411,1.639605507353224,-0.08608225795272359,-3.8594370568457133,3.082730420998211,2.0071824336917308,-0.5134003470941373,-0.1537100452667957,-0.32885151828004927,0.1015625
-0.07534770202357453,0.2555188474083727,0.3022110346275244,-1.2496442728581199,-0.12053272055440921,-0.04082151964543546,0.6285686555107007,0.043194262903859124,0.08701640506206192,0.32278228309302626,-0.07681884066945972,-0.09269064418301985,-0.01135935817195706,0.028199085455047172,0.109375
0.18251843587334973,-0.6124105470703186,-0.5127091293158264,2.3904731062711675,0.331953971747462,0.1371005555297228,-1.4646187009622822,-0.02509305047750916,1.3687480774710263,-1.613294251876716,-0.6698639280498537,0.3233714192615262,0.07676075842278092,0.08861414683747582,0.1171875
0.1674376600405646,-0.5947665659002326,-0.8631379868067919,3.3411991776294094,0.24942484964653025,0.07149185242793187,-1.4832981920655453,-0.16098767933876837,-1.3939901483085022,-0.1096640181744091,0.8234623691584181,0.14381622176013278,-0.005621767069568563,-0.18414131614488732,0.125
-0.02959683849506842,0.0621149863121167,-0.3191044653965182,0.7894204686610592,-0.10745419542031591,-0.07536781944078798,0.08824919184304329,-0.13647654311637508,-2.904694353006339,1.6437664141955368,1.565165497465949,-0.2049513036256334,-0.08820721673366785,-0.2835013843917398,0.1328125
-0.11091538264665914,0.3659399163714289,0.2970375806670074,-1.408696387095736,-0.19953432238582958,-0.08168460641710196,0.8754339226194324,0.011247434488967306,-0.8836776595354602,0.9989116245714442,0.4366494784304408,-0.19621102733486823,-0.046304595035108476,-0.059689700450729806,0.140625
-0.059915070922685464,0.22509486689071842,0.5063902615241733,-1.7719759406353874,-0.057837229566996363,0.004871485858713776,0.5926085783732684,0.12795056419746045,1.871342684965881,-0.6778009296212836,-1.03785865003116,0.03069552685358455,0.043007790190246684,0.20276059996689616,0.1484375
0.011829846152475416,-0.008385784773478504,0.37686108023060094,-1.0432630668732064,0.08152579821979557,0.06783939147897229,0.04505521569204918,0.1430747366456325,2.8818447338579363,-1.5540295441695637,-1.558345978188654,0.18434375113893212,0.0863397521398706,0.2851749442410482,0.15625
0.11598779575172151,-0.37336723503105773,-0.12599401571708826,0.9348151570947625,0.23958344223116027,0.11559581631259093,-0.8614420527360888,0.054385698075818535,2.2243734079735082,-1.7283123968608871,-1.1610438054231553,0.2843321200945359,0.08817691280530753,0.19203308513252354,0.1640625
0.20532093960533554,-0.6959043386632159,-0.6708749655682262,2.9635256783043404,0.35951425747583726,0.1408041722767184,-1.6797665204218637,-0.061541583303109305,0.8967836829183572,-1.4832773546246032,-0.40517086240774236,0.32592350461122427,0.06775801962242507,0.03547597294329262,0.171875
0.1244072157625656,-0.4329221971190136,-0.5240590138250306,2.1401007668186196,0.2026587807326264,0.06990962784992887,-1.0622470821978929,-0.07826732126731391,-0.2364677242303487,-0.49722430262044276,0.17816190753686545,0.15333324462904363,0.019051664688345002,-0.0568992827869009,0.1796875
-0.07267401977514606,0.23741921785956865,0.18770945847507975,-0.9015879027310534,-0.1303494910706732,-0.053660129888889206,0.5685903820904413,0.0053205173701333115,-0.6123164544721458,0.6718724710853647,0.3040425874334927,-0.12931603559234234,-0.03094609897972129,-0.0426942345415898,0.1875
-0.14371921759788733,0.4834699916690958,0.49729631302385807,-2.1533711786417284,-0.2430280970073989,-0.09085921535043347,1.1753713716261966,0.0540983279364569,-0.39034781245552685,0.9092427387165631,0.15530320460624858,-0.210476447755388,-0.038674501452704346,-0.0016940335428594763,0.1953125
-0.07638276515663578,0.25177177614764046,0.22246617434060184,-1.021796653839027,-0.13365213208671808,-0.05306832565279451,0.6067651331765141,0.014448160575057429,-0.4749901542894217,0.6204584606927234,0.22803115953732422,-0.12616423237090124,-0.027730487476693287,-0.027909077068887827,0.203125
-0.07075702414790272,0.22258247907055156,0.08016282881681319,-0.578035206476733,-0.1413911419276657,-0.06650370982056092,0.5170624239953986,-0.030870257380291494,-1.2888369735531702,1.012504089364146,0.6719571203726978,-0.16590024778718,-0.05003371773732524,-0.11097216128678966,0.2109375
-0.12086512066984752,0.38875291925802774,0.2079855096323575,-1.1956193302679625,-0.23384546961721678,-0.10526270456219751,0.9134147582870237,-0.028398250671880784,-1.7457599425364776,1.4953568427898518,0.8999159578581499,-0.2587867237786453,-0.07310723012031835,-0.1435443406757188,0.21875
-0.0713276630666848,0.22980509382675385,0.14217684751163398,-0.7617463038992756,-0.13442507053288158,-0.05846280590308722,0.5438480811174998,-0.009680878298141701,-0.8890527032861832,0.8071707802406792,0.4546212752585704,-0.1435850400267812,-0.038556089917698357,-0.07068576260476984,0.2265625
-0.004803858639475972,0.014848952254210977,0.03403494567010606,-0.12169874026087457,-0.0034564427290077397,0.0015220370508359747,0.039991083567570036,0.008526785118086905,0.12898776318240612,-0.048733491356346366,-0.07146576442022824,0.0032831336394398983,0.003978361851554332,0.013887613590815704,0.234375
-0.08385165884028291,0.28778745731956457,0.3628461103743175,-1.4688669377956587,-0.13101770794458042,-0.04212289351949223,0.7093887953979905,0.057191671019721634,0.26895956674101623,0.2679293867988674,-0.1789806257663644,-0.09379872602064591,-0.007743231633251374,0.04881814442125984,0.2421875
-0.14500046452214274,0.5069398543590997,0.71768254156467,-2.804722018893208,-0.2154664739319116,-0.061824982617061465,1.2628603309995776,0.130211801793842,1.0573296021497847,0.1617325503439563,-0.6311492115997914,-0.12956814224142443,0.00271878909348766,0.1439488102199851,0.25
0.05240716326304485,-0.14532254540544606,0.2431948420190483,-0.4552912415560888,0.15206491344274206,0.09518642314543421,-0.2866127302103708,0.13049816154557053,3.0484210730195485,-1.841693445931051,-1.633073816915213,0.24730872431341214,0.09920121353939301,0.29142767294274174,0.2578125
0.33076028653193895,-1.099334814300418,-0.8410110214026953,4.071527157841634,0.6117501873896013,0.2588182366565553,-2.618288425808856,-0.01510165130881118,3.0506113234776713,-3.215562799330524,-1.5235880611109467,0.6167511165282018,0.15461344154125478,0.2182818948635321,0.265625
0.32430410031416257,-1.1206925683384388,-1.3360738604296718,5.48775122234675,0.5279016162460642,0.18278391021302315,-2.748100535623285,-0.19460349198032925,-0.46222300812866945,-1.3656122609292431,0.3801383900383468,0.40543766020621663,0.052319795288513625,-0.1320863786894573,0.2734375
0.06255085487207807,-0.2631936452333375,-0.7853438377686641,2.602235819361098,0.029854090764410535,-0.036112483869612653,-0.7212938001507228,-0.2224225483019939,-3.6278044521631854,1.5649216355306135,1.9942080923652432,-0.12424513126209963,-0.09076039675399272,-0.38048384011388264,0.28125
-0.09776659338099333,0.29003536605281643,-0.11018988366050307,-0.15260314529533558,-0.22753341892135995,-0.12324955919631309,0.6392317063064962,-0.12062513891760838,-3.283708107905013,2.1791856459169447,1.744144636201985,-0.31658946192435733,-0.11274354985428206,-0.3039033666806222,0.2890625
-0.017818362718885615,0.040857174518492814,-0.12574390861026566,0.28261771808864306,-0.05389604594018384,-0.03520457750036235,0.07380703262461062,-0.05841479465500731,-1.2849770503109863,0.7503588516144026,0.6913224182654427,-0.0950507483641898,-0.03936577315396502,-0.12469244104878588,0.296875
0.08827293788430823,-0.3036951631840249,-0.3158430701664345,1.3551903852613933,0.15249802160950032,0.05806373533096261,-0.7358680246155467,-0.03556641179438716,0.22039200695968447,-0.5538199196287962,-0.08373292017610184,0.1322026682286352,0.02500733527229278,-0.0017456497508155473,0.3046875
0.016798711844986818,-0.04364914179366649,0.14136868338783526,-0.3300557308721774,0.059528754428431495,0.040799811977513305,-0.07343019341463097,0.064562688029075,1.425224876356917,-0.8259200286970794,-0.7661684003427056,0.10659949047491417,0.04541937118877215,0.13786122270476936,0.3125
-0.15945096261061714,0.5645631243303196,0.8769308181131036,-3.339557734922575,-0.22463700723845761,-0.05607780125796017,1.4206034180180835,0.17396627138913975,1.7542221582212274,-0.12620315304334803,-1.0146997095749972,-0.10819295463494873,0.019846167921311095,0.21737800446365357,0.3203125
-0.2200718793830664,0.7592845227268435,0.9534815310985918,-3.8588662563938816,-0.3472843472680012,-0.11390796166763083,1.8717270992832409,0.14963055708843623,0.676089621560786,0.7312961609358694,-0.45372744231107376,-0.250700998658907,-0.02315489116177432,0.12546821650622483,0.328125
-0.09811719949115359,0.3359422414773778,0.41236204839593804,-1.682516144653537,-0.1552459290583213,-0.051332610064007876,0.8262614391262674,0.06266939277140605,0.23109873697550673,0.35930714238054434,-0.16399073358161845,-0.1145291104076397,-0.01166117229592392,0.04875661076913128,0.3359375
0.02968996088198523,-0.09206667170572624,0.03728568293769254,0.03680419729654486,0.0731372761808061,0.04092068033043371,-0.20106778493201316,0.03897844566730666,1.0609781193246068,-0.701008525112276,-0.563686460086667,0.10295321417781053,0.037599498268939074,0.09814290198004594,0.34375
-0.007609013286567798,0.025816147797712203,0.06495414174579567,-0.2265009628500143,-0.005034156771645093,0.0026578875739462072,0.07022851309452238,0.01710107607956942,0.2654347025204359,-0.10420585298056151,-0.14669488310565143,0.007456434734058697,0.0072686792607193655,0.028299683617685048,0.3515625
-0.12493164134582137,0.3984539647002624,0.16702304221823175,-1.0972609450499473,-0.24883194272949113,-0.11561492811416818,0.9279214943316147,-0.04632661473386206,-2.132944008559497,1.7167773334558152,1.1081754045937815,-0.28682275864728746,-0.08503559635204488,-0.18094027605213725,0.359375
-0.11046604876799242,0.3577112321685295,0.21702502669680115,-1.1724453643201826,-0.20991060623794308,-0.09228797335727036,0.8442673170916409,-0.016502647164952183,-1.4142169859066112,1.2727437222419087,0.7234626368341186,-0.22614042408465362,-0.0614773564986552,-0.11274151773028163,0.3671875
0.05860387670224199,-0.16607372530263637,0.23032301148287393,-0.3864472894764863,0.16404856003287377,0.10047283960914269,-0.33459890795205116,0.13122735059844332,3.1244942600341234,-1.9116034468450671,-1.6726901763880837,0.2603621027287906,0.10264823743143055,0.2972378803637923,0.375
0.18937524104426776,-0.58714775722078,0.04889491231890774,0.7811750529822753,0.42624625150003964,0.2229176418484554,-1.314005247364265,0.17809399012185556,5.34067914555552,-3.7038107810643357,-2.822989063429694,0.561813346463654,0.19234348196837528,0.4846367992530417,0.3828125
0.14039805787254078,-0.46762260093587255,-0.34091373273999326,1.6816388214877593,0.2636844213836572,0.11351726175003199,-1.1092583573789025,-0.000289649621107755,1.4225550013369843,-1.4334892231109126,-0.7154545842599979,0.2704790141847718,0.06992222430474071,0.10500733486164698,0.390625
-0.011108459726800435,-0.025040272515909838,-0.6719693668851686,1.9117178234036971,-0.11605805599982157,-0.10348353488387707,-0.16658208825987678,-0.24472279794567212,-4.795822879686462,2.532651636034289,2.5992778104472327,-0.2895251328096765,-0.1389775539604484,-0.4779661397231322,0.3984375
-0.08756726860169682,0.2041710940693469,-0.7698915180572398,1.8260154620955549,-0.2980756588316315,-0.20349340380534403,0.33383118533485373,-0.34386827324764085,-7.469686532382384,4.29339591010985,4.020114151843555,-0.5452353657234293,-0.23103300930263837,-0.7257030661363898,0.40625
-0.024299825555813486,0.019105859179549448,-0.6377254195342019,1.7470817484222434,-0.14063033199661296,-0.11384561652715514,-0.061238062156171086,-0.24408175397094686,-4.917291410919797,2.6602941778927076,2.660461589216974,-0.3140411286676577,-0.14508888871006248,-0.4867758882786621,0.4140625
0.09999853915775316,-0.3464038830251649,-0.39588814846532305,1.6448613111968333,0.16664995324797074,0.06007235022299893,-0.84484929955295,-0.05400162474470901,-0.015957537851398973,-0.4892533921359795,0.04999130721870748,0.13369805349767055,0.020516917203687868,-0.028536268356344936,0.421875
0.20513265172891446,-0.6698903759707863,-0.3604424215719357,2.05459112456556,0.4030706908464595,0.1837836962335432,-1.5685596530001218,0.04750862001142989,2.991161767532458,-2.5647431082660552,-1.5409501399047953,0.44689039061051666,0.12790878943004164,0.2451417178118935,0.4296875
0.2438831339145568,-0.8045320402526706,-0.5332643676803202,2.7503220016491188,0.4640834545967667,0.20351657442993493,-1.9016006258566376,0.019601405773096284,2.8437774930281083,-2.6807149631573433,-1.4464203774542579,0.4899460780375386,0.1314222335781683,0.22030496594709312,0.4375
0.12086046786933032,-0.3896556692501343,-0.13808690468275636,0.9953375303619926,0.2489604061877328,0.11941398176892794,-0.9006901913197127,0.05435730180250027,2.2734949390785775,-1.7782614529192704,-1.1858400804061704,0.2938850264308327,0.09055440087801495,0.1956218759075726,0.4453125
-0.17370226597786004,0.630227742572973,1.1336830089077317,-4.159517440712107,-0.21993921196694918,-0.03649759962210182,1.61101257475282,0.25220040079920075,3.1121363814764766,-0.7569923929169812,-1.7576060766648585,-0.048257769132524934,0.056065092473021584,0.3572451440105259,0.453125
-0.3689186430385433,1.3002794428224058,1.90933902037062,-7.378930998366742,-0.5398885693046686,-0.14906407079559192,3.2511880539379754,0.3598317078254101,3.2171288018654693,0.15270965962768815,-1.8921052162395666,-0.30092146107013223,0.02028042458512388,0.4192126526646097,0.4609375
-0.22945088577188555,0.7941550158724792,1.028158397603277,-4.122733518707074,-0.3570584554191115,-0.11397562396379374,1.9628281501960232,0.16812142060583596,0.9368070778959868,0.6430791284599461,-0.5993385034009296,-0.24771427028965287,-0.01751655304495975,0.15399104159315952,0.46875
-0.014086528430076017,0.026042004167370666,-0.17400893326727554,0.441145515095099,-0.052767300606981433,-0.03783631970207224,0.03056645717419973,-0.07235426141473658,-1.5174372510268648,0.8490066156090651,0.8181404470666573,-0.10411072814634455,-0.045243819383270885,-0.1486674763618364,0.4765625
-0.0987856771184824,0.3084947513638857,0.06190657317921562,-0.6622118405442619,-0.20600613815455684,-0.10064554972833097,0.7074860634532264,-0.061141613619118095,-2.1541047384753695,1.5970567276728518,1.1299625661428858,-0.25333225730967207,-0.08038826458279302,-0.19007391025331327,0.484375
-0.26524475911352113,0.8798712539353577,0.7223809696122421,-3.4049676476383035,-0.4791486040565015,-0.19677081468767066,2.1063100737602816,0.03023044555375582,-2.072685081120783,2.377288537536205,1.0194451496734491,-0.46943371952912066,-0.11116094568525436,-0.13796625987655484,0.4921875
-0.05912351800686186,0.17575117774302904,-0.05492857438745326,-0.12799029390652145,-0.1352012757827915,-0.07206178031760695,0.3883951561172473,-0.06861467368261506,-1.898044823399526,1.2689862591169503,1.00664070462489,-0.1862299296474677,-0.0652086615790468,-0.17485493166364682,0.5
0.3131009922549349,-1.081716826987873,-1.2884507984651266,5.292638165609369,0.509839634895875,0.17676786364950187,-2.6533617423132903,-0.1873310519643421,-0.434629246562079,-1.3262810710051178,0.36081825385598626,0.39177955124889424,0.05083340424980263,-0.12651499330257168,0.5078125
0.30125396808080673,-1.019707869337424,-0.9828161534475739,4.341884785630365,0.5268656414736699,0.2058396765871422,-2.462203128993267,-0.08991024022676303,1.3180306151248773,-2.174112399014497,-0.594596759242631,0.4775517565116378,0.09888371599297044,0.052120134203336,0.515625
0.025903826584413755,-0.0871863578710538,-0.04016367789414533,0.24459003157134357,0.05402581336875613,0.025940213612808734,-0.2012325414041123,0.008497831843326475,0.4396080106371725,-0.3592397244109613,-0.22710658715527496,0.06195585518835782,0.018911808345701834,0.03673632707535094,0.5234375
0.02025219770488699,-0.09858299505342157,-0.38678964749423017,1.2311753898495887,-0.00715448217833683,-0.028570348768608467,-0.2840729229943964,-0.11815313413555736,-2.049858930718924,0.9570341109061292,1.1216291968419758,-0.0892808157849055,-0.05377610867407411,-0.21115062789154643,0.53125
0.20024819006484462,-0.710324230479476,-1.0262329451549357,3.979091542644682,0.2987864520765245,0.08582773503478126,-1.7702021189245545,-0.1906208305860586,-1.6318304015058498,-0.14820705414406465,0.9660851540877428,0.1737362690653144,-0.005944133288222808,-0.21675077068547874,0.5390625
0.09836652564124891,-0.3185738313739591,-0.11595489711153058,0.8222196274435912,0.2029151062305187,0.0972073355850536,-0.7353742434415047,0.043229667055313746,1.835399808439383,-1.4391094293852942,-0.9561870885006908,0.23931475815199788,0.07351438772714153,0.15742755251669827,0.546875
-0.15644241231759018,0.5698158270705348,1.0586599602941287,-3.854374024592551,-0.19220872927315924,-0.027406999287917344,1.463604689567564,0.24053769984473058,3.0629482532440413,-0.8155549305449711,-1.7234467082762503,-0.027639579538454074,0.05810712876199743,0.3475773303261629,0.5546875
-0.11024117331572848,0.3741013369494948,0.4262924341075435,-1.78228285457891,-0.17974115846433233,-0.06312376496019256,0.9167230844852499,0.057264003238397095,0.006851885412882288,0.5378714484772515,-0.046418272434098705,-0.14343485078777513,-0.0206399503606126,0.02930482260221164,0.5625
0.08636891686735829,-0.33510328809286744,-0.768247228129322,2.6670808220669837,0.08444410922708802,-0.006967316133356613,-0.8821376689537718,-0.1962827227709184,-2.887272714528586,1.063596034428075,1.6018562178004305,-0.05033730343479512,-0.06473710090764843,-0.31230250865603393,0.5703125
0.0016667068112261269,-0.035369141594960705,-0.32533089914702046,0.9594064474667457,-0.039543249536197415,-0.04093406032835139,-0.1331173771601624,-0.11216950572053003,-2.124443627756033,1.0852863436552977,1.1533964558203755,-0.11860232142922353,-0.05956444710309503,-0.21341623599797904,0.578125
-0.201521946121095,0.692585685486766,0.8459458383304044,-3.455020967858411,-0.3216053255286729,-0.10765476480252148,1.7032069815137167,0.12762559280415922,0.43841715979444423,0.7612151908757816,-0.31850908517128473,-0.23999014383696918,-0.026274791262656676,0.09686889456292307,0.5859375
-0.11965956230424878,0.43537859608721613,0.8063228655967469,-2.940174663077915,-0.14709800951135907,-0.020875727382554103,1.1164580621602558,0.18284599167456397,2.323482114723305,-0.6183391786953338,-1.3087156602796668,-0.022687161221408035,0.04413011923612072,0.263994429429693,0.59375
0.08891352883960063,-0.2657388682534423,0.15746948511899503,-0.026023785107142147,0.22045924336335693,0.12439114982536223,-0.5728872529154733,0.13121727215674475,3.430173332995147,-2.220120338123576,-1.8261623597769887,0.3179299442138733,0.11740971568449649,0.31980504432083817,0.6015625
0.05280926224055599,-0.14574111394315287,0.25414602122287067,-0.48379934597904084,0.1547146409467582,0.09709117480285974,-0.28616904161092216,0.13475336607317376,3.134827217883484,-1.8882388506333085,-1.6801190419574312,0.2533915051198538,0.10180607230805493,0.29977156998144977,0.609375
-0.12002852314519454,0.41120614542796613,0.5037730817887922,-2.056396945832667,-0.19050084802972603,-0.06330424435053711,1.0121525590692257,0.07628933466022768,0.27260914700985983,0.4471311973328632,-0.19524002184217312,-0.14096524525553442,-0.014824610277717245,0.05863154067126539,0.6171875
-0.14779830290929594,0.46360250471116415,0.09945159259299172,-1.0111299862071113,-0.30871037089069,-0.15078012801339735,1.0641506253850357,-0.0894163715371382,-3.1903670411187566,2.3770149508094827,1.6734016790078323,-0.3780236664209024,-0.11996268586615148,-0.2810257585384286,0.625
-0.07600863285413145,0.21292384541437215,-0.23453412959179826,0.31456059081459214,-0.1977259755702714,-0.11609902955489652,0.44366533058484037,-0.14610463592800954,-3.5565491298710405,2.2121620030692557,1.9008369870088206,-0.30412906669386,-0.11627167433453486,-0.3367613675821818,0.6328125
-0.005964985057259226,0.006628914703586897,-0.10152080679259654,0.267832002258704,-0.024706870134042866,-0.01854440203516758,0.0001059830049715074,-0.04004354627703117,-0.8132143694547866,0.44625435807468455,0.4400657929487947,-0.0527206841325905,-0.023478139282316308,-0.08050540827514947,0.640625
0.13348473821095705,-0.44513109252785166,-0.33218599571320956,1.6227575616493608,0.24952505745523695,0.10682213137106976,-1.0574512530166915,-0.003169132108378971,1.2980501295254132,-1.334995946964684,-0.6499363870769327,0.25420092365555197,0.06497192907888198,0.09423687876691049,0.6484375
0.27029087894381154,-0.9234514912942712,-0.9796352697373631,4.1828537727189525,0.4591419371471869,0.17133715800306334,-2.2436066743305036,-0.11505956362175623,0.5237418405690867,-1.609398600181605,-0.17524270804269873,0.39091075746191556,0.06993914941773936,-0.019297481373544888,0.65625
0.21371143814120955,-0.7528024895705813,-1.035942789567469,4.07242851256226,0.32689889651829845,0.09969139652768039,-1.8677925341481272,-0.18263051385857482,-1.3437198719449863,-0.36338498577556144,0.8152105238571866,0.20815378204884888,0.005020875999479016,-0.19133407644451828,0.6640625
0.057416891729010586,-0.21667222707014022,-0.41817003168380223,1.5054329075111352,0.07041291342775105,0.009070047712645659,-0.5561228700670975,-0.09756320169387647,-1.2810094443524807,0.37550596775422723,0.7182638678490602,0.004604422472422677,-0.02424892548498306,-0.14373925527435194,0.671875
-0.008573879784803728,0.03531449911000312,0.1484514167792627,-0.47286758206431057,0.0051106217618066,0.013196887791831115,0.10597250855306552,0.04577341621795868,0.8087952178142177,-0.3808188442293046,-0.442504700118341,0.037644201102706755,0.022699478897839572,0.08307912759125735,0.6796875
-0.10470544263653388,0.3770672613443387,0.6680702445646213,-2.4616068316699593,-0.13335576860577023,-0.023226862556773187,0.9628369001323631,0.14701024519474787,1.7859344383603657,-0.4124090894489681,-1.010967809925045,-0.03353983064981955,0.031669443977342907,0.20629139882791941,0.6875
-0.2943403605333161,1.004663808943685,1.1379892826223073,-4.760490009958519,-0.4844302085111229,-0.17200222181800767,2.45612719539068,0.1517813522413125,-0.03014714047105823,1.4634755527329524,-0.10068326510328539,-0.38981846382809515,-0.05824480274501184,0.07427665117082527,0.6953125
-0.24397262561757604,0.8109525589792593,0.6874935633510343,-3.1982366238209066,-0.437144570050112,-0.17765193273640972,1.9440512790791797,0.036072616881149606,-1.746488681830859,2.1031244985634694,0.8508114938246598,-0.4221684589831095,-0.09757217328644074,-0.11095288972502854,0.703125
0.12521779044810719,-0.43726352519509587,-0.5489330984848505,2.2153523304360254,0.20064443050007708,0.06735959342325075,-1.0765956183201322,-0.08634315730426592,-0.38536681204217016,-0.4238029689859887,0.25911022774822895,0.14570810064475412,0.014954359442693152,-0.07189655379857218,0.7109375
0.2777318043071992,-0.9314633795261025,-0.8020945528398001,3.698177454848451,0.5003384771489073,0.20430209857391254,-2.2327448073413723,-0.046466124425902644,1.9147378948601268,-2.3669880380561024,-0.9280725239048417,0.48063597895828236,0.11137879961093872,0.11819703915403482,0.71875
-0.01382450257638837,0.062340791600992575,0.27180118656362,-0.8622414824115604,0.010365338905528227,0.024340911104822595,0.1875979371894157,0.08439670050998162,1.4976357846783408,-0.7115069473333544,-0.8172153061049809,0.07020839678995264,0.04138931506141299,0.15302671963124945,0.7265625
-0.18464800660540445,0.6213898357561338,0.6219935653991234,-2.7179041215142474,-0.31592026678502527,-0.11981046040269522,1.5065080636765713,0.06309067822124585,-0.6288257362409025,1.2327249507808802,0.26908859968085913,-0.27885532030341276,-0.05370864343225337,-0.01502576728029363,0.734375
0.06579018457528318,-0.24138328973348533,-0.4102771469589466,1.520989956453007,0.08953763789043628,0.019523967222421643,-0.6114482622763152,-0.0878888870944638,-1.0113785080383293,0.19445306774748422,0.5762006898012607,0.031064268056609445,-0.01486223599768176,-0.11913388342892425,0.7421875
0.1864361186638176,-0.6364841388997922,-0.6607885467616464,2.841788309009816,0.3195666020599725,0.12092515154177128,-1.5443682956008071,-0.07387956428182252,0.4697170034349711,-1.168148517754554,-0.18007540144384773,0.2765539998685281,0.051779810369023335,-0.0023272567708175237,0.75
-0.1287210308042488,0.4544857874443332,0.7016284204066571,-2.6764675527608532,-0.1817240917675527,-0.04555523186223846,1.1429245806625299,0.13851527946615527,1.3802457251045852,-0.08411942794978654,-0.8002133214770574,-0.08850922466116673,0.015333100386487476,0.1719726991892836,0.7578125
-0.3090627882798469,1.0647832520827256,1.3138003094229296,-5.34484841096042,-0.49212391716392684,-0.16408393673649382,2.621462327448352,0.2011871532159974,0.7713745779612822,1.1212874505627572,-0.5417364330572463,-0.362740699641165,-0.03805992665216781,0.15840613869835588,0.765625
-0.006913827610677576,0.013212955006266338,-0.05836488627688133,0.1382724150945872,-0.020751850915551408,-0.013640238112182892,0.021767071498725192,-0.02563007405545894,-0.5466030596550865,0.3123739842986261,0.2941276521288723,-0.03856127918600477,-0.015947274371030228,-0.05332385606478081,0.7734375
0.24892715508907215,-0.8742058738821658,-1.1842778584040106,4.675763049694421,0.38350045153934414,0.11875532595703044,-2.166967877293599,-0.20501560111466,-1.4196796283913813,-0.49816414256522257,0.8701153086861484,0.2500096353062012,0.009773514729475944,-0.20820630554167965,0.78125
0.10393497468025774,-0.37042228076510375,-0.5356484035167957,2.0732355346839313,0.15601203206126155,0.0452044892162027,-0.9231507251719041,-0.09959330232412038,-0.8526732707861728,-0.07581015671374222,0.5046499732868249,0.09064761691514378,-0.002743517401012875,-0.11313968547310801,0.7890625
0.005543951475002621,-0.013478769106274085,0.08382088167012255,-0.2162823690146239,0.026756421162836184,0.02015967411591035,-0.015355405718955899,0.034914182927388966,0.7418812942955624,-0.4159654766229629,-0.3998357138446871,0.05237172360594163,0.023570724351867405,0.07257020927533071,0.796875
0.2059841618580116,-0.6940840979361598,-0.6241530464616629,2.8304303494382568,0.36778106818181644,0.14801249351600826,-1.6679097752456802,-0.04453677590241082,1.2315130012323487,-1.6593020597068922,-0.5852994801351349,0.3462517946053705,0.07750540658236225,0.06874948289972513,0.8046875
0.20432346893638326,-0.7086048962597712,-0.8581718766516718,3.505701559973357,0.3312011752972964,0.11363811786786703,-1.738837236819859,-0.12823116874056262,-0.3929910765428859,-0.8095946211387856,0.29591953271314847,0.25025000362330324,0.030436119299590152,-0.0936679504544103,0.8125
-0.23845014276890197,0.7831895304078047,0.5665242465679414,-2.81780166795196,-0.4418842593329156,-0.1881872269594568,1.8632779504981132,-0.0018034556303165629,-2.417320570103316,2.425256503613193,1.2177997488702896,-0.4533577832978662,-0.11583618117745992,-0.17985539595041442,0.8203125
-0.5283305434143996,1.769910060817724,1.618100280025787,-7.304760723567855,-0.931324001075026,-0.3693004253136687,4.263419104947564,0.12275388082949265,-2.9400678065052706,4.126929476798396,1.3855274265590345,-0.8676702568490445,-0.1884996003491116,-0.1558391522552264,0.828125
-0.24390270945130657,0.8107872845676104,0.6924401198542167,-3.212158568281651,-0.4361452567121199,-0.17686699181299734,1.945453147486835,0.03789253048949632,-1.7100820281786568,2.0846698104499337,0.8311736202106553,-0.41973087147185983,-0.09653938845402728,-0.10754024814241367,0.8359375
0.17319383312000056,-0.5861468606675933,-0.5482951483429302,2.4482067921674906,0.30649086827267025,0.12155918294303589,-1.4122515287863897,-0.04553979471248985,0.8817938459794501,-1.3171713301403933,-0.40936935899279525,0.282674577231269,0.060956532689960284,0.04228259972537159,0.84375
0.2315359825942684,-0.7510000354483191,-0.3547430924734613,2.167022625952051,0.4620550944363756,0.21429953914213212,-1.7518984214777058,0.0718156039428147,3.723125876771709,-3.075657600351678,-1.928364838515418,0.5240238568375667,0.15425460895339935,0.31166558712860665,0.8515625
0.10014530535044439,-0.29303304431213106,0.25086203483714964,-0.24381228654112708,0.2582111818932644,0.15011599508113257,-0.6177169698087038,0.17351662107894708,4.355210130220717,-2.7538106250527776,-2.3237658982719784,0.38629079284134293,0.1462922985280619,0.4096694365381663,0.859375
0.07647565424380111,-0.2452918175860481,-0.05864019588302891,0.5453706511833508,0.16234051893436593,0.0804259162855876,-0.5611846568513232,0.044646089892503446,1.6404185078538431,-1.2323025801097864,-0.8596002186688393,0.1981105741385594,0.06355794790369938,0.14394372281172943,0.8671875
0.06548930044407374,-0.24857844861973089,-0.5091545090400005,1.8087933117073713,0.07467098411147532,0.005502954864819837,-0.644065637145656,-0.12293812943086074,-1.6901776893120357,0.5456959991415443,0.9438291662696128,-0.00862515074622292,-0.034345027699348815,-0.18681677644754327,0.875
-0.03286582778620384,0.08361662973599844,-0.18388118987499363,0.378590043179283,-0.09563970098369676,-0.06030259907957373,0.15848582651455728,-0.09162326551638848,-2.076324716908413,1.2326577123781077,1.1146969967230187,-0.1610345673188667,-0.06503548520717156,-0.19967272243507853,0.8828125
-0.035852662198094035,0.12124246266763086,0.1585066177257835,-0.6369852134977784,-0.053760943194618924,-0.016186863932086834,0.3003943904074596,0.026238570106138573,0.16051868174040257,0.09144713433469061,-0.09969447065317281,-0.03574057916685088,-0.0014193056483097863,0.0249593493221887,0.890625
0.108705784617098,-0.35859008655242697,-0.21811137733721925,1.1684724373921733,0.2110974921596802,0.09454731782571964,-0.8438189930323962,0.015966745700230697,1.4176103719531068,-1.2732837876628034,-0.7243362324906367,0.22825349174162055,0.06341657384636386,0.11266872873768045,0.8984375
0.1304320657825767,-0.4563320766783465,-0.585169932762089,2.3472833054146136,0.20696093403081792,0.06805488335466511,-1.1253973827280952,-0.09480007620313574,-0.4940242190966609,-0.3936169199912124,0.3205614895847274,0.1462732313577832,0.012830676050223304,-0.08434490175790019,0.90625
-0.0906008403451041,0.2631871425182552,-0.18005471222436642,0.08510064571161556,-0.22215428450965807,-0.12505766528917722,0.5643943134906492,-0.13928973576752718,-3.5733557915221343,2.289813496245523,1.9027400516597637,-0.32483371531862304,-0.11959377170203672,-0.33427811261283735,0.9140625
-0.2719714195630752,0.883162240061359,0.5134655287298863,-2.8268702646509767,-0.5231367159221142,-0.23332410107933071,2.078921707850939,-0.04881474954550188,-3.658562647837591,3.230600585798577,1.8772563870273211,-0.5700702790857962,-0.15812863583112188,-0.2950290831988459,0.921875
-0.16532563175620546,0.5684409077416671,0.71468058729902,-2.8945129660212827,-0.260038520120231,-0.08498356079660349,1.4041852290894317,0.11213776932060397,0.5069193608137256,0.5505394823783373,-0.3401518655362733,-0.18761704859456388,-0.017197908022827155,0.09394194842229425,0.9296875
0.06732768805414263,-0.17601866611136938,0.44393876552670725,-0.9671885533070902,0.21351494272741134,0.13995488146611018,-0.319867742659188,0.21377600611271078,4.7985296771156385,-2.818680321915941,-2.577028483002626,0.3691490818053883,0.15248157004582116,0.4625096848711592,0.9375
0.1173607875577799,-0.3526327275313208,0.18260506683321595,0.0413677543372413,0.28671811173904205,0.16010471868085438,-0.7632468784454509,0.16430639495771482,4.3507181363332315,-2.835229289279484,-2.3148016612090925,0.40963155651033883,0.14961141460112226,0.40458181275752875,0.9453125
-0.02282416655655335,0.07569843528201906,0.09941421969028578,-0.40002459769220244,-0.03331312062299618,-0.009670351590631182,0.18822154308176894,0.016476685634359212,0.1018321320279401,0.05495035600430933,-0.06431578558290241,-0.02197523103684897,-0.0004157856021943707,0.015896053349237552,0.953125
-0.09333017115297863,0.2829489642308388,-0.04007888576352213,-0.3371637029396816,-0.20816334155223273,-0.10866283944433272,0.6331757546550847,-0.09234333894611328,-2.6967966149226013,1.8518688805537,1.4274343210445455,-0.2773547080021678,-0.09493279168007523,-0.24599717195385443,0.9609375
0.018214905356836536,-0.09173522020655218,-0.3848404321199253,1.214734250024365,-0.0115956740927867,-0.03070412695422665,-0.2688443136426442,-0.1192836568848963,-2.092529948672569,0.9891312543230196,1.1442468324108659,-0.09455058902060648,-0.055416307827228374,-0.21493482551097415,0.96875
0.12624517769485116,-0.45077868288198597,-0.6724367761944593,2.5825887489825545,0.1854805350952381,0.051300366672676866,-1.1270626070552883,-0.1289454379722356,-1.1917818384650993,-0.010393215767839461,0.6981554701605795,0.1007199566047299,-0.008072161272776187,-0.15316299390170854,0.9765625
0.06627167404576824,-0.25607808440390034,-0.5690895289547041,1.9872677841135564,0.06819680342725241,-0.001992122242090378,-0.6712204013198521,-0.1432903853128154,-2.0706459432064293,0.7397760609325802,1.1509630191887745,-0.02978764683632977,-0.045280607585081845,-0.22534249616036942,0.984375
-0.06103241012380955,0.17527570168435166,-0.1340068619939721,0.0937084794744779,-0.15062083387609143,-0.08529377117903397,0.37381904331368637,-0.09808928375015499,-2.48353409982547,1.5809235503280996,1.3241130693655159,-0.2226647740761921,-0.0824266695265504,-0.23304801794251617,0.9921875
-0.09893328409817967,0.33510311086118305,0.3714909423420007,-1.568281258029239,-0.16284382381978574,-0.05793474760888526,0.8179137902574702,0.04752262844333734,-0.06812225872210605,0.5177138308169278,-0.002025245265683763,-0.1332377008891398,-0.020456797020720938,0.018984689306013387,1.0
-0.06313195421959153,0.25534105212298663,0.7516239996666245,-2.503446708479239,-0.030284402731337853,0.03533541310123416,0.7013596682136667,0.21154745854165685,3.4438275429913094,-1.4754775725499216,-1.8937016279874992,0.11757174613762517,0.08764098721874092,0.3613033544504404,1.0078125
-0.0016106432937294224,0.05433550323483792,0.6375389434214975,-1.8693397855198413,0.08924830375842338,0.08909664793937433,0.2303630944022092,0.22357496292631723,4.29468997150512,-2.2183776159903843,-2.330920870816687,0.24853296102726635,0.12429755317005156,0.4302149011014969,1.015625
0.12202903942931163,-0.3992895162303066,-0.20221046517334815,1.1877830482846166,0.24278493733809625,0.11209531267130161,-0.9314943517249267,0.032912816923590334,1.874709839138701,-1.5768015553870376,-0.9685264633364632,0.2724708463211606,0.07930373590698403,0.1552206061030747,1.0234375
0.2541511285566332,-0.8770695269461414,-1.0236358767172147,4.232793486131617,0.41739110170984983,0.14706358888300258,-2.1465852556496823,-0.14414944295855903,-0.19942569787205147,-1.1569564285155158,0.2094826411276629,0.32759584132010183,0.04598568842017859,-0.08726678893740683,1.03125
0.24083531450028453,-0.8191586739090587,-0.829242490954268,3.599696993675445,0.41541702890668875,0.15890790320687712,-1.9849082413588581,-0.08708098019264447,0.7629438173547582,-1.5896017043206414,-0.3182199393381703,0.3654838452543713,0.0710104711156268,0.012693775937892273,1.0390625
0.09510901947236358,-0.30134445383220826,-0.03967738398642272,0.5809315864791517,0.20613213282149254,0.10399849885335147,-0.6855298165629766,0.0671648888163189,2.2615070593184803,-1.6452152341732873,-1.1894811193004682,0.2587261250279312,0.08506248473208362,0.20117093126052296,1.046875
-0.037898394756120245,0.13445989999232735,0.24097054250651742,-0.8883676928998483,-0.046920790964802096,-0.007149442650919979,0.3451411804002862,0.05324507452957272,0.6569089314658929,-0.15778795995502337,-0.37128361255382675,-0.010426278355401771,0.012452213687994814,0.07542766922458727,1.0546875
-0.18580425543382606,0.6008566495885561,0.33465620734116236,-1.883269593140259,-0.35890965428818955,-0.16099930764115492,1.4132170353248936,-0.03886111051517142,-2.600060385098038,2.258754581006184,1.3379607275818828,-0.3943583502248406,-0.1105625807396703,-0.21189683861752892,1.0625
-0.4192206586784809,1.385506305871276,1.0641940670224859,-5.153673145413431,-0.7692849880416619,-0.3230985734572485,3.304124777252757,0.020302128014219954,-3.810862013479121,4.039083518599749,1.9024603501333084,-0.7732822361270676,-0.19176173304084293,-0.2717107586553275,1.0703125
-0.49918665865389455,1.6632980336132905,1.419051646154234,-6.581425594755621,-0.8952174799199039,-0.3641576248015358,3.9891793108914646,0.0773933647032006,-3.518019375540343,4.282428096831389,1.711700629119281,-0.8624898615184213,-0.19927749293157668,-0.2213404963536897,1.078125
-0.1758024424946461,0.5516359362182869,0.11135536533667126,-1.1828447276603729,-0.36840649595125385,-0.1808273723718061,1.2638562257713393,-0.10889547537007341,-3.8441183426841126,2.853072619383683,2.0175304860571965,-0.4531588285479357,-0.1443898495816453,-0.3392779237025462,1.0859375
0.2578897388566555,-0.9236405453981376,-1.4481973960191452,5.490914706565512,0.36583750875038756,0.09219911268654526,-2.3229827173633284,-0.29027345948977407,-2.966630937554856,0.25696715937397724,1.7140343058283642,0.17241377359679724,-0.0329140770568931,-0.36569567057369645,1.09375
0.2935169337763634,-1.001814344754111,-1.0532799201855445,4.511545525092907,0.5001307171438258,0.18738538479532363,-2.4331084519593427,-0.12116450299217543,0.6399375900662878,-1.7844534804736334,-0.2296866243951431,0.42848941122580636,0.07789663196246038,-0.013726661025178402,1.1015625
0.0017307859183157228,0.029806018087306704,0.4683784470235687,-1.3582199113956053,0.07275487466933012,0.06932578706203632,0.14705984248258022,0.16696784472461873,3.2396361907699127,-1.6886963353339794,-1.7576121094855144,0.19209121752454156,0.09463672761564956,0.32374609502555335,1.109375
-0.09365065461340223,0.3463726679222865,0.7130556437051762,-2.5385061441489434,-0.10282879533173277,-0.004464713710825061,0.9015711658679635,0.17216519481840523,2.3797168540279063,-0.773761617723151,-1.329001455964222,0.01567622031347626,0.05094647705441987,0.26281810161231656,1.1171875
0.1484535378023281,-0.4851398978798077,-0.2568930154668775,1.4765521674742916,0.29285912720783236,0.13410224970161752,-1.1353651880273326,0.035869254009986314,2.196598793179938,-1.8752846390538005,-1.1326297466528714,0.32574515395655007,0.09381932888362625,0.18060528642326823,1.125
0.36336849895079937,-1.1854941918603132,-0.6615681419102416,3.7063924995237816,0.7085646663606899,0.3205472879707917,-2.7824080893082668,0.07539707101587555,5.117620359855372,-4.448043085717401,-2.6321869158407027,0.7793248818491938,0.22053413829425697,0.4165159647135724,1.1328125
0.3184096637257259,-1.0217908229186967,-0.371366576847675,2.638424938840055,0.6505934430950584,0.3101020542729344,-2.3653534106617986,0.13941960392880512,5.895090620547977,-4.628486725131523,-3.0726040129356473,0.7645964036776222,0.23395326598699467,0.506299415689839,1.140625
0.1309106414415583,-0.43960902867161183,-0.3663476382143505,1.7101226825556985,0.23892561331763953,0.09912791822751468,-1.0517942251136807,-0.017389273290319435,0.9969643143025032,-1.1684145733749358,-0.4892783380707684,0.2330396810027884,0.05585519831160815,0.06510286058995969,1.1484375
-0.07377674289749844,0.19978970811619892,-0.31274901251933473,0.5560876740132374,-0.2037078611462881,-0.12447735920984569,0.3994794424414354,-0.17167268766996047,-4.0249788566469595,2.4411318086585387,2.155226939901221,-0.3283502101932943,-0.12923652674326325,-0.3840761896870992,1.15625
-0.24921597872335738,0.8092767949561611,0.47172166805434995,-2.5929456247707856,-0.47911749674212156,-0.21357914628463331,1.9049237306216276,-0.04429796092057729,-3.34224465267467,2.9549449526805853,1.7154906107312626,-0.5213993104084086,-0.14451116469000613,-0.26950677327605727,1.1640625
-0.2774633423256563,0.9463284445892484,1.0655783563552939,-4.46759551717308,-0.45759799411252217,-0.1629964403733822,2.3127483181979196,0.14060732490413783,-0.07466728716262157,1.4045673994131578,-0.06910491792908476,-0.3700017475181575,-0.05617605466662059,0.06532065331588027,1.171875
-0.13795654547819866,0.4613856129195912,0.4409673655779004,-1.9615042048369868,-0.2385874862264262,-0.09218144333351148,1.1152052254121703,0.03913808927505341,-0.6213436271052634,0.9993316261472319,0.28278348766345746,-0.21642998652643772,-0.044114894139966054,-0.026152309691550323,1.1796875
-0.06641493636789181,0.16687020897165816,-0.42790764620798616,0.9280638382951574,-0.2034996476299355,-0.1319844234651461,0.3069010086489592,-0.2057113791835693,-4.605247696530255,2.7076476568591357,2.4734326504647317,-0.35150456949719017,-0.14441501175405283,-0.44420383445489975,1.1875
-0.18670546588596992,0.5638555531911312,-0.1415579759695595,-0.49506146300141324,-0.4278523816133198,-0.22803375446456933,1.2502447298330601,-0.20685783045222172,-5.836193429541233,3.9381603166914805,3.094128177944334,-0.58210477497905,-0.20377415106745758,-0.5360135448708994,1.1953125
-0.2279798179867641,0.7563155527705963,0.6313103550685722,-2.955673238546928,-0.40992443912859616,-0.1674441054022287,1.8132193404168095,0.029766004238084603,-1.7047874485292618,2.004323815758658,0.8359729293375395,-0.39834073271861514,-0.09327254936852673,-0.11136143323290466,1.203125
0.027128545478207894,-0.062451090675672484,0.3038637731894801,-0.7547024574409315,0.10511527468282326,0.0749562859312914,-0.08729816516970203,0.13035350634471005,2.7936316137628365,-1.5821278400741614,-1.5038334513399665,0.1996492199952863,0.08675733914659814,0.2720774184988951,1.2109375
0.3036702637860779,-1.0131384547729287,-0.8105970905032074,3.851361849589719,0.5565161442027066,0.23236628312596438,-2.417021851600432,-0.02745497552631835,2.543233321688365,-2.8180107313002813,-1.258159195708559,0.551762342015304,0.13456520108983067,0.17416589213437228,1.21875
0.24761453384224863,-0.8489535958644081,-0.9316176198532409,3.931528891447505,0.4161525038786353,0.1523118152932177,-2.068449938379322,-0.11732301297803863,0.25252002124666545,-1.3577038485511976,-0.037741145727195995,0.3449295440182202,0.057593702834049736,-0.04045386138893753,1.2265625
0.0020102008281988474,0.004564472017317198,0.1648829682312525,-0.47129989941387024,0.03030354399481481,0.027360426395698162,0.03759411765581358,0.060396108027862154,1.1952187660005946,-0.6349560265966431,-0.6478232721274484,0.0735979290452411,0.035908545012817074,0.11890974612325882,1.234375
-0.06047192650277665,0.2464016599529183,0.7432900547161424,-2.46629044292762,-0.025658961743575456,0.03722142101781954,0.6797305322438749,0.21081061633194262,3.454713261000138,-1.4963359845692785,-1.8995956624250572,0.1213429585233401,0.08851415215304168,0.3619467580329878,1.2421875
0.05686153650008826,-0.16898214021437735,0.12907524609594398,-0.09828262532907665,0.14593371390200094,0.08445080533663388,-0.3581606177040849,0.09411575402689233,2.392440425870577,-1.5253195746384745,-1.2764099268216174,0.21572163743887562,0.0813419478896535,0.22464159971252526,1.25
0.0776802655706947,-0.26055313724084134,-0.19550282232046656,0.9521809415431258,0.14601185361451566,0.06285160220530586,-0.6187478062043124,-0.002322715288881183,0.7503734860929521,-0.7774052016288011,-0.376524145859348,0.14857624136927688,0.03822806219505794,0.054498699248758706,1.2578125
-0.021857802540290905,0.10475632248442338,0.4821473878135037,-1.5140698443093878,0.022532562818319415,0.04449463094984095,0.3171472324729833,0.15174472334830325,2.7102139386826027,-1.2994877824555129,-1.479671495592347,0.12984120576094818,0.07470924063369673,0.2769332383635886,1.265625
-0.03250846435001342,0.14954929831483527,0.6233929120750634,-1.9793328408807378,0.018955813804729816,0.052052865470227826,0.44163645771241083,0.19237037506531157,3.3832056009632554,-1.5951672546697098,-1.8492824669240737,0.15452610117000007,0.09192956513528733,0.34716304972739587,1.2734375
0.054494547173656815,-0.2180281878647031,-0.5507616109994526,1.8760669587992638,0.04480374937206067,-0.01272963838367137,-0.5821462307472184,-0.14682249957299096,-2.258195157704748,0.8945417738655758,1.2476862900136076,-0.056185793273263014,-0.05293803419931183,-0.2409257383753634,1.28125
0.05881844849151213,-0.29488708321654455,-1.3135299056858178,4.125903856087036,-0.0531542401108463,-0.11372177533375885,-0.8818618927609817,-0.4112891065877631,-7.293693487793649,3.479928494067178,3.9836693758504733,-0.34143720424562646,-0.19688659543239503,-0.7466819426506847,1.2890625
-0.01601279667488364,-0.000701244877942551,-0.5647415389948386,1.5723267603471158,-0.11208675371270056,-0.09419973966725476,-0.09326543788024254,-0.21132478166360488,-4.203229082753391,2.2514725113812903,2.277187286045626,-0.2619442350257036,-0.12298049424495593,-0.41753702082201544,1.296875
-0.026215482686160793,0.0964461154271732,0.22636985314187327,-0.7889452015083648,-0.022952691545209875,0.004160266926916419,0.25783675195243366,0.0581564598456455,0.8699637042670646,-0.3235631892580265,-0.4812240119268914,0.017892715557755675,0.020873849126750523,0.09343253588305861,1.3046875
-0.020576520067919442,0.06273464755239715,0.030257184630611934,-0.18712762826016502,-0.03827910804265376,-0.016699270879949973,0.14888533520827105,-0.006034861232377292,-0.30868959815438707,0.25715099137355946,0.15957200945181887,-0.04259743947453992,-0.01179093974545289,-0.025915646513863213,1.3125
-0.12448933481350916,0.38527761477290917,0.028584205054234084,-0.6883110894694452,-0.2671463668773854,-0.1342701082642029,0.8753874811754979,-0.09453105608965665,-3.0535892271738447,2.1901573400194043,1.6080611257269006,-0.3389729990172471,-0.11134736334946413,-0.2734398688346552,1.3203125
-0.20438421632579734,0.6940835211163172,0.7613448806594547,-3.2198967518228385,-0.3394863096409315,-0.12274738252223467,1.6934942943007631,0.0954916165022599,-0.20474828354282584,1.1110861983790135,0.030699348345669387,-0.2803711310078606,-0.0454037895132136,0.03289039651506075,1.328125
-0.07233442653762227,0.29274311024395955,0.8630372107026268,-2.8740361414577964,-0.0346349667679203,0.04041513158001196,0.8051918111198765,0.24293211968657843,3.955651174316914,-1.693908631066198,-2.17497385024584,0.13490320383045568,0.10043236245798372,0.41484597226954834,1.3359375
0.11700511596642375,-0.37000124019094943,-0.045593769258070425,0.7044222341914852,0.25355901449624907,0.1279351448971414,-0.8410948871073115,0.08362183693571505,2.7973743372387383,-2.030615018072109,-1.471708870938932,0.31872302974608524,0.10483368746316991,0.24908921260406883,1.34375
0.11206194095501379,-0.3940583737528207,-0.5230815700711201,2.076009018473063,0.1751864876355523,0.05601949912488991,-0.9750996489399314,-0.08845285775013109,-0.5589135611646471,-0.2699896808520911,0.34775554503529144,0.11812778470650448,0.007397769185770211,-0.08569897191206337,1.3515625
0.01448145513010892,-0.057611283776890634,-0.11624651256159846,0.41137676390201444,0.01798481899515412,0.0024070738171772677,-0.14825940091953338,-0.02794324744888652,-0.37720900383260236,0.11857730275035731,0.21065907271733025,-0.0005366844011834984,-0.00679408678079902,-0.04183967874913177,1.359375
0.03590293056838665,-0.10316038521216854,0.13898372145701268,-0.23013296988251625,0.10123417903217613,0.062094418196908814,-0.208013011612765,0.07995069755444258,1.9111780099882172,-1.1705038429329346,-1.0226118384619216,0.1603331763232224,0.0632463879885903,0.18166607414285788,1.3671875
0.05788366738396627,-0.175917943810008,0.0846788035547192,0.03583687996867453,0.14192944192515528,0.07935415764874273,-0.3810349937114759,0.0794499755981196,2.122595886676622,-1.3884238832878486,-1.1285517078031977,0.20168143080253045,0.0736951207824598,0.19705461778061406,1.375
-0.09418698776367311,0.3199398354628346,0.37369780946904047,-1.5500066299947277,-0.1517638616435297,-0.05219080854137809,0.7854170173654149,0.05240119850610917,0.07465414376175562,0.42174918343914747,-0.07744223739622338,-0.11838572400983698,-0.015446924921082029,0.03198008997174316,1.3828125
-0.21908464416903425,0.723413022262217,0.5671197756700914,-2.724180168672285,-0.39905749219546155,-0.16625928542956883,1.7277347623084134,0.01476310352090538,-1.9034965857801176,2.0616376416403184,0.9464706762256964,-0.39831016487213494,-0.09717606410686505,-0.13332054312145541,1.390625
-0.06155895450124966,0.18151715174929145,-0.0733252026919371,-0.08466721915711897,-0.1429368042888495,-0.0773508568882016,0.3988085844431333,-0.07714081746865391,-2.0854682256504504,1.3776495135686961,1.107824909595548,-0.20002078284629976,-0.07106558601552337,-0.19311152521423272,1.3984375
0.2061614589810669,-0.712354885922596,-0.8375421336411693,3.45409250688638,0.3378905586796526,0.11864395556632486,-1.7448615078343144,-0.11937705973852017,-0.20523938701314245,-0.9171040836011966,0.19413570945996722,0.26350984667257216,0.03624259832200087,-0.07536701987258587,1.40625
0.2594822802999124,-0.8706983712711197,-0.7518141923336209,3.4639383775816603,0.467242511394509,0.19068933009934388,-2.0877658994312003,-0.0441168628361462,1.777617263171023,-2.2056691364767134,-0.8603543461054028,0.4488940750030504,0.10382538164936454,0.10911388770609262,1.4140625
0.11300296787321351,-0.37475421310415674,-0.24922225023778302,1.2808203329484693,0.21619715836435927,0.09522238932904684,-0.885228127734022,0.008734415867557752,1.3206631005809712,-1.245278422203859,-0.6706253683222536,0.22846597236068572,0.06153705404320594,0.10190993220207663,1.421875
-0.012409407754323627,0.02699843298315613,-0.09768981138220958,0.225552531810015,-0.03825053834401537,-0.025242755955162722,0.046046733755948165,-0.04407735762312395,-0.9562735532794023,0.5519696699113328,0.5147207675674833,-0.06943409907339539,-0.028837175052660296,-0.09298340722153342,1.4296875
-0.052945705601554545,0.1525084377580099,-0.10400530782106791,0.0459574703562133,-0.12854433842558505,-0.0719385186993851,0.32782870437647904,-0.08064090440108156,-2.068046042698582,1.3269228095452805,1.1015154855194587,-0.18757055565943356,-0.06882096144700721,-0.193476154801912,1.4375
-0.061156389115353496,0.1909910576729939,0.054801883300762695,-0.4572999360188195,-0.12421132272755478,-0.05918213402723244,0.44160405546565645,-0.03174889478658048,-1.2112282835690764,0.9244045695070017,0.6331254378316629,-0.14886830646484855,-0.0458168763610844,-0.10543123656268995,1.4453125
-0.04383185115933294,0.143624467543636,0.13662713304566693,-0.6113386077656101,-0.07430269956235416,-0.02820398711741714,0.3492900876178808,0.01171100987800698,-0.20059550044467678,0.3166326556500923,0.09168220427566116,-0.06739742232773602,-0.01334931865830403,-0.008845722918411795,1.453125
-0.028214725677167464,0.09110518845609829,0.08617972656318092,-0.38855836574256114,-0.04701527955011448,-0.01758363464394293,0.22218288741592518,0.007157848202590149,-0.13018601114057,0.2030294199460095,0.05998836953216319,-0.04278026986219792,-0.008251279490219364,-0.005997779237117561,1.4609375
-0.06914016597288333,0.2290788446503086,0.21280189805915256,-0.9587651562745753,-0.1193819016342815,-0.04628495453948214,0.5531764774047168,0.017021835411152066,-0.35286717173816035,0.5195669144206757,0.16473432796138873,-0.10999174697999363,-0.022778795026167316,-0.017519082276276736,1.46875
-0.10390872869574866,0.3541133098001547,0.41838975229890113,-1.728075120623586,-0.1669854114089997,-0.057014387937036955,0.868862256683395,0.05992123866338669,0.12035825471294138,0.44596176012945343,-0.10620041293607313,-0.12845944555283775,-0.016027699885005752,0.03912908854405509,1.4765625
-0.027090799601528066,0.10747683618854131,0.32133626143263594,-1.0687960887860637,-0.011720407512339543,0.016253155220012146,0.2971243763874847,0.09077248403392156,1.4850794476775417,-0.6393451299536459,-0.8165995202602261,0.05244594389123403,0.03851570936848452,0.1556156139221182,1.484375
0.07599610555114636,-0.23365374353987725,0.0653040368770362,0.18130732106712025,0.17887083297981976,0.09706435786298696,-0.5142404661370436,0.08786541257517047,2.467162122483057,-1.6563178349242547,-1.3081235107793858,0.24560194954731285,0.0871917077625823,0.22666030806335605,1.4921875
0.020519444915241318,-0.05600034002104623,0.1304516997980757,-0.28106240304161634,0.06604771029736728,0.04348830010052966,-0.10286659237667166,0.06381336940508331,1.4488435653561964,-0.8554894670248502,-0.776773118266702,0.1129068350659892,0.04681088552864108,0.13908912107549912,1.5
-0.15075650108250732,0.5035906849752421,0.4699822905873293,-2.1084007647894207,-0.2626971722910483,-0.10264308398463687,1.2152649685640178,0.038392515490201,-0.762450290340124,1.1338868187363744,0.3548528385085347,-0.24186679380617118,-0.050785566164990935,-0.03716407794393856,1.5078125
-0.18982262474785577,0.6261760054246247,0.4866985223724959,-2.34637148064829,-0.3462339249397964,-0.1443784130936998,1.4941152818918992,0.011287025617514225,-1.6783093348818856,1.7995009935996034,0.8350480784278235,-0.3464091998515846,-0.08477738603481583,-0.11828914044284423,1.515625
-0.02120058893705429,0.05327083638834203,-0.1125141223837155,0.2277245714800559,-0.05982593216853131,-0.03726100847739017,0.10208034082409374,-0.056748869844308276,-1.290217551713224,0.7654537807078694,0.6911458203425818,-0.10047304440044262,-0.04007049185878477,-0.1237978753398748,1.5234375
0.14924984162481753,-0.5338253406196005,-0.8119218312120317,3.1020747758384775,0.21660292675350135,0.05802684054154173,-1.3380571304381093,-0.1584344687689918,-1.527669425811292,0.047811616416548776,0.8890362232784806,0.11167675533967285,-0.013102026789271312,-0.19279497932899745,1.53125
0.1600072177454266,-0.5696018389176024,-0.8380707553867455,3.229706043919139,0.2366520673758331,0.06655798350141742,-1.4222627703692312,-0.15851476260114558,-1.419884777570487,-0.05939280891472147,0.8357153896199522,0.132122790140122,-0.007942046320268778,-0.18499158181132055,1.5390625
0.10083469598709746,-0.3303816869225239,-0.1689129286016025,0.9853586930444722,0.2006893389304126,0.09262275924151528,-0.7708839295696672,0.026596340013286247,1.5399868339912348,-1.298314233261504,-0.7948953079197146,0.22468304547165602,0.06540900825163586,0.127303860765915,1.546875
0.10471305257598218,-0.30025570452899714,0.336633726058725,-0.4721409158323536,0.2803719826189015,0.1670953819529103,-0.6189548021617185,0.20753108805800863,5.053917215665479,-3.1356893199899094,-2.7013071801732536,0.4329778830625278,0.16724757654988698,0.4784843641061468,1.5546875
0.14596105583579827,-0.456306277931288,-0.001317806627718319,0.7174528053710305,0.3235525438144261,0.16670391394530276,-1.0275118522555486,0.12367567775606494,3.858812989637578,-2.7201357826068895,-2.0358066240268036,0.41881962654436117,0.14107617104033632,0.34779046496835264,1.5625
0.15178980590501465,-0.5427160461134801,-0.8243078112148029,3.1505104789323233,0.22041676109920078,0.059059354415597565,-1.3598401803521483,-0.16062884868709856,-1.5430254163973034,0.046297641000387336,0.8992087114723363,0.11437359919211199,-0.013100083935646248,-0.19509643427120527,1.5703125
0.10535144130251207,-0.4241938147045224,-1.1340098821022941,3.828504523686478,0.07453133183708643,-0.03629941718128563,-1.1446235417023223,-0.3087843472144435,-4.85627940962413,1.9881111631728932,2.6788610531094803,-0.1389041567635517,-0.1175724483883585,-0.5148303422037193,1.578125
-0.03319552168982922,0.06924342717029018,-0.3670342489309058,0.9121117903311603,-0.12206577240622914,-0.0861075669505781,0.09602153451919211,-0.15633997413899292,-3.321671008257769,1.8768288085008653,1.7899698537174615,-0.23378462006856116,-0.10093924068999989,-0.32450431179851247,1.5859375
-0.25792086101165046,0.8724240990048348,0.9134593913518007,-3.92508000107643,-0.4357240671059124,-0.16189309149724887,2.1215750813386998,0.10378511410842989,-0.5850066081058312,1.5717325236110506,0.2148684364147081,-0.37303272005460536,-0.06689864467070027,0.008964185527765178,1.59375
-0.3674855633242358,1.2594141180144787,1.4794253201064713,-6.114074028989677,-0.5970261277821635,-0.20702059967418202,3.088989035422579,0.21003010746967565,0.3535391764639826,1.628278962347413,-0.33769543763330395,-0.46395635701705873,-0.0617057063620334,0.13192152324902287,1.6015625
-0.22044673858514757,0.7622425911411588,0.977972441902286,-3.9329072390968545,-0.3445721997057887,-0.1108244934922516,1.8831601853874524,0.15794304830580294,0.8312165206529897,0.6531747997433366,-0.5380300054106874,-0.24211202488355632,-0.01876345746605285,0.14108361265593491,1.609375
-0.055011247465485025,0.20969371989354446,0.49999340041772466,-1.7294816997386653,-0.04814880805735033,0.009472629576807076,0.5563149107669435,0.129742545862478,1.953289282878223,-0.7468536116453376,-1.081533276957287,0.041450536575183425,0.04638427574300317,0.20997099327070656,1.6171875
-0.09857092769649436,0.35720300011043826,0.6539861240308285,-2.3912660006906727,-0.12205966138537244,-0.018222934202039996,0.915202301281534,0.14713450927800065,1.8492599811172008,-0.4773653170267198,-1.0432631883493515,-0.02208031984250015,0.034744774391594395,0.21107214638270808,1.625
-0.07586888480903053,0.25204307057653175,0.24494110764258512,-1.0845503545130146,-0.12957547973932024,-0.04928569097535252,0.6114136495431778,0.022709944091799855,-0.3129877205901397,0.5320161285717637,0.13895356002209394,-0.11635933470947274,-0.02291670788773702,-0.011613643595317396,1.6328125
0.2614115888665832,-0.9214694478810785,-1.2820840459246408,5.02351742023518,0.3971063538341759,0.11936392105919852,-2.28898356825027,-0.2287716661887239,-1.7515284892212486,-0.3877812451016232,1.0546802637092645,0.24778238647701878,0.0027420332630941615,-0.24481104775147652,1.640625
0.47082669141146477,-1.62234991550489,-1.9025491371935728,7.858382087820304,0.7702041770763144,0.26946403404268027,-3.9737478679893212,-0.26985270002209794,-0.4330922946272007,-2.1044236868934165,0.42366034253815293,0.6013609385032488,0.08224444024477386,-0.16805354361646202,1.6484375
0.12743805183109605,-0.42638564770143367,-0.33585825754411014,1.6044295864467164,0.23564018713875726,0.09933599134562009,-1.01630492683838,-0.009632750728242838,1.1135843205839822,-1.2090547447387319,-0.551813217623432,0.23546556860197826,0.05843155402532252,0.07739371269626408,1.65625
-0.26607190627962635,0.908286738826613,1.0338969493412293,-4.318688206722125,-0.4368162337755278,-0.15457526235723593,2.2219216019471704,0.13909673810582604,0.013257447279166017,1.3041612894311165,-0.1112924450289042,-0.34957566911963,-0.05142003535919055,0.07090309132201793,1.6640625
-0.08990660169410022,0.2852567980568826,0.11673903272364877,-0.779016943732202,-0.1784880040958943,-0.08297316647866025,0.6642528197063279,-0.03420242134258445,-1.5448511651149504,1.2402752352105824,0.8041532265778514,-0.2060167057429978,-0.06116146363754968,-0.13159930633587347,1.671875
0.23492054406766932,-0.8082152321415426,-0.91489017825935,3.820652347444647,0.39052451627588153,0.14042581941122093,-1.9740044428560486,-0.12212831268796341,0.031779071698543,-1.1811245436920013,0.07710772710648002,0.31544136555303565,0.04876918567017608,-0.059165334553655656,1.6796875
0.041351467550957206,-0.11055039346423323,0.24932281154759925,-0.5261020321067987,0.12855374311565904,0.08350539312558121,-0.2072192920970479,0.12326730060951294,2.7977723113854265,-1.657950907317101,-1.5021565246090376,0.2184163435919814,0.08981282524338004,0.26911648420179907,1.6875
-0.29377376046669484,1.0289090418470128,1.4483141354121918,-5.665117768016758,-0.43974015493484453,-0.12827738617380638,2.562451261381355,0.26125224801438973,2.077114452061437,0.3698404982888474,-1.2450791094580924,-0.2674433460783,0.0024668718986835306,0.2853370503177214,1.6953125
-0.08991047514584116,0.2888542951143863,0.15941374672797362,-0.9036586981436928,-0.17276432607675346,-0.07702726468533656,0.6797188931157641,-0.019293565037378366,-1.2618697336189846,1.0918859790722169,0.6485339767023894,-0.18996067155168755,-0.052995332773112504,-0.1029401442695591,1.703125
0.3148841301505735,-1.1092096856812703,-1.5463998694623906,6.056632050289296,0.47750459315858307,0.14305080969214362,-2.756680253192324,-0.27648683933422685,-2.1304316792138667,-0.45698950230749297,1.2817503850179073,0.29649219425331425,0.0025011156788217466,-0.29674405746015775,1.7109375
0.22229689282100437,-0.76432931003733,-0.854485597474823,3.583292949606303,0.37143562965576027,0.13449952734860554,-1.8638581362330793,-0.11164234540126235,0.1065906467749479,-1.157603276247424,0.031191974745346563,0.3029504447362586,0.04838075745728196,-0.04831891495957419,1.71875
-0.14982571567555242,0.5240381317648706,0.7516150614849817,-2.925493308181942,-0.22082132642997007,-0.06260565317419237,1.3086000801056004,0.13813539484240867,1.1633192833017352,0.13271592160034468,-0.690202315324893,-0.1292751711026698,0.00477024115960637,0.15558504701625614,1.7265625
-0.19311057856190128,0.6520636770810037,0.67477183742432,-2.912348446704558,-0.3269280718734305,-0.12207134141158421,1.5842061294548184,0.07455647793453583,-0.49380799723601,1.2040482303282152,0.1922141500412392,-0.28231936979932054,-0.05144745466841758,0.0010053701477447327,1.734375
-0.017072395189122572,0.03255890796871141,-0.2065307053625922,0.5212174861001742,-0.06394828389930692,-0.04563996250283561,0.040289862590784806,-0.08628405571417964,-1.8145580022089605,1.018811497445817,0.9789879457715289,-0.1251635190586382,-0.05438129303136589,-0.17764232467093388,1.7421875
-0.043769888237703045,0.13558651241312625,0.0368775366398476,-0.3206513936386217,-0.08841315299243038,-0.04195641404252702,0.3131917189415714,-0.023296514962756674,-0.8737639004989085,0.6643780718600458,0.457296648445437,-0.10608724374484585,-0.03263039372200353,-0.07631850469818931,1.75
-0.16415176143078086,0.5650835738528377,0.7099457478818342,-2.8745437181231313,-0.2584052051277831,-0.08441819791480087,1.3939174688178875,0.1114507954556847,0.5048703202277812,0.5454124777096623,-0.33889797534378807,-0.18604565406056478,-0.016949585111367235,0.093491460755414,1.7578125
-0.09321884278770375,0.3171909239607094,0.3747775108798175,-1.549000286077237,-0.14965869513583743,-0.05092801885983292,0.7791636287861263,0.05358830013485452,0.10779331724148952,0.4001442737192364,-0.09467638745834984,-0.11518535067663448,-0.014300075212898453,0.03492525748888593,1.765625
0.04378998896062298,-0.17097921588494513,-0.38327885577907433,1.334403847631238,0.04489650723024475,-0.0015443948002287567,-0.4478357869543565,-0.09701907335799682,-1.4074621565951326,0.5074752758408229,0.7823193124784902,-0.02121808636605427,-0.030651875406946166,-0.15307477912918274,1.7734375
0.04969739819441181,-0.1901018682240973,-0.39016238973362105,1.3838389307473415,0.0570561308511452,0.0041951610970987555,-0.49192838380423565,-0.09439282929557061,-1.2982178136981846,0.4221451314461541,0.7247330999462761,-0.0068398307634714335,-0.02633630556493858,-0.14368557918486402,1.78125
0.03158107683718912,-0.09729848735299051,0.052369156329783416,0.0031392811768141586,0.07970862215774589,0.04521000273242711,-0.2088175834531649,0.04591489158659032,1.2146647110289799,-0.7883810405320665,-0.6467754208546886,0.11454363505545494,0.04231894031636554,0.11293351788040959,1.7890625
0.08292917464009283,-0.25235877681293917,0.10221208188766914,0.10766216716775233,0.19960116808619743,0.11004265016359717,-0.550298947040824,0.10684538660354405,2.901474269882872,-1.9150474160656366,-1.5415350498335412,0.2798834376281168,0.10102004495204674,0.2684677125033504,1.796875
0.0866997159944325,-0.2843073430090669,-0.1456468646846991,0.8490885672387687,0.17270408851643818,0.07981756597264632,-0.6639697110405908,0.022806036729333158,1.3244474675371567,-1.1181095054019947,-0.6836636205131152,0.19346372206404452,0.056429270855687136,0.10948129852894696,1.8046875
0.022761498059440603,-0.08531655807118856,-0.14127364862267663,0.5239464349755244,0.03254091173556611,0.008245490142381452,-0.21489161247153352,-0.029790092571537516,-0.32945592924115147,0.05313851368983782,0.18857332398324655,0.013109397946494348,-0.003804538992316295,-0.03934981073330676,1.8125
0.024427962403588428,-0.07101602356183573,0.0924057358990684,-0.15026877945884926,0.06924506217643184,0.042570551398544945,-0.14405095959496103,0.05377001684227577,1.29288893070469,-0.7949700523639629,-0.6913520813106596,0.10906844113204354,0.04319344249898384,0.12281286920800488,1.8203125
0.0703658461160345,-0.2123181189389119,0.1070004580817721,0.03135743947092502,0.17248357423621435,0.09640376469784953,-0.4603979567175202,0.0977426757715747,2.6004109628968486,-1.6989090223271257,-1.3826254907534086,0.24534937171553192,0.08990203790472177,0.24171557636559085,1.828125
0.022460039542817528,-0.08622245761142457,-0.16311900671793084,0.5868203129280383,0.029071100752756224,0.004857041045914871,-0.22065069703637227,-0.03772716585912194,-0.48358386443792856,0.1335758406094954,0.2720775715313466,0.003650724256298711,-0.008306800772445678,-0.05471206857438727,1.8359375
-0.05638748186821282,0.14628826239420256,-0.3045049588277138,0.6157427514577211,-0.16421566707102805,-0.10358876777027508,0.2809560221500674,-0.1540219583610472,-3.510808242018723,2.090239009261039,1.8833831660144489,-0.27542852050747213,-0.1109987357657904,-0.3372859344493778,1.84375
-0.00428549402340128,-0.005308366844323736,-0.17897409469199416,0.5038406686838669,-0.03176603760937048,-0.027211677918150233,-0.03952401347233304,-0.06572428615496834,-1.2903724133374914,0.6845354083738094,0.6988438476909304,-0.0777946025600912,-0.03678211095549294,-0.12855866090247384,1.8515625
0.08412137686197323,-0.2763162084108209,-0.14002686832807446,0.8216479984780523,0.16819564508613943,0.07790840982881077,-0.6444892106961153,0.022733437969665937,1.2983311110523192,-1.0918104016780221,-0.670719880872412,0.18892036499449474,0.05521447093030231,0.1075021524579811,1.859375
-0.011418707014775138,0.01399221889107697,-0.2164718827920573,0.5790994476349786,-0.052886016293678485,-0.04066709150276207,-0.0028417767904310386,-0.08498801419257994,-1.7323132228795326,0.9482648612699521,0.9363721771501239,-0.11279669310203477,-0.05091344199345901,-0.17096610540055587,1.8671875
-0.20646237010442076,0.642119702815272,0.06095242114548355,-1.1830783241992637,-0.44285556116029806,-0.2222845893425471,1.460255232366334,-0.15240327420617816,-4.9893725037513486,3.5979261306913792,2.626475657664659,-0.559272711709269,-0.18333362137914316,-0.44590008958170285,1.875
-0.20172135239858563,0.6704345957412529,0.5805784650943233,-2.679316973421153,-0.3590911302653236,-0.14477204327165308,1.6109449261276494,0.03428171493343031,-1.354697935831442,1.6946858495602568,0.6556570836366622,-0.3430441488393027,-0.07794389765568027,-0.08304723176682129,1.8828125
0.017253214507656756,-0.012493947621716309,0.5347774541341628,-1.47868803648982,0.1160817662982981,0.0959011551512789,0.06250553973349303,0.20329698158450552,4.095177731845165,-2.207387308770549,-2.215023310639071,0.26157126885792026,0.12221570513833112,0.40522251734591846,1.890625
0.1508122004870983,-0.47868760761358403,-0.09397295815607373,1.0100079752901925,0.3210542193300445,0.1592598723166404,-1.094540577023435,0.09515912230514609,3.359969053614993,-2.488255240105962,-1.7632131308648304,0.39579849977608483,0.1276650134313629,0.29647872842142786,1.8984375
0.06704167002998482,-0.23464062037242517,-0.285325134739811,1.1616746716127393,0.10974916391619353,0.03823913670863959,-0.5761248216990705,-0.04293272763948701,-0.13738098978766108,-0.26607999596221044,0.10089740138713214,0.08288189406453066,0.010565396518926866,-0.031619125534742686,1.90625
-0.05601322436844199,0.1943592520982936,0.284865283164657,-1.1043906232189444,-0.08050857456687865,-0.021368103036647206,0.4868866841379621,0.05344162691641796,0.47607976557353354,0.024176500390439795,-0.2810198338366427,-0.044592389237812904,0.0037765524089928525,0.0623388839580712,1.9140625
-0.08507227524097838,0.3164889919152044,0.6692428607411856,-2.3700612021538228,-0.09028440067735645,-0.0008312834406712708,0.826611007765928,0.16393260100096851,2.307998419287269,-0.7794434658293349,-1.2857886461609336,0.022655384333007754,0.05061726938712104,0.25337445819383736,1.921875
-0.06640673119624162,0.22042617924439986,0.2101399786236843,-0.9372445506776207,-0.11395088482297262,-0.043562588827301865,0.5334358656150437,0.01835521953424499,-0.2997065234333268,0.4785647523575823,0.1377780929995384,-0.1032025040300613,-0.02067393883391064,-0.012957418353147945,1.9296875
-0.010077720271973976,-0.018369264028672585,-0.5569569489358289,1.5804838005370598,-0.09797312631118937,-0.08645247616406536,-0.1328025131829697,-0.20354876351641438,-3.995992421902632,2.11323022812794,2.166033013782376,-0.2418485644141458,-0.11573272640097713,-0.398147667170215,1.9375
0.11641070652980239,-0.43388253076552186,-0.8325894231475454,3.003151100732683,0.14157602269020264,0.018055751596957346,-1.115516788879871,-0.19347172862377757,-2.5297354965784473,0.7295032634230024,1.4200920985054009,0.010409409913007322,-0.048468272565838015,-0.28463043356007545,1.9453125
0.20830133058813372,-0.6897272401441745,-0.4827156428612712,2.4274435160638816,0.3928943596864036,0.17027157041884622,-1.6338687008470587,0.007079053548610974,2.248039275807025,-2.1965650536075776,-1.1362613665016656,0.40783240755503314,0.10708166627404062,0.1697049054825753,1.953125
0.13860516641338413,-0.4291268917984374,0.05052460674726282,0.5283383295315401,0.314577200720605,0.16563383143138996,-0.9570554643754047,0.13554734353381284,4.014211746037883,-2.7656206178977336,-2.1225761398095644,0.41753791047673294,0.14400328394277995,0.3650333715176695,1.9609375
-0.0219888354742995,0.08950658578040536,0.29892161706104414,-0.9799696900152917,-0.003586397884842373,0.01899090848932817,0.25369929179791273,0.0872314497525821,1.4685061038850604,-0.6550104391250994,-0.8056510600924128,0.058150124534845166,0.03898909855828427,0.1525071441194535,1.96875
-0.13258738592057304,0.43168729693472685,0.28776992879994157,-1.4859334106598838,-0.248313212405842,-0.10729277888984211,1.0226652183788334,-0.010083569864916932,-1.5142568595377857,1.4336497947805673,0.7686234774867228,-0.26055546761581466,-0.06867550852216138,-0.11703083063704485,1.9765625
-0.1722094126640602,0.5638756981886287,0.3944713032733565,-1.991277532322804,-0.3204910261282504,-0.1372618742988863,1.337936310019118,-0.006174954203604326,-1.836281517819523,1.794840765483086,0.9281099232992963,-0.33207157999269044,-0.08582864170227499,-0.13885281051638287,1.984375
-0.1426188484578483,0.4827889945499534,0.5206583122765813,-2.216069446069881,-0.23767635759299888,-0.08645240814319982,1.1763598379182323,0.06307368205202678,-0.20724015239491791,0.8059098778236692,0.05632267962806851,-0.1990585388157652,-0.03315268101506887,0.01657019252275726,1.9921875
-0.022888764120542283,0.0794641757850944,0.14042556839700177,-0.5206633516096825,-0.027769042943261078,-0.004110242500800398,0.2039948733091176,0.030718836052479107,0.37485180915836863,-0.08544463884640399,-0.21209069819367007,-0.006578541978490115,0.00738421376698844,0.04339997452208759,2.0
0.0935379985600023,-0.3396290069135844,-0.5519472924277111,2.070625146696829,0.1308909357194895,0.031242593454748762,-0.8563474962730412,-0.11406365650847174,-1.235987042947197,0.17388484969391044,0.7083414457312955,0.05492101132401696,-0.01577485013263771,-0.14872377305200318,2.0078125
0.10525710958990937,-0.39301017065407234,-0.7572316112861833,2.7272394896985306,0.12764238730091754,0.015966167838361956,-1.0109826862863187,-0.17633092813596296,-2.313817540452457,0.6735055872213237,1.2983014063170566,0.008133125187161097,-0.04445099832220243,-0.25996161120501504,2.015625
0.11834445636644135,-0.4163291027025536,-0.5536000861851134,2.195714944585081,0.18480882656453274,0.05887807681760622,-1.0295747766141559,-0.09388240297037197,-0.598572033086098,-0.2795029617653891,0.3727090055123372,0.12432808350011813,0.007453666412108545,-0.09160510632711232,2.0234375
0.21301003377651287,-0.7168166611563522,-0.6386000901890846,2.9060820182773375,0.3807881719450875,0.15381362639185112,-1.7213606379273885,-0.04385226780760957,1.313459075839618,-1.7368964202009565,-0.6276675199930531,0.360127451627758,0.0812583380142083,0.07510454060881243,2.03125
0.1578209138070163,-0.5405145152105487,-0.5751523423263142,2.451906453912497,0.26845020354253857,0.10041586843006459,-1.3131239055377955,-0.06813204786091714,0.29248318917876986,-0.9354471932801152,-0.0955217311706541,0.22816443541661083,0.040926444611139846,-0.0126611740348365,2.0390625
-0.20263438021582794,0.6745436620137383,0.595428518614403,-2.726759175810023,-0.35897792065518164,-0.14370540495723313,1.622424445333562,0.038720644738919896,-1.2773258494750062,1.6582884131472546,0.6135372229590996,-0.33990731507630717,-0.0759168006503581,-0.07514096150168423,2.046875
-0.5058817856502081,1.7340445462184202,2.0258342251788877,-8.386112515922155,-0.8241648334369345,-0.28732402219355613,4.250272704984143,0.2851256252852096,0.4081406995501108,2.284246177050269,-0.4215595362966281,-0.6443056605869222,-0.08779002444013857,0.17350542676069636,2.0546875
-0.32690299892571995,1.157025985972138,1.7592823022356825,-6.734772757800701,-0.468338382839679,-0.12243807438477872,2.9041012971546234,0.3426487196243546,3.312033170080754,-0.10327557085715271,-1.9265032913205962,-0.23961228856380692,0.031295092817970646,0.4173519774897895,2.0625
0.13903253264821835,-0.4447289643615779,-0.12466189877807292,1.0429589252371325,0.290684228018714,0.14182794534652246,-1.022577158001784,0.07437483396119729,2.842069290339779,-2.1624293269460306,-1.4863417772574825,0.3504188489941783,0.11047250136109507,0.24766822372052455,2.0703125
0.3396796778269152,-1.1715205770567918,-1.3776098955111278,5.683390506794364,0.5555529569348735,0.19441193801255116,-2.8703568253944245,-0.19627672660004922,-0.34073629875742795,-1.5068330098444818,0.3204448660992974,0.4324523913660848,0.058911876052461724,-0.12390739834591921,2.078125
0.13873045602944487,-0.5033439953278833,-0.8371674142004639,3.124122437573281,0.18993054961570618,0.04268121616035335,-1.2733673964216627,-0.17617924308724106,-1.9763211839912878,0.331762236648466,1.1276225549553154,0.0717868281952435,-0.028023994958836125,-0.23469837312800884,2.0859375
-0.09963137873717427,0.3259341290084311,0.23975102356956252,-1.18599806515947,-0.18272003931436162,-0.07690606965765624,0.7758507132520542,0.0007151337648660314,-0.9755387474390264,0.9907388103746484,0.4895463045961644,-0.18630646236304088,-0.046626599334916786,-0.07162144964702544,2.09375
-0.08473704739912799,0.29513775538652104,0.4225790011606828,-1.6480041122011677,-0.12436420731454333,-0.03477073988361523,0.7366407171268121,0.07751659703931876,0.6505758651898818,0.07613546047538641,-0.386535696116967,-0.072681827769177,0.0030523366100644895,0.08723736655509509,2.1015625
0.07942822299858575,-0.2560691181052524,-0.07771044441403921,0.6151872188104694,0.16640545285385575,0.08107716505022418,-0.5892311780532256,0.04055481771217104,1.5930822328062206,-1.220893145404812,-0.832353798698642,0.1994461743170367,0.06271985692845151,0.13827316237403758,2.109375
0.13563109562269018,-0.4558600406068768,-0.37855941952452454,1.7695721033940779,0.24788487870502537,0.10276536212781295,-1.0891946119867897,-0.01759337744081986,1.041783813476227,-1.2123702549814466,-0.5110126733459242,0.24226860461871197,0.058011630617063235,0.06821359974930907,2.1171875
0.03695688253145844,-0.1503046597358307,-0.3852679972029077,1.3088465178840607,0.029852571209788247,-0.009530752383801674,-0.40109833252894267,-0.10339980149341245,-1.599576194433913,0.6409334346882218,0.8830021048647277,-0.04101079272642448,-0.03750347704375722,-0.17036827670865282,2.125
-0.03618598919092999,0.07084764753425313,-0.4572907047928621,1.1627582942475696,-0.14135905034313173,-0.1020659083628937,0.0853553782747702,-0.19059146211986935,-4.0104442343139715,2.248833947216611,2.1626791605714892,-0.2772350578427902,-0.12130746408575516,-0.3926289608567106,2.1328125
0.013526109444808036,-0.08235116191114338,-0.44673179051006,1.373370080338707,-0.030581589818461957,-0.0445053887065651,-0.25860927501178294,-0.14486062593617943,-2.63134722051722,1.290396589208714,1.4346527803161673,-0.13177381502995988,-0.0718017014958353,-0.26762056081812374,2.140625
0.05959694347966439,-0.19370205548141067,-0.06767631348482266,0.48874251698675597,0.12418374877128603,0.060054568095213805,-0.44666743746978443,0.027287098032308343,1.139750542739271,-0.8873031514351739,-0.5934247300205084,0.14696478140991015,0.04569544060494858,0.09797398060030457,2.1484375
0.007957657860148926,-0.004222158410023087,0.2854292039110924,-0.7955858364469544,0.06040569268265104,0.05078922796563909,0.03959363470378502,0.10771678540495877,2.1656654089574383,-1.1631270502269677,-1.171164166975268,0.13770665943920699,0.06488661560995185,0.21431508760478427,2.15625
-0.052248402452306664,0.17459225791982486,0.19315735734425715,-0.8185940404146218,-0.08487993473227351,-0.02986348955881131,0.4278937845095444,0.02444638878316485,-0.03982226471502004,0.27470620406859636,0.0012672308770902778,-0.06933924232934545,-0.010452158095311628,0.009243481404837075,2.1640625
-0.07783645852387162,0.25211913647847267,0.1728901653753908,-0.8833051239840353,-0.14394495738681523,-0.06146925129270754,0.5996356984794536,-0.004255871309875532,-0.8490314345521156,0.8195618601261863,0.43014380837748156,-0.14981888737062699,-0.03875532867561323,-0.06500188602500574,2.171875
-0.12951580667062135,0.45377598760896265,0.6662188127430485,-2.577554028459044,-0.1883130382550876,-0.051362302608827674,1.136212399515561,0.12536722478740597,1.120955550864668,0.055193008958192194,-0.6593199756216517,-0.10464458802856878,0.007618911487296268,0.14606092137997873,2.1796875
-0.12371279180040605,0.44984836983259713,0.8294924755705488,-3.027091915780372,-0.15285667442203232,-0.022253667379774807,1.1537277403092228,0.18754641922107704,2.3732808772945164,-0.6227028518154275,-1.3368245830202548,-0.0249554696499116,0.044787732917502016,0.27006197090981954,2.1875
0.043955621473432696,-0.13883616680116795,0.003970189451719234,0.20356425524393976,0.09955703793171733,0.05236207763434926,-0.3119302883420657,0.03918110602464744,1.2082747478776472,-0.8491369248737346,-0.6385255700233141,0.12987263079120534,0.04467454910656335,0.10925825550404464,2.1953125
0.15432922907626312,-0.5392539807636255,-0.6907301815667736,2.7726791571611518,0.24463853239502145,0.08054748249270781,-1.3306233641332412,-0.11155564841340322,-0.5783756279114319,-0.4691618671681133,0.37487024859212975,0.17323491069372238,0.015290543980593705,-0.09874478587174827,2.203125
-0.01926117351293887,0.04284629454568059,-0.16542774590581072,0.39052431681102073,-0.0630067554443652,-0.042447112282661265,0.06994243252830104,-0.07368798450244354,-1.5960774348985072,0.9164021131864832,0.8590775032038535,-0.1153922638963406,-0.048508505925248274,-0.15503074103400813,2.2109375
-0.21150156337995343,0.7062458696903449,0.6388172009555874,-2.898082372253709,-0.3725427038622417,-0.14784886054992138,1.7001790329529216,0.04633249934090465,-1.2218378914225854,1.6724989437520497,0.5804139422614274,-0.34872108067296703,-0.07603962745089411,-0.06707613918431266,2.21875
-0.09816693508245954,0.34433563709029,0.5151197090542443,-1.9836595972420945,-0.14070776675350136,-0.03714465369663122,0.8635293325112141,0.09864304969022444,0.9239099295731097,0.0013868956389842023,-0.5393882248125756,-0.07479890862408117,0.008144923029462138,0.11791467604821222,2.2265625
0.09134329787977521,-0.2866120172069419,0.0032123510179718003,0.4374475144477782,0.20416928588799935,0.10578543337956238,-0.6440656552009854,0.0790872402693362,2.4534984966991558,-1.7259640269520609,-1.2951188093011663,0.264911730698361,0.08980928863012266,0.2212668257185905,2.234375
0.06547936852805632,-0.22170536100209534,-0.17417441608988007,0.8303956255916084,0.12256547277607366,0.0521285364348189,-0.5262618732109152,-0.004955870902136113,0.5783755805582593,-0.6258390066162559,-0.28785245890818295,0.12283176373007013,0.030770583463903423,0.040266833175251926,2.2421875
0.07019297328184708,-0.26803889014040533,-0.5540750349292118,1.963940074607547,0.07947736848741226,0.00474019829102443,-0.6937188701927904,-0.13445408759089295,-1.861316184376607,0.6149452556678341,1.0388881072024034,-0.01157263680117346,-0.0384403497383078,-0.20548018398576512,2.25
0.2899089989355455,-1.0054958928777487,-1.2313695305871355,5.014746661217582,0.46704035192455484,0.15857274756250528,-2.4705974996450637,-0.1868356606568208,-0.6575039714144777,-1.0940521820896079,0.47342480362557987,0.3489147601335714,0.03985349332953286,-0.14284571829852807,2.2578125
0.3239367416692714,-1.1011931382557736,-1.120286567705745,4.855389644136538,0.5571641385038395,0.21227063918752445,-2.669007892798314,-0.1191814976149362,0.9837849099759004,-2.113681633472764,-0.4041347280452023,0.4882913610543389,0.09382309090459569,0.01271351444498702,2.265625
-0.030815502522728716,0.08297359895903286,-0.11789183670791487,0.194985461325819,-0.082027117009057,-0.04900036012524326,0.16851617610826547,-0.06694100839364961,-1.5808132552705518,0.9643090406671236,0.8461853892833135,-0.13042458612258667,-0.05044083588770166,-0.15059238211013617,2.2734375
-0.26797188063966265,0.8685035284713691,0.48201924495120013,-2.7151781208818297,-0.5190567469277794,-0.23337911077091208,2.040446370083274,-0.05662385941976838,-3.767365584439496,3.2674834447352104,1.9385387065301614,-0.5710989740270531,-0.160480826149287,-0.30713894604872255,2.28125
-0.09162587195361845,0.3114012260976495,0.3625846907158611,-1.5060763931268084,-0.14795534535949656,-0.05091043368328337,0.763813438185715,0.05060195848394526,0.06594557908198607,0.4136199190586175,-0.0716337469851489,-0.11573004091180447,-0.015214697717845099,0.030386081306591033,2.2890625
0.03509547993986012,-0.07440615149262042,0.45029872972432605,-1.144462971839922,0.14309231697518662,0.10435612222192575,-0.09233964965268715,0.1886692630506865,3.9917253737891576,-2.24385357014797,-2.152053147687473,0.27918073682749944,0.12289526052854524,0.39036131705865007,2.296875
-0.17558396167336932,0.604521716999492,0.7553370030323698,-3.0632921026921838,-0.2772900660094464,-0.0909958208958508,1.4898269485959756,0.1177291127231141,0.5092995353497646,0.5978369520584957,-0.3462507694300665,-0.2012262755517866,-0.019054156221369575,0.09712448469623541,2.3046875
-0.29087685222700593,0.9381263281042355,0.46843166186836205,-2.786397441552724,-0.571095999579339,-0.2609439643500278,2.1951718541358383,-0.08063684285711742,-4.4607078297742575,3.738548288026966,2.3051303585113505,-0.6411395008262117,-0.1848573795245043,-0.37041045495782077,2.3125
-0.03472203915351418,0.09361724493120108,-0.12736713506305183,0.20476589086727842,-0.09137641639545543,-0.05461134353667539,0.19163340235145226,-0.07339922953601177,-1.7447625234789232,1.0687947066335206,0.9333247537363475,-0.14453278403965494,-0.05589254261661589,-0.16597462655513384,2.3203125
0.1886844382560976,-0.5984627556926714,-0.1133920422448502,1.2531640098909482,0.4020261356921332,0.19944239495485652,-1.366898990653962,0.12049672435789034,4.2275130356336925,-3.123340468306937,-2.218721741653478,0.49679157505537114,0.16016719452918685,0.3733213786407038,2.328125
0.051151145817165435,-0.1320296228385849,0.36347958149351073,-0.8123223699920065,0.16649973311841518,0.11043338137479854,-0.2353644915912192,0.1717801213541925,3.8299634022761477,-2.237321067029222,-2.0574308504497525,0.29146595315365914,0.12135573445453664,0.36966442347333994,2.3359375
-0.17886011576919772,0.6015527866862493,0.6008232377716252,-2.628183572801813,-0.3061982640616138,-0.1162205586656006,1.458569659062479,0.060609482115443473,-0.6186231033495648,1.2002390861689558,0.26566291461168445,-0.27057193099313886,-0.052271418777186635,-0.015420595768897183,2.34375
-0.15467342615093177,0.5187853457995667,0.5066405769789137,-2.2341136197972684,-0.26625591189343983,-0.10200980655054755,1.2558698895752516,0.047944642592628636,-0.6187746130532472,1.0800674554313325,0.27550978594073317,-0.23845702984434777,-0.04743453858657974,-0.021783638491223188,2.3515625
0.08317988444075103,-0.2564163507492815,0.061142960154758834,0.2290350895903962,0.19433706382812185,0.1046443454218282,-0.5664200539347226,0.09256748096689077,2.630011256431467,-1.7757411151890725,-1.3934590381257832,0.2646835532407877,0.0932983281612692,0.2411292056819007,2.359375
0.2976167155164388,-1.002334408832777,-0.9058014141610629,4.100903251090269,0.529874411106319,0.21251547360752066,-2.4090742002884284,-0.06591400992339398,1.7415983357445985,-2.374946358154323,-0.8267686127689277,0.497486168476582,0.11041620884642737,0.09576380151331942,2.3671875
0.32522450209393955,-1.150342300724301,-1.6581691380073986,6.43365052806103,0.48449627232664333,0.13923446304935574,-2.8685710501660915,-0.3070303521028183,-2.6126866844579135,-0.259165803877679,1.5471678137561635,0.28216584660142496,-0.009270728239629539,-0.3476997217717783,2.375
0.15542919618967693,-0.5778007562394504,-1.1134797756166182,4.013232869340971,0.18758121909927003,0.023123268449638412,-1.4879736178461882,-0.25920963653004875,-3.4013641545954143,0.9861796047508757,1.9082938026856648,0.011393754053959855,-0.0657025942570072,-0.3820442405693948,2.3828125
-0.05406623296953033,0.18107503232087668,0.1951299098666121,-0.8328405684646634,-0.08892195674152589,-0.031731591977906544,0.4412002507342901,0.02354439259145028,-0.07642695529888639,0.30067931571998274,0.02100130108604327,-0.07399787861909038,-0.011779076565322462,0.006203032699914789,2.390625
-0.1292885548317326,0.4545412211985263,0.6815802804121552,-2.6212786529023195,-0.18576525120274662,-0.04909535585839447,1.140284650864324,0.1308869462863256,1.2290822861196185,-0.0016625013640753862,-0.7176259697296891,-0.09809622205548385,0.010758035886016752,0.15681102826109392,2.3984375
-0.08311654572540406,0.2670169022297705,0.15211878253909744,-0.8487932414383954,-0.15870262744548416,-0.07045824754556076,0.6299069898824616,-0.01614946618833881,-1.1308249887185424,0.9919871018431252,0.5811025155196751,-0.17331464263505475,-0.04794200236415362,-0.09179387746851715,2.40625
-0.03460917599128101,0.08262249095889715,-0.25822302817107357,0.5869983625699956,-0.109852111662446,-0.07269603309991113,0.1447912050855857,-0.11933429363346994,-2.625022085830069,1.524452448105263,1.4112023459720806,-0.19551471384156097,-0.08124221278588381,-0.2542672497502166,2.4140625
-0.0254590947391677,0.06444584195168389,-0.13922760876954698,0.2837090267282665,-0.07308994320485304,-0.04589862971545062,0.12280999102904039,-0.0697978789849517,-1.582327566675395,0.9390967888175694,0.8489072785828503,-0.12318284810320511,-0.04940740349060153,-0.15211869135585152,2.421875
-0.06117616137262756,0.19507471386265554,0.09985250790856473,-0.5895936449136769,-0.11799618022719328,-0.05303643048518721,0.45776612527640864,-0.016008962270811104,-0.9093342074379304,0.7680928188861127,0.4694218991959667,-0.13155162392708236,-0.037157266617598016,-0.07520236645054179,2.4296875
-0.1541060725251873,0.5151556098130567,0.4856380542716985,-2.170485595619965,-0.2679123355359755,-0.10432660762115176,1.2445709264637068,0.04103082422244271,-0.747644884951478,1.1438552621764697,0.34495688998986246,-0.2452817855035498,-0.05101837107906941,-0.03463230957605819,2.4375
-0.22239469986311367,0.7786238417286782,1.107533128051303,-4.3208680061535345,-0.3303745822322242,-0.09500037528236022,1.9420296472667562,0.20194102940727832,1.6583154303676086,0.23522074422407555,-0.9876495337499213,-0.19674542828974992,0.0045702445276648695,0.2242023447803166,2.4453125
-0.16164491080327995,0.6075433146010545,1.315000301111696,-4.6307711322079586,-0.1675258697295695,0.002430335339837305,1.5901689497176148,0.32626942617146515,4.6580906552652355,-1.6177662835013844,-2.5916037877830775,0.057105214407815554,0.10293584993490595,0.5087166388460633,2.453125
-0.021026540549841672,0.11492004436104084,0.6369830912689429,-1.9632882493495072,0.04623438978421812,0.06705815374816071,0.3663898921735244,0.20687499654119096,3.777825683022949,-1.8559571097904004,-2.058143946396667,0.1927216126583914,0.10561770734822158,0.3836087874136037,2.4609375
0.10846876461022575,-0.37071155895404906,-0.36888173957806103,1.6085456012484198,0.1894310767208361,0.07356623466559199,-0.895709180121975,-0.03714707473178367,0.39228838071414646,-0.7422580508129238,-0.169028379640457,0.1689164611404236,0.03400042478059124,0.010311546591805852,2.46875
0.24623480800578565,-0.8509189525214943,-1.001895462166308,4.13111384095475,0.4033368436462717,0.14109733973887817,-2.0836744352260563,-0.14314879297193153,-0.2575685726627819,-1.0856403512103585,0.2387765944146877,0.3139825170264485,0.04265368192970804,-0.09119566765709895,2.4765625
0.3380023998583312,-1.1462675020092015,-1.1317055393520357,4.957963150885991,0.586851002292876,0.22657141525948293,-2.7714378170435636,-0.11122165267520889,1.2788803522645436,-2.334055506443147,-0.5588637529668405,0.5241645538126565,0.10505998805819458,0.03861281533114325,2.484375
0.19019448609742953,-0.6524869078367792,-0.710775002221288,3.0064062555296576,0.3209530598586053,0.11822382239520436,-1.5882082652921168,-0.08827420628714588,0.2320043918372207,-1.0634810273730326,-0.05025097036478602,0.2675890930095528,0.04562018967538077,-0.02712424101856862,2.4921875
-0.14695320372629453,0.46441556865075795,0.14145884525677016,-1.1286448283392023,-0.30064877999064604,-0.14386807479577327,1.0720901963884995,-0.07379593299682723,-2.881702084101891,2.2110649502493716,1.505066805791041,-0.35913250124695006,-0.11087178347573014,-0.2501653125457663,2.5
-0.27633952495406494,0.9003751835536731,0.5560339094579869,-2.971316280606443,-0.5269830974000704,-0.23233441467920254,2.1241546676311236,-0.037522723723586594,-3.486162213704798,3.1620604605025715,1.7819507437433872,-0.5655187856691429,-0.15395526948955243,-0.2767184938076776,2.5078125
-0.030944786869813154,0.08308171111226431,-0.11906399177674348,0.19771793794281362,-0.08244751567882873,-0.049212702380066656,0.16875890572368632,-0.06738832192865907,-1.5914064513429338,0.9709157996862594,0.8520778149456955,-0.13092895296942342,-0.05072750833348434,-0.15162741376642117,2.515625
0.2194348634438574,-0.764950567408514,-0.9754454018219278,3.9208047110811326,0.34772366376555475,0.11442038572051422,-1.886061153004299,-0.15666912388901597,-0.7879378607314899,-0.6795656180329446,0.516393973971047,0.24732751529312277,0.022096619780854594,-0.13716749573719128,2.5234375
0.14482420365632925,-0.5124260550623141,-0.7195378465351346,2.8091955477973674,0.21985307204161508,0.0657722104045831,-1.2738965690597195,-0.12973602612426027,-1.02051323410533,-0.19059208569616137,0.6129855587210006,0.13516513633445723,0.000544894755149552,-0.14091641955982853,2.53125
-0.0444110066284506,0.15163674661065046,0.20589058716945688,-0.8174847988905283,-0.06602217912069097,-0.019365462439526946,0.3775049886788287,0.035500895641575915,0.250639810742834,0.08475813968214393,-0.1529672432124574,-0.042227581707489,-0.0005320442078528442,0.036278179875956704,2.5390625
-0.028252261559342077,0.12141095996004807,0.4425832093012923,-1.429776440435498,0.0027340765802631763,0.03162322735622149,0.3484691979593332,0.13227171652944297,2.271724347093888,-1.0417792079746466,-1.2442687782224362,0.09574515504059614,0.06079941529601788,0.23464996950595582,2.546875
0.04039982248708203,-0.11218009741505523,0.1969081165810923,-0.3765555394165307,0.11924040347259023,0.07504206555302058,-0.21884200421317263,0.10402069490742027,2.419267869600807,-1.456428896079401,-1.2970688693875094,0.195367650546327,0.0787044654373382,0.23144473136364105,2.5546875
-0.16384856493315078,0.5676459798894784,0.7578009691020862,-3.0118884954698886,-0.2507271928304182,-0.07740009070744755,1.4085689554380694,0.12859566807116474,0.8378082913733185,0.371723349524153,-0.519404181501707,-0.16629728617158343,-0.007351590156425837,0.126742518223244,2.5625
-0.4846083759521705,1.6480806674299553,1.7834077427602557,-7.574366831273961,-0.8117784179937411,-0.2969192745143212,4.016071014031989,0.2178492175244661,-0.6730508175624551,2.737392401374542,0.17337301487149412,-0.6786346842901195,-0.114532874103781,0.05981396925822514,2.5703125
-0.43942792325933006,1.482172537881968,1.467791900402752,-6.432330733229447,-0.7571043117216976,-0.2898156175013159,3.5883897548664994,0.1450177841133296,-1.61842802154532,3.0022484187598337,0.7042065656495822,-0.6736648997565408,-0.13269799478235705,-0.04673672744775,2.578125
0.03091495612057415,-0.1317870947817101,-0.39488860134664255,1.3057534821735692,0.015019297057740433,-0.0176537124583415,-0.36236164367025603,-0.11193733035286253,-1.8251303516624575,0.7861835394450869,1.003190816595803,-0.062302749086787394,-0.045121891293660336,-0.1913086868793425,2.5859375
0.44175302068154565,-1.523753264035986,-1.8028337011851698,7.424887218394616,0.7205174181435167,0.2505335551613521,-3.7357412317330554,-0.2592958497391326,-0.5235540079832692,-1.9149485272557767,0.46046372138484315,0.5575436951372872,0.07393701336814967,-0.16921864933805295,2.59375
0.43108766087605627,-1.4592786983314006,-1.4256478029318351,6.269927161829142,0.750114095609004,0.2908102810871202,-3.5270557827925093,-0.13578642533658256,1.7429169267758153,-3.034064762705154,-0.7733274854486923,0.6742085158827517,0.13692044661654187,0.060588516758512546,2.6015625
0.14463057895327985,-0.46217428150567647,-0.12514100231143865,1.0711970802850412,0.3029566774413999,0.1480447388404119,-1.0616112939406868,0.07894576672611013,2.9867549859474063,-2.2635794060381813,-1.5624424675616997,0.3661768924193813,0.11571912442143517,0.2606983938889495,2.609375
-0.0907593480284632,0.3361624288806495,0.6964020139211073,-2.4770860706555293,-0.099043118218709,-0.003459515585909367,0.876116221869305,0.16865279843087957,2.3414944280245136,-0.7681506361362964,-1.3068305984651662,0.017090812371428704,0.050392831605515574,0.25811776889651944,2.6171875
-0.12679310377387332,0.43805718382339176,0.5833510422367109,-2.3210646566096558,-0.19391397109582864,-0.059739810866339886,1.0876701450403723,0.09855376482018552,0.6324468710464741,0.29412362325793606,-0.394384486189154,-0.12916160133024612,-0.005912134947815351,0.09640834829214613,2.625
0.006299498899764137,-0.03870327228827662,-0.18638568737931166,0.5774243024734638,-0.009530023310440883,-0.016477724731885444,-0.11616957870313105,-0.059437534411548976,-1.063061031481202,0.5144956392321427,0.5791930393043718,-0.05090719071962677,-0.028217861466318366,-0.10851465679179753,2.6328125
0.1780876919775663,-0.6347138698147993,-0.9518139664712356,3.650974875371715,0.26025145897430396,0.07101353204573087,-1.588961768350437,-0.18327663240545355,-1.7142035109931257,0.0030250929998448814,1.0021432335528897,0.1389527952435633,-0.01275953302040068,-0.21905088997846378,2.640625
0.2167003471315436,-0.757989188827325,-0.9952576951487775,3.9660143180645164,0.3389351510354082,0.10855654039523077,-1.8745439437395073,-0.1659058649812985,-0.9928331588972278,-0.5608511871678961,0.6267374382005331,0.23205502413705173,0.01569810587270334,-0.1570601172599856,2.6484375
0.0637299377956223,-0.22959913179396352,-0.344715158465258,1.3195260486267992,0.09422759135792554,0.02628675997838506,-0.5739340465957782,-0.066572112102276,-0.6230047243266146,0.0033073749079184926,0.3649182411584747,0.050901972197971504,-0.004081686875896269,-0.07973068372745631,2.65625
-0.155974259874463,0.5068295206404192,0.31479268961634604,-1.6791087934413793,-0.2960703684545537,-0.13008926565602597,1.1969980705376915,-0.020558652089346045,-1.9484363723031184,1.7734442327047801,0.9961328649130355,-0.31709423126321007,-0.08586657545910244,-0.15446241376000375,2.6640625
-0.28832665925114026,0.9548069424226323,0.762822080305573,-3.634305819682163,-0.5241387149214742,-0.21724026023619883,2.28170013002225,0.024997196321193706,-2.405271333157205,2.662705481200937,1.1908147862619296,-0.5190501506772104,-0.12526886792320627,-0.16517449784396865,2.671875
-0.28239836336757196,0.970454182772065,1.1754114953760049,-4.811213129496101,-0.4528798907504852,-0.15321885777990196,2.385934839912391,0.1750998329996842,0.5370971447859363,1.1116401956555564,-0.40394142013247436,-0.3408512412993838,-0.03948645196566251,0.127988470454896,2.6796875
-0.17029650161634974,0.6192223432442528,1.1381943894021216,-4.155476555370455,-0.2113237260316456,-0.03183904180462727,1.5880501511795408,0.2568796982187759,3.236589828677159,-0.837462536623342,-1.8241923336098698,-0.03604683000375037,0.06034015515928539,0.3686885490388103,2.6875
-0.030648706888757617,0.11145509099815665,0.23927395582857933,-0.8477061689888783,-0.030823009789659347,0.0009411576245591542,0.29276025741405237,0.058971586444208336,0.8405415318825786,-0.2874840903376953,-0.4677394033914491,0.010268622293957898,0.019166468477685484,0.09178125903102266,2.6953125
0.06278393566516043,-0.2599936686871667,-0.7495348422039119,2.4966779673142536,0.03504396873822082,-0.030967454667618542,-0.7106722417219054,-0.20969138167175969,-3.3813974908911075,1.4342578661710779,1.8610695314389336,-0.1103729853350981,-0.08360728502509274,-0.3556817208213128,2.703125
0.1074628532402008,-0.4006707152203994,-0.7778683088646005,2.796796905741428,0.12908116617456422,0.015431119495398011,-1.0329890255254965,-0.18195597403281022,-2.400523571273715,0.7054352654652264,1.3462281735239432,0.00532890251661434,-0.04650105495238178,-0.26909389231404746,2.7109375
0.12111171623329985,-0.3864228651447207,-0.09314452236775997,0.8631540523849629,0.2557111119181661,0.1258865179006594,-0.886080958927748,0.070279906987383,2.5823781651842004,-1.939720235610662,-1.3532731954314206,0.3115503744656969,0.0994417208567652,0.22647362787966643,2.71875
0.08390799508760052,-0.24103752641039902,0.27391859354085546,-0.3892804272921665,0.22592047424097284,0.13496888815481753,-0.496076509803765,0.1679466121289881,4.085433366190144,-2.532886337028107,-2.1840372060305904,0.3495214162995983,0.13525895202896185,0.3867955236766579,2.7265625
0.038261056814645145,-0.12413385487878416,-0.019905462243031625,0.24773469382996866,0.08429275977812507,0.04274928296921562,-0.2808391407596278,0.026160008468353427,0.9031432050002216,-0.6598993666527675,-0.4745442723874458,0.10552143211757012,0.03472973083683411,0.07997401383835613,2.734375
0.08542601521351678,-0.30826183636771526,-0.475434093813106,1.8084997472481281,0.12381637536711827,0.03268039873902773,-0.7719368270140776,-0.09408270861923661,-0.9321046511727471,0.05770788134810151,0.5410302937280301,0.06198564345517565,-0.008685716974785877,-0.11638556574624914,2.7421875
0.1638751493773763,-0.5524407313252986,-0.4873891698185078,2.224970706675851,0.2945730714578203,0.11946012625089539,-1.3248035008044727,-0.032039906743233475,1.0490233965586961,-1.3550392101208046,-0.502900708743254,0.280050723945285,0.06378799980951756,0.06136084933390218,2.75
0.08305830273193582,-0.2551217607643716,0.07117172104259056,0.1977629240254572,0.19539566844512696,0.1058098551748638,-0.5614533878385045,0.09586041690638328,2.692814223799306,-1.8079466889100715,-1.4277925272479073,0.26758487234474165,0.09497584713524243,0.2473953580170916,2.7578125
-0.12198932792117308,0.42494238009106494,0.5982625715866202,-2.342975899715503,-0.1814262958371684,-0.05234064011714107,1.059808198448809,0.10772862283459113,0.8577811272997251,0.15325610029582945,-0.5137043977683365,-0.1102084067460386,0.0015323994703396312,0.11770984713607893,2.765625
-0.1823802557857493,0.5895900009571636,0.32504766773474325,-1.838928557296084,-0.3526979834397194,-0.15835704133826575,1.385303297033189,-0.039269321334021855,-2.573552403662268,2.2274312421183606,1.3249497318514574,-0.38831133783621374,-0.10907114070953242,-0.2100846050022913,2.7734375
-0.012879247953396187,-0.013257560898778428,-0.5995164179633424,1.6905102288286735,-0.11000548589203453,-0.09537337774145462,-0.12857388260111433,-0.22077356263235295,-4.355453965969873,2.3127365968666456,2.3596030289819727,-0.2664188945719024,-0.12659690324795805,-0.433290979859332,2.78125
0.1580034651362795,-0.5860376461121025,-1.1120583694532495,4.022507778748518,0.19361475185920132,0.026302645740314972,-1.5059883734391282,-0.2564043253411259,-3.3221699666562614,0.9334676878030321,1.866306085220821,0.019879427174816354,-0.06290455787397554,-0.37484240945797204,2.7890625
0.10403876773711813,-0.36677242152148165,-0.49180566735568554,1.946229679673142,0.1620484636613756,0.05137012894801897,-0.908474638291705,-0.0841583165116604,-0.5570912728360432,-0.2314090076470865,0.3439466818105259,0.10807496301885576,0.005873215786691042,-0.08363364185562709,2.796875
-0.14934901323074937,0.5294880010310412,0.8298488375313384,-3.153175315968622,-0.20926435832234377,-0.05123239230070875,1.332933886336221,0.16600473372771932,1.7003906928566739,-0.14760826389972945,-0.9816713431511258,-0.09748595314746185,0.02037400352076785,0.2093268080040698,2.8046875
-0.35254525593883146,1.2292430455033707,1.6661295554488305,-6.588549847976335,-0.5382421985285463,-0.16439503669199151,3.0508800432606358,0.2881677322264749,2.0043975819832847,0.6995414555405267,-1.2274855072993134,-0.34930116409744083,-0.011310904259949378,0.2934325002878734,2.8125
-0.2675275954695594,0.9256730740542638,1.1918997972636012,-4.78731024797108,-0.41777201257707514,-0.13416647585570823,2.2878272960062196,0.1934819767064802,1.0405502252914491,0.7785990738898217,-0.6712474093830222,-0.2922207168595653,-0.022110736520801054,0.17455039528598212,2.8203125
0.017707017290490294,-0.06205596177144753,-0.04435623682636174,0.2173690809411824,0.0355419565293301,0.016077375399202717,-0.14581668177874696,0.000156417406950362,0.19499488195521894,-0.19300734848381843,-0.09927270483163587,0.037011906609706303,0.010300911931444303,0.014641087126231073,2.828125
0.17304513475679095,-0.5993711920477924,-0.7142540218217815,2.9326165466450527,0.2827083431584253,0.09827976588603081,-1.4697294192084642,-0.10403180791296777,-0.24393181396324365,-0.7333325778671845,0.20121972996916287,0.2174022991591497,0.028549537613747504,-0.07034966797597365,2.8359375
0.15100913903820185,-0.5262151270303578,-0.6585575045417822,2.661912342287642,0.24191894503992348,0.08117119911744941,-1.2955067346366416,-0.10314818378539552,-0.4477303254532963,-0.5189242595349831,0.30384029059954487,0.1762383915348108,0.01827982716575591,-0.08500858963255595,2.84375
0.21346306158705047,-0.7378106515521275,-0.8715651551744568,3.588955029086635,0.3492152047338251,0.12219349764554199,-1.807663691170159,-0.12521657001721545,-0.24283973407386106,-0.9332716564733723,0.21792805676531518,0.27076886380383064,0.036561478937412455,-0.08101045089720249,2.8515625
0.31916347414869645,-1.0941733865244097,-1.2106814029884627,5.096119355102194,0.5340209812470557,0.1944202687186144,-2.667293468136029,-0.15501992711167556,0.2482550836314354,-1.709385590404085,-0.006580854703228094,0.43930850851471037,0.07166989993102249,-0.05978502774726435,2.859375
0.14340655172191585,-0.4870617404986703,-0.4631967462580911,2.0551196063351096,0.252976785472835,0.09978882839074775,-1.173117475856957,-0.04086419092203947,0.6741770994699963,-1.0612739323772264,-0.3080465094652536,0.2311980503206394,0.04894901267906223,0.029134890870710264,2.8671875
-0.19742977821332983,0.6850720459606309,0.9199626212350687,-3.649450221599861,-0.3016041483953649,-0.09283996397869948,1.701091285960754,0.15716706140402065,1.0508737832339898,0.42814175234195895,-0.6483580720747646,-0.19851837412313186,-0.007992135178156771,0.1567149790710095,2.875
-0.25973739826565995,0.8986164962744693,1.1631057671405696,-4.664561136304959,-0.404332570882993,-0.12936843623655137,2.2229336481141093,0.18999850313205305,1.054777864866897,0.7343826089452289,-0.6749643704832256,-0.28078667705849175,-0.02024958726887265,0.17355843144432043,2.8828125
-0.10833440030365925,0.3691308747414404,0.4406853130898511,-1.8151916905391727,-0.1732066037095722,-0.058791295816713135,0.9077596556027895,0.06409555519738933,0.15825110492568717,0.44978215241121977,-0.12778016156841662,-0.13201561387213367,-0.015881601527967866,0.04388421401032717,2.890625
-0.13050801848736276,0.43536391920959144,0.40795220322363673,-1.8273610207834703,-0.22675711283150518,-0.08834711101653198,1.0514484596408038,0.03379052146578046,-0.6478800373841872,0.9751099607085127,0.30056903214904196,-0.2080916482693472,-0.043422978957986656,-0.030930288308300514,2.8984375
-0.20235674760262046,0.6884882403063038,0.7705764131254992,-3.237609173777241,-0.33391014631835636,-0.1190635820039529,1.682828213106787,0.1004302603806308,-0.0914601745476622,1.0412658887808324,-0.03056729067010472,-0.27127024174625747,-0.04168520609306059,0.043849140389774485,2.90625
-0.009798000289196697,0.03237058969075156,0.058946016967053816,-0.21967967147655118,-0.010920210564963133,-0.0005981306054942959,0.08376116286230414,0.013060130266080444,0.1657249102101317,-0.0432592127144567,-0.09337931730615451,-0.0013986158697264816,0.004017866594540237,0.018909827071421394,2.9140625
0.17632997584576776,-0.631319884667207,-0.9859073124812469,3.740958662647779,0.25104633276679567,0.06428803286660442,-1.5885611001026017,-0.1968418581578921,-1.9954082581535675,0.1551682011125439,1.1538425866351065,0.12023157407934953,-0.021065747127847822,-0.2465762304141835,2.921875
0.027186569741902505,-0.14345075891328318,-0.68251635998387,2.12742098109677,-0.03417166122543338,-0.061922432749962966,-0.4378473744313405,-0.21627104458252916,-3.8691682075435527,1.861311888404332,2.1106668994975344,-0.1856157676438595,-0.10456393083943408,-0.3948569847085477,2.9296875
-0.08132668449916419,0.25872464456951233,0.11540991054462055,-0.7327239886032683,-0.16010431365635266,-0.0734941764445244,0.6037463032460206,-0.027449893081297992,-1.3330634088631235,1.0861510105341188,0.6901098391389837,-0.18257999053610677,-0.05326414777027327,-0.1121832567912758,2.9375
0.2214697094967974,-0.7241818549205861,-0.4014408580822184,2.2549171178482386,0.4333164142607324,0.1965400923683423,-1.6979197602317513,0.0470034837217862,3.1436621870943733,-2.7244511651388787,-1.6185795380722114,0.4775839243321542,0.135570955546418,0.25629634435509174,2.9453125
0.49020824924665457,-1.6402927020607323,-1.3955542079270955,6.470732735419072,0.8843357692906595,0.3617242241508042,-3.9302136812050423,-0.07521507465562559,3.4999550207760444,-4.2359627092607814,-1.7037454537081826,0.8542415848480697,0.1992021651524549,0.22097763679717736,2.953125
0.24877638146893752,-0.8513392030096153,-0.9194772848890831,3.9019485432972103,0.42032067046615684,0.15522910441789128,-2.0723467252305445,-0.11212851092097761,0.36324586819879845,-1.4209550282083612,-0.09724245761530617,0.3528770220653956,0.06101056665531735,-0.029613387819943847,2.9609375
-0.13913439502570113,0.4699861805832541,0.500841163536641,-2.1407710390988792,-0.23267436617359719,-0.08535401611076578,1.1447071860384663,0.059068549007467615,-0.24912992806857057,0.8120369109742632,0.08013578060494034,-0.19659150287171934,-0.0337324930596956,0.011339957022733868,2.96875
-0.18737264361441133,0.6627738721508154,1.024162255977738,-3.9058008848342323,-0.2648477989369331,-0.06700031297485028,1.6673836173347107,0.20230558600296522,2.018369937398919,-0.12240926477748251,-1.169375624232735,-0.12938963458203537,0.02185478812470575,0.2511159057787058,2.9765625
-0.1397269435345318,0.4920071965461298,0.7484680485519877,-2.8678582552477594,-0.19881329574030415,-0.051370828312618674,1.2362699036401867,0.14574989421432677,1.4123646478620102,-0.04442262343220803,-0.820435686464154,-0.10117555244939869,0.013920953229150169,0.17768548051213853,2.984375
-0.3614909633493474,1.197829089313961,0.9617191873807605,-4.572010164031554,-0.6566446365435818,-0.27202904667540356,2.8637128910367267,0.033114901382179665,-2.9819377110663194,3.323898054290445,1.476344964806878,-0.6489312184139595,-0.1564749696511523,-0.2040981520469076,2.9921875
-0.5521636603106229,1.8255745103220928,1.3977307977605582,-6.77576717168335,-1.0148202865064917,-0.4267984542223559,4.35293792122185,0.02499447107211854,-5.056964273019879,5.339434910945903,2.5257374421506977,-1.0215707707903774,-0.2540424216973486,-0.36161163480648856,3.0
-0.28702665978446346,0.95508723728487,0.8202008183679576,-3.795798634285487,-0.5132223882348285,-0.20788754971028653,2.2938499533386207,0.046113845778037114,-1.9851404660745395,2.4411533123203646,0.9636930858208037,-0.4929801757700629,-0.11305957111796795,-0.12373019137715897,3.0078125
0.1831601350681214,-0.6149151377099887,-0.523081215608782,2.4217716217833933,0.3316455068065101,0.1362137831242256,-1.4718393195865822,-0.02841592727127263,1.3127094206506809,-1.5878042765616276,-0.6386356896383342,0.32032052881550005,0.07519600166250184,0.08267240734045386,3.015625
0.3425118292470158,-1.168829320451162,-1.242843357271868,5.3026659440281305,0.5808234181816962,0.21617161178959202,-2.842284829804596,-0.1465694809483682,0.645532605709905,-2.0310073106032656,-0.21310429310854856,0.49285061485638954,0.08772475862060768,-0.026090048556154707,3.0234375
0.2339611663791771,-0.8142935204445241,-1.028439672615933,4.147990351522789,0.3723192543336207,0.12349244808645192,-2.0071569889853116,-0.16293640466969692,-0.7624018533333764,-0.7671778381378455,0.5071636960270043,0.26786970265036025,0.02574704037746727,-0.13828616106535627,3.03125
0.25025339987270573,-0.8379994460422785,-0.703765778730024,3.278904282528972,0.4537825001626314,0.18699153520088307,-2.006156794640771,-0.035015400689174345,1.8569005172949682,-2.202433023076031,-0.9084542219059989,0.4410408615356727,0.10435261123049366,0.12000940217064249,3.0390625
0.3740781042414397,-1.2108847575300343,-0.5683194929554476,3.485998716720641,0.7451178373056112,0.34556847557329873,-2.8247762622880193,0.11733040627902741,6.028169048132636,-4.971707814709382,-3.123086223135562,0.8462554339314642,0.2489068068285154,0.5052306971012995,3.046875
0.25828843061003953,-0.829737060307583,-0.30478663050148647,2.150823619320006,0.5277061985692818,0.2515150627521229,-1.9217859120325345,0.1121043891941625,4.7636781580387275,-3.7457372677933765,-2.482727265073113,0.619896154854772,0.18953846278611317,0.40893862230995653,3.0546875
-0.07696864341871598,0.23403367862638247,-0.01759774263065885,-0.3223366775205947,-0.1689337840576686,-0.086949734662527,0.5254016672609279,-0.0704032588370536,-2.1131805147126554,1.4681819904371478,1.116305506264827,-0.22149262990195037,-0.0748091805796167,-0.19171686007561028,3.0625
-0.23990026954046265,0.7471105523309086,0.07743553405038651,-1.3935663102445006,-0.5137584749192738,-0.2576680177973861,1.6992311618751783,-0.17478619469067458,-5.756159148512573,4.158565675967337,3.028663065980823,-0.6477905584750168,-0.21195980464313968,-0.5137614148304356,3.0703125
-0.1286778614423922,0.4216543069607796,0.3137460799895286,-1.5421583127728398,-0.23597379977289465,-0.09943484928087856,1.0049674630862901,0.00226230130185557,-1.2362250236096761,1.2713335271540838,0.6196835204941963,-0.2393703585369726,-0.05996134868401143,-0.09028807366695715,3.078125
-0.05308508455783762,0.22231323908260398,0.7327288252812479,-2.399331374901504,-0.010985445739245299,0.043963658278641946,0.6247588698027877,0.21335215056002152,3.5788429795675647,-1.593445462834667,-1.9632945960142023,0.13877345721283585,0.09346803666838939,0.3721397192438538,3.0859375
-0.16665408859968514,0.5653339018542778,0.6159438381609739,-2.612793893563591,-0.2774269833181068,-0.1004103317802762,1.378688696183556,0.07615471857806319,-0.19841500106719662,0.9216741348173476,0.04252273760851363,-0.23019387015661527,-0.03769716319061793,0.02361728712215615,3.09375
-0.2544609266992447,0.7788099613474216,-0.09269421562382461,-0.9699875400148341,-0.5702902242951353,-0.2978381201201557,1.7427285184940344,-0.2472383686158948,-7.292347417369864,5.026260152879904,3.8585648952201894,-0.7565791836386527,-0.25912901798169485,-0.664011600482391,3.1015625
-0.16544955779121504,0.48883077286490434,-0.2545006726697227,-0.06262071297841684,-0.3970129086363433,-0.21985301550847902,1.062441423202458,-0.22879889928331498,-6.041638956312711,3.9397649924396547,3.2149739851523234,-0.566408042496493,-0.20555249316234878,-0.5622701750593474,3.109375
-0.05547617803775028,0.2165753438437822,0.5773891642255737,-1.9573367668999515,-0.03774681266838802,0.019727372828646814,0.5867405852292864,0.15670795206022686,2.4700538579454014,-1.0082204267818629,-1.3616369010909282,0.07112566540563503,0.060980897846899376,0.26145881170855645,3.1171875
-0.0669973876410443,0.3057184749133407,1.2189589377231214,-3.8884098122998956,0.027246565983637706,0.09585307021873278,0.8941102959038828,0.3725432942733176,6.499801728814493,-3.0373394083093657,-3.553624691783017,0.28870972569891773,0.17459269219925388,0.6683087696302397,3.125
-0.05551815433646764,0.22210602273288796,0.6413115450694387,-2.143704139644662,-0.029007105172079703,0.02871370238723825,0.6095721211479512,0.1792073009953049,2.9005130419762177,-1.2317720661971665,-1.5956279751763702,0.09604909152944725,0.07347057992652352,0.304813616144253,3.1328125
0.1586282785497714,-0.5473974248927822,-0.621872155548426,2.5930783094196497,0.263987158787212,0.09505126363542837,-1.3356847891119745,-0.08372605275394865,0.0021107261619752017,-0.7893973782287171,0.062273721834984,0.21254281992514998,0.032756243278750805,-0.04194506686733588,3.140625
0.40429591275395577,-1.369020873171505,-1.3370480498306088,5.881399510014494,0.7035597975758321,0.27298114936095624,-3.307989893021961,-0.12733928890436852,1.6338431753417002,-2.8471044821560647,-0.7259206113077218,0.6325105261946412,0.12852237221838658,0.056786777497733275,3.1484375
0.33033929412531265,-1.106837438141484,-0.9444085963580615,4.372624991290186,0.5962558954624513,0.24401025663773054,-2.651971437165882,-0.05181957423388001,2.340614278007454,-2.8475599821119535,-1.1387636198907891,0.5753490611800215,0.13413759366646955,0.14709061096153256,3.15625
-0.006236019401094344,0.010258955626990286,-0.06730963059537919,0.16739456317831175,-0.020370364931366246,-0.01408317257939977,0.013385292078980194,-0.028137684090515543,-0.5887267325640181,0.33096531078689434,0.3173014204272011,-0.039997526539395555,-0.017017600572536457,-0.05766797699918007,3.1640625
-0.12266910582934584,0.3810113367254459,0.04646824901914735,-0.732943975849416,-0.26049727112489945,-0.12973857858191976,0.8686167411727077,-0.08666910920741229,-2.8838184958663926,2.0936561283772943,1.5162056106684123,-0.3270324059934395,-0.10616662945057774,-0.2569000817940718,3.171875
0.11998228735848727,-0.4429580759057058,-0.814994103544708,2.9678871803136784,0.15153298688973432,0.02447490422080373,-1.133936747905111,-0.18433530064822806,-2.320238713084053,0.6028244267188473,1.3066869835445212,0.026926545312333103,-0.041693854321240086,-0.26435775376811976,3.1796875
0.2128043513267218,-0.7531780338823411,-1.0879866539671625,4.2179086319867976,0.3170295218647099,0.09132668056262908,-1.880293027158531,-0.20177551451196993,-1.7222749233837737,-0.1654128482038676,1.019705205799594,0.1845015050843367,-0.005999222165783011,-0.22888901065770254,3.1875
-0.1616025580501317,0.5238628939872345,0.30281125676985704,-1.6725373113066413,-0.31033371699565976,-0.13815239900252818,1.2313407871102142,-0.02946677014810874,-2.1773476071865723,1.9199865318669218,1.1184410418902768,-0.33764998283599934,-0.09350763086458655,-0.17583520238921146,3.1953125
-0.514766485610427,1.744426999533563,1.8113741011025086,-7.80282271741819,-0.8742847404878593,-0.327307002473675,4.236536079765592,0.2021295058585135,-1.2795882562005185,3.2003140881127345,0.4907139842701122,-0.7535161200508945,-0.13793418290173906,0.007109482098527534,3.203125
-0.31228926074256463,1.0853593413726856,1.4422715533742685,-5.736284834882982,-0.4809531812179342,-0.14999292381711404,2.689811881179754,0.24352931963041707,1.552064622476019,0.7345800634011447,-0.9658644812316,-0.3216788787381157,-0.01628709012336203,0.23739019293489477,3.2109375
0.14748888608604682,-0.46378894350571553,-0.03486971363644443,0.8223408824419757,0.32205495525949224,0.1638814243801083,-1.0495476481862507,0.11306251465598718,3.6695581119712437,-2.6323631472699534,-1.9322391975761324,0.4096520842926595,0.1359815089580937,0.3283633866581567,3.21875
0.22872123127784055,-0.7493416077616876,-0.43730187106689633,2.394059821290739,0.44408005290121266,0.19964858787137238,-1.7602714764518355,0.04030640166759109,3.089246139497952,-2.7326165274449647,-1.5848869788998021,0.48362370260185567,0.13540187635747927,0.2488127362910805,3.2265625
-0.06687020474805438,0.23354755419277995,0.35703701924253417,-1.3687329228691023,-0.09396840515195914,-0.023728984822025293,0.5889222262026524,0.06959386132146364,0.6801570053309166,-0.025244448067884173,-0.394902460928146,-0.047190037850470455,0.007333064857165998,0.0853025413472081,3.234375
