AF3,AF4,F3,F4,F7,F8,FC5,FC6,O1,O2,P7,P8,T7,T8,time
0.05331488628304147,-0.23601557066661602,-0.8187125260685056,2.6522554780119547,0.004003961573486244,-0.05145583329481267,-0.6680711257711012,-0.2421698910786416,-4.101202195587807,1.8539262667257934,2.2478413038881135,-0.16462831338079548,-0.10621809899948605,-0.42538244012101,0.0
-0.18150603417639183,0.5416572295749286,-0.2249704063686652,-0.22790762969207198,-0.4286950372203745,-0.23393420978382173,1.1847900152517261,-0.2319628983133706,-6.268048371221003,4.134887578450583,3.330304696023115,-0.6007964160741229,-0.2151536020288954,-0.580420073325295,0.0078125
-0.08209929500062185,0.20923332235465403,-0.5112336054410358,1.093979673082358,-0.2501183493660254,-0.16138846436490226,0.3875127131428626,-0.24843481893207953,-5.585112203670464,3.290490059904499,2.998994350504739,-0.42945727608485673,-0.1757074359383576,-0.5380671019587743,0.015625
0.1002109218457867,-0.35428749357391714,-0.4831794085596437,1.9014326487007136,0.15512854245495733,0.04836439874451207,-0.8786920956625042,-0.08429506476097003,-0.5980766613459855,-0.19085928075936673,0.3645286900776133,0.10030766560021587,0.0039359722645667915,-0.0864115063693088,0.0234375
0.0608506669023955,-0.14712742321986622,0.5427257854523847,-1.2883705482780898,0.21328717172957917,0.14640982663442947,-0.24049417396568074,0.2430910957051664,5.295839464332412,-3.0465839232324603,-2.8501952377544497,0.3887288169476822,0.16554063276323894,0.5144187889901818,0.03125
-0.09638282047115582,0.39785517506450196,1.233038758766668,-4.072190342221901,-0.03517378732766263,0.06480389777582486,1.1039548508723265,0.3527894160238562,5.822524583710784,-2.542208030095918,-3.1985449420738705,0.21096792446410637,0.14939991089451962,0.608509590165764,0.0390625
-0.1775324670193947,0.6197236011991536,0.8758834582955786,-3.4237660298291392,-0.26386069208731994,-0.07631799929628011,1.5454084124821728,0.1586443084616731,1.2774823762641543,0.21124960014873143,-0.763962305092587,-0.15894324830562803,0.002595320314935636,0.17443859203004564,0.046875
-0.20147949610611823,0.6672062147519469,0.5544013193127756,-2.6005774532007253,-0.3618526283844559,-0.1479807588693833,1.5994513033507833,0.02537024414680553,-1.5231894873443712,1.7793110770214564,0.7466637579575559,-0.35238235653287137,-0.08268991880163508,-0.0999042632358606,0.0546875
-0.1666751537256057,0.5682288679801257,0.6605052011532982,-2.7405261509478076,-0.27069561205259546,-0.09411630588893616,1.3942035962003607,0.09195273692591387,0.10568328425972535,0.7645187403612266,-0.12322715948604954,-0.21222516593474855,-0.028963207758848634,0.054053669898341004,0.0625
0.0389626001043013,-0.11285206687807105,0.13821573151334593,-0.21134539850244183,0.10759853644196736,0.0652950729441607,-0.22869106414298707,0.08207604591596945,1.983419859935928,-1.2230297943175799,-1.0602283307929614,0.16860938785471238,0.06588637057735795,0.1879104722213637,0.0703125
0.32579237233706493,-1.101841452101655,-1.056043073288159,4.676957235964529,0.5701413833969364,0.2231950151789899,-2.6582514311433934,-0.09519808941031942,1.4624571707906366,-2.3702148285113815,-0.6633186076980115,0.5184849617558548,0.10792408765715875,0.060053176274565835,0.078125
0.3843311493002442,-1.312256254094484,-1.402709778445017,5.974580638618987,0.6502862449323389,0.241210228732023,-3.191296213070433,-0.16743562382866067,0.6642429823645666,-2.2464348785104082,-0.20681497946453498,0.5498550773255787,0.09659834238941713,-0.03539674362434832,0.0859375
0.11634315453372902,-0.392924068668832,-0.3459695948329882,1.578710085507307,0.20987674318829308,0.08550975194380804,-0.9428695270930008,-0.02249683962081085,0.7540952154612024,-0.969658562380555,-0.3621444016878983,0.19983618853364477,0.045898103997667354,0.04426069385584711,0.09375
-0.19972778793727827,0.6799868297309304,0.7636833627904501,-3.20564135831994,-0.3290407483679967,-0.11713265935012086,1.661424510530729,0.10029943802629297,-0.06592154685171707,1.015811660351072,-0.042902805567523634,-0.2664057121061379,-0.04048629287327949,0.045560929118583296,0.1015625
-0.2674600894404144,0.8843335049973972,0.6941806889703113,-3.3325654041255097,-0.4878682689134381,-0.2031779444323137,2.111128028633792,0.01860289933272391,-2.317118640641518,2.5161198518157333,1.1520061944588826,-0.486154694331936,-0.11863185810018498,-0.16193319090113775,0.109375
-0.10228030220968878,0.29553554403011595,-0.22532986220693763,0.16010453805480615,-0.25411791272666745,-0.14439416491883364,0.6300951235486315,-0.16491175740870162,-4.18152721088984,2.6657844413367844,2.2300779096750496,-0.37495469947800986,-0.13936901520123432,-0.39215856398642635,0.1171875
0.05923903307610078,-0.25877752659731057,-0.8684879127892356,2.826964597709632,0.010450930195543108,-0.05144489989099798,-0.7277489862980528,-0.25442831219907736,-4.277137425424433,1.9169258806413634,2.3464253587330886,-0.1665513742839674,-0.10999812169325128,-0.44431665420397887,0.125
0.06972242370117773,-0.26878572654303434,-0.597464812800675,2.086143189685937,0.07163906952835981,-0.002054303415987468,-0.7051794795878986,-0.1503664067978804,-2.1733804817731475,0.7752738113005405,1.207936835920252,-0.03121836583180712,-0.04744965234902585,-0.2363640559560377,0.1328125
0.014329275378814203,-0.03242792675408137,0.18363773285583143,-0.4658632020600312,0.05996446103251627,0.0438246293323028,-0.04102929323917978,0.07730656490288623,1.6430979694261145,-0.9263407179315806,-0.8865006742288167,0.11592399521575794,0.05120087391254263,0.16050521331062448,0.140625
0.031666362908930074,-0.06020024929287641,0.49982329750281707,-1.3046689544654237,0.14279570957496618,0.10725099090940259,-0.050415225028582776,0.20309824345705946,4.234931280431196,-2.3525706873480483,-2.286099908499823,0.28873217810152085,0.12911211111362395,0.4155046750972507,0.1484375
0.07554691863690609,-0.22924781273040704,0.10141976227031806,0.07366760547466016,0.18319767071140208,0.10146676390228841,-0.4986609367533089,0.10017050523525235,2.6998048891983455,-1.7749087509890757,-1.4345350214232488,0.25819575046598353,0.09373226401012297,0.25013382850031396,0.15625
0.006648951911510136,-0.03483631762718162,-0.13284386230847853,0.42243962033719895,-0.001369679925528611,-0.008728473241675194,-0.09978340337226108,-0.04040235262148423,-0.6938102990157119,0.32067865461847767,0.37998809262971417,-0.02912509532991216,-0.017456708339115605,-0.0716298386664766,0.1640625
-0.11648308924132743,0.381283250179106,0.2813774908843059,-1.3880484644045947,-0.213788506214838,-0.09007205582089103,0.9082673247355462,0.0011362608927789391,-1.1349310182870862,1.1567431049633279,0.5696415161995503,-0.2176045146243032,-0.05459998780213989,-0.08335954975622298,0.171875
-0.08446931891180656,0.29935231822756064,0.49379007230511734,-1.8527733655785485,-0.11343471278164821,-0.024397431251600217,0.7595924465618895,0.10291262458806934,1.141793350837567,-0.17892729678488345,-0.6536138279053041,-0.043526543721226926,0.017186592740744154,0.13624162443491025,0.1796875
0.09022396431178864,-0.28760856948263885,-0.04965312992163426,0.5864048188169388,0.19415859252008333,0.0972979327837207,-0.6548665489362522,0.05960996666185132,2.0668607032663644,-1.5196464747649296,-1.0857209341469507,0.2413497093148324,0.0785061358316804,0.18287209539754518,0.1875
0.13821559804440808,-0.46627026317481796,-0.4102115962620108,1.873755419285218,0.2489004448143016,0.10136457867315356,-1.1182005876112886,-0.02656043473159596,0.8945323903323117,-1.1496513675983333,-0.4298623628041575,0.23716660280849106,0.0543651532985992,0.05280001340577235,0.1953125
-0.03993013602825329,0.1280352164939129,0.09188945228164509,-0.46173501285008806,-0.07209968372072649,-0.03002121237168219,0.3059517889251889,-0.0007204731807216374,-0.4000220328369585,0.39998461263149654,0.2020946356502954,-0.07361865318602813,-0.018274622732808048,-0.02999764438827616,0.203125
-0.2048796939628059,0.6778803157876326,0.550417900393841,-2.60610179324789,-0.37028257053980546,-0.15255264889559053,1.6223938002661729,0.020943121490661933,-1.6422513897978857,1.8570590962545723,0.8108561657175059,-0.3640363923977883,-0.08681378774991681,-0.11105218252902103,0.2109375
-0.1541563593382272,0.4963454488712964,0.2560203281809959,-1.4997692739001378,-0.30029798814513603,-0.13619144378850778,1.1634341555229248,-0.039693271809480596,-2.2969753925761616,1.9452832080011466,1.1863906952172885,-0.3349870294101766,-0.09558460639628406,-0.18997162284317795,0.21875
0.0045001680010671495,-0.01902579892663038,-0.023762600666036065,0.09050547993870875,0.009191650032961216,0.004015211340388567,-0.04552407636554367,-0.0038895848021174772,-0.013912900723185469,-0.018969853984198936,0.010025787465166905,0.0069400557292112405,0.0015668786417372448,-0.0029522911776850846,0.2265625
0.09185203856688488,-0.27481772457462816,0.16269659472662237,-0.027654105901539078,0.22764327840095486,0.12847983433298202,-0.5907245668188384,0.13555735906412933,3.5428699058869593,-2.2902602959492158,-1.8860415579298555,0.32840521425186964,0.12119267151884534,0.3303976507518578,0.234375
0.12269635716537704,-0.38966838720803354,-0.06716101207405939,0.7958499262410078,0.26307059546762723,0.13138255064990872,-0.8880691886588153,0.08087315246971138,2.801938207841744,-2.059739524851406,-1.4715834987899152,0.3267680221752943,0.10608738780681896,0.24803869508373416,0.2421875
0.17315902887637966,-0.6195108776242785,-0.954764331723045,3.636027592678316,0.24880723655169726,0.06509047009223731,-1.555446422563226,-0.18848438348706836,-1.8652401980491418,0.10501146938874287,1.0819370511466273,0.12390864277276169,-0.017994662651541732,-0.23280220512049307,0.25
0.18242316899310276,-0.6735044534232056,-1.2625926919566872,4.580525273060548,0.22569372831502418,0.03276134961288679,-1.7293458822971173,-0.288882013666001,-3.7003245304925985,1.008478102908191,2.081676811367444,0.029958793366824433,-0.0689195660875587,-0.41907781040572506,0.2578125
0.05842741244414083,-0.2203953858302685,-0.4343816754675195,1.5563045736827656,0.06986629367892931,0.00780165907763486,-0.568940147547576,-0.10254804326083973,-1.3673758946585226,0.4140183449376202,0.7657296995391399,0.0006280544084896166,-0.02653815321437112,-0.15273547867938958,0.265625
-0.12417937153643846,0.4167324170542905,0.42269997900647177,-1.8379537532443855,-0.21068928112354268,-0.07921073878134434,1.0118686991648833,0.04439796054960553,-0.38101145191847113,0.8059083147260149,0.1574338322089621,-0.18396979906429944,-0.03448293699376559,-0.005844670823866516,0.2734375
-0.17827063147874408,0.5844266732726628,0.42126187286546374,-2.0983327005599395,-0.32987309641777735,-0.14040219952267705,1.390200440681507,-0.0018820800035616709,-1.8142085771375334,1.8151727745818276,0.9142191524017208,-0.33848405907968315,-0.08643986762187005,-0.13516390262721403,0.28125
-0.05545148217273811,0.1714385141747104,0.030920477427022038,-0.3605123693542068,-0.11505907312386325,-0.056036303961774905,0.3933208456378752,-0.0353630152965069,-1.2222438200643064,0.9025079520672038,0.6424649598461797,-0.14196970150958185,-0.04504457168078875,-0.10820981587961821,0.2890625
0.056431194487446164,-0.17829417827203775,-0.0022687956002390183,0.28159011203143547,0.12623364653506386,0.06558919243756298,-0.4011949366076449,0.04753505284217056,1.495325063182691,-1.0571353884851091,-0.7882065971017594,0.16304372391684385,0.05530725766320685,0.13455683060573842,0.296875
-0.01907418321310657,0.09058307981081376,0.41945823544825195,-1.3180574856473217,0.019876545130096672,0.03900187408275272,0.27604026126273873,0.13198703769927086,2.358618797537429,-1.1322686810696494,-1.2877481073819863,0.11293867933103958,0.06514061101126879,0.2409314231934272,0.3046875
-0.16346468637934222,0.5759379297900175,0.8725159532028006,-3.3456725271567453,-0.2336388441806047,-0.061004231275694244,1.4467769763489444,0.16914939927381042,1.621574755443922,-0.03782488280833686,-0.945342487814879,-0.1209397664695047,0.015241760355936086,0.20509892892895573,0.3125
-0.12315953612700911,0.4439359052798992,0.7848843401121239,-2.893573317429862,-0.15749545120480285,-0.027768378172900187,1.1340762761034309,0.17237041518539697,2.0896323089830595,-0.47789666744824166,-1.1823438949156606,-0.040512919611222296,0.036677382420810575,0.2412901057666881,0.3203125
0.07099082855236878,-0.21554296997636024,0.09301797723842922,0.07483762404747345,0.17182401645569265,0.09520819335008218,-0.46947931820253,0.09337029456656824,2.5237378502431493,-1.6607029565265696,-1.3399825181947287,0.2420152542936045,0.08777731658423878,0.23358668620030235,0.328125
0.13919335940337882,-0.47222026106085147,-0.44759979068265715,1.987904848602471,0.2456892768316593,0.09716986534198199,-1.1384814501407055,-0.03889910978032925,0.6672473364783061,-1.037202625895945,-0.3057816440715264,0.22536592965988805,0.04802375722261577,0.029697657790363576,0.3359375
0.01958289080644977,-0.0891952227403362,-0.30047142176580605,0.9752837256604644,0.0034183505731252193,-0.0173281140832326,-0.24945057960236863,-0.08831123796012971,-1.4853666810259207,0.6670524366120142,0.8139918296339823,-0.05754102215840376,-0.037630293780284665,-0.1543090153946817,0.34375
-0.060257464258982665,0.1865562027130072,0.03529513262122158,-0.3950753042216022,-0.12494916387614104,-0.06084990860415507,0.42808111851917047,-0.037830827498603656,-1.3186382016536864,0.9749944097834836,0.6914316285935886,-0.1538316914624466,-0.04871932467329009,-0.11645070172857741,0.3515625
-0.0004514786390731787,-0.0030065858715294814,-0.016210814061491188,0.04715326944792376,-0.0006752695324344338,-0.0005460730422112712,-0.009161841896489728,-0.0053023959878995336,-0.09290153345906182,0.04541943161034256,0.05023902436893755,-0.00358548134559626,-0.0015572246445125402,-0.009373507947084901,0.359375
0.057718159025504895,-0.20589090181176622,-0.2828229941506799,1.1098154935519888,0.0898917032273736,0.02815183536328087,-0.5108651638300132,-0.049728136340425826,-0.36143018486149653,-0.10205860883036541,0.21945350185349147,0.05828300575727948,0.002295600146381417,-0.0516922388576043,0.3671875
0.043514542750865394,-0.18351995943391425,-0.537688084390252,1.784799459533564,0.022889140285147273,-0.023153738911947108,-0.5010580678512043,-0.15133158499567834,-2.4549344700385136,1.0528553466411121,1.3502624611948026,-0.08152472344343836,-0.060790345420623,-0.2578280601209262,0.375
0.03710542742266505,-0.18434150017528717,-0.7875927342982829,2.4831286327227735,-0.02652309096691377,-0.06507504857956727,-0.5439899715756067,-0.2446940524761722,-4.312009316630223,2.045636940796823,2.3557653592382066,-0.19766258224832328,-0.11551014365040754,-0.44222190148272167,0.3828125
0.06646177487272431,-0.26753916973759756,-0.700784487830429,2.3720308123847635,0.05002858417105793,-0.020022504027198237,-0.7187395418489159,-0.18945531859010992,-2.9560602316839284,1.1972565841117975,1.6316036246331937,-0.08076855272948538,-0.07065642870523105,-0.314024998253165,0.390625
0.08552160054059248,-0.2743705318694223,-0.07657346094637175,0.6404676566007161,0.179706432766664,0.08800398471120102,-0.6311866415836567,0.045984347695219,1.7580886899600867,-1.33778710329208,-0.9193076727917832,0.21660554737101084,0.06868221254862009,0.15327868851581292,0.3984375
0.0641025114251601,-0.1624782583987679,0.47270127961259745,-1.0690297943540776,0.20995469363175948,0.14007083997373324,-0.2864058935110174,0.2208783820600414,4.903021279071225,-2.8593820208562435,-2.63485401569287,0.3697866059853007,0.15478745382015133,0.4739444856436211,0.40625
-0.028381412029252026,0.12585143393750498,0.49373154130791586,-1.5805431404439876,0.00966869668197907,0.03871132202935807,0.36813527900958637,0.15010938731824858,2.613877014863761,-1.2180441695374735,-1.4296668678955233,0.115119689220962,0.07058311019252136,0.26895130519690064,0.4140625
-0.16102698638117965,0.5323292597979736,0.43407513863388236,-2.0516194348136176,-0.29021402982240757,-0.11920119965457404,1.2742038195275933,0.01711582691956605,-1.2749813302665174,1.4487767021473925,0.6280973745588376,-0.28488123867259546,-0.0675043201784913,-0.08570346877386675,0.421875
-0.1879547359078664,0.6279716990587931,0.5803924103936613,-2.6096624961658192,-0.3286721169501722,-0.12928719427430313,1.5138347148196798,0.04587211449320135,-0.9925849952267507,1.43625749625598,0.46491304430134006,-0.30382670636061276,-0.0647001623061152,-0.05042504443714079,0.4296875
-0.09121384295406709,0.3319820216608454,0.6319385868869276,-2.289038826371849,-0.10873227472775168,-0.01297811526116791,0.8557476125369545,0.14576369571446357,1.9005644308173355,-0.5363443620291919,-1.0658378500804886,-0.008428851526534458,0.03763044661195048,0.21377532310367142,0.4375
-0.08248922892806276,0.30474929691757563,0.6286373340076958,-2.2382327391934265,-0.09026413489119217,-0.003613217113023423,0.7942172522918112,0.15188392892876904,2.1054552987765414,-0.6844811746226058,-1.1736800224255726,0.014702996596152668,0.04518983518628907,0.2320137329942881,0.4453125
-0.18416659013910164,0.6231955318334345,0.6603139970795237,-2.827479332480465,-0.30962574334741694,-0.11399261078251986,1.516716594219878,0.07698313492138645,-0.35848690999660265,1.0907832335005725,0.12188060805912908,-0.26264840682647433,-0.0458086075269522,0.012170434717800185,0.453125
-0.0872901977897615,0.2775065208477527,0.11637281480333289,-0.7650329712085717,-0.17314725220320235,-0.0801268199511792,0.6457725920809231,-0.0322419251934904,-1.4847563861196325,1.1930233975903484,0.7704206103729461,-0.1993848142350418,-0.05883348893127245,-0.12595545887047932,0.4609375
0.2541427618314727,-0.8768524334839536,-1.023127882197039,4.2307250728791965,0.4175035375006405,0.14715007952134881,-2.1468794515661687,-0.14393177804305693,-0.19708609718570586,-1.1593438519773362,0.20691946515131582,0.32755782634337177,0.04609068212920869,-0.08680187641348917,0.46875
0.418888188739782,-1.4248892501692088,-1.4644143053841978,6.3234646124565845,0.71786560284383,0.27186729306101975,-3.4557989001628275,-0.15966876379951067,1.1581497155812008,-2.672828016069974,-0.46271484791235495,0.6242202955243875,0.11776116655583613,0.0055336683585183255,0.4765625
0.22748309969310462,-0.7751786221855372,-0.7940211701239546,3.4302053763763545,0.39131526010868745,0.14879849366347586,-1.8790031417961721,-0.08594897583777353,0.6504684632261122,-1.4639906854506524,-0.2623467247662637,0.341240881293742,0.06506533825730408,0.004963202246632822,0.484375
0.0326689030061097,-0.13183789992376949,-0.3265894795684092,1.1142310467088532,0.028606736149610224,-0.006257698845595916,-0.35000288124000006,-0.08646489614052755,-1.317486714905074,0.5169323645082268,0.7292555488251468,-0.030560932852723474,-0.030259081538983955,-0.14101428313019831,0.4921875
0.024329341800500184,-0.11863132358414234,-0.475731727069397,1.5100281079473745,-0.010712992651474481,-0.03627123790279179,-0.3442193657299858,-0.14590705495026188,-2.542559379162258,1.1924485101307942,1.390969914528856,-0.11230829186540736,-0.06713536813886907,-0.2615771783721992,0.5
-0.06658603597682525,0.20014261654562446,-0.032467801083500766,-0.2286801910608206,-0.1481707413763642,-0.07725435498874118,0.4485307212205953,-0.06691749629851793,-1.9397232936348354,1.3290542421792684,1.0267932584594694,-0.1980038502861208,-0.06788055195382034,-0.17715390206392076,0.5078125
-0.32418075093576826,1.0863161160128372,1.0099240143901913,-4.531485096921415,-0.5679791176157444,-0.22338644194646204,2.6195591837672687,0.08161080032927069,-1.677441690943881,2.4643954833279302,0.7814578297827958,-0.5243193620550609,-0.11155463377493062,-0.08299542307955929,0.515625
-0.406426315922771,1.352191357164959,1.1343328530043688,-5.295793711396807,-0.7315280376972586,-0.29910200358676314,3.239286630019661,0.055686524118836456,-3.0020319838752165,3.555695172053675,1.4683651253636372,-0.7098113622727334,-0.1659783616445957,-0.194145016863219,0.5234375
-0.1658592904959058,0.5398555382476713,0.340892098037812,-1.803177118086378,-0.31428665751329254,-0.13774739624562332,1.2757213360885333,-0.01983317689959027,-2.0324331418340136,1.8663215155460238,1.0387913639214026,-0.3349369613066472,-0.0902714926344781,-0.16050779519290076,0.53125
0.09473397051490193,-0.2800030777030444,0.2048086867515651,-0.13491791424678956,0.23966450615863208,0.1375240462413247,-0.5956856065037438,0.1526774583494739,3.902251616968829,-2.4921709827111793,-2.0788195582101747,0.353052912454268,0.13213821645994625,0.36542236192770705,0.5390625
0.13949820559146298,-0.3703870732927438,0.7847500176850734,-1.6124992533942637,0.41975448677750166,0.2685191892580751,-0.7040595476890386,0.3943607457499062,8.99393642741259,-5.349568751340894,-4.825746140622528,0.70615071297727,0.2874137802653255,0.863911311712509,0.546875
0.10121709892243139,-0.2711253460597264,0.5478051828365188,-1.1068887714271003,0.30222674514129505,0.19240934920581487,-0.52063580089481,0.2787640362723469,6.387229817423158,-3.8120295647444022,-3.4267907850465775,0.5048128063309663,0.20490269396072236,0.6130143764841453,0.5546875
0.16847849019862549,-0.5889978760472656,-0.7602567380039214,3.0450354202792336,0.2661834463208367,0.08686696397981322,-1.45451847951706,-0.1239719190546311,-0.6726783709441718,-0.48910557954726935,0.43245898104945807,0.1866200080071517,0.01535015852241843,-0.11202427144317005,0.5625
0.2823390538517022,-1.0192452115052892,-1.678052681610761,6.283267039900845,0.38759311973578847,0.08809208450500228,-2.5758517552436384,-0.3501822160731658,-3.872147478795017,0.6065558816759956,2.2152654310497883,0.15316837090310917,-0.05402484404355574,-0.46276672471766395,0.5703125
0.2276440232500973,-0.8140153296292326,-1.2492279881461343,4.76231645645122,0.32761391027960407,0.08585866069332918,-2.0408020927796793,-0.24579180564516873,-2.416617137328746,0.12414766970666247,1.4035773115946484,0.1646639955041918,-0.023125772997046767,-0.30267837390718805,0.578125
-0.05845106031850158,0.1713745936662543,-0.07849781552439541,-0.05577180999738464,-0.13701607560016418,-0.07459607449013302,0.37582744231145193,-0.07637486177736014,-2.0400469510032266,1.340939904224593,1.0847044098779917,-0.1931720789601784,-0.06919029068440745,-0.189489033553507,0.5859375
-0.31619008312910807,1.028073820157927,0.6045883514781522,-3.308913726002385,-0.6077303592750295,-0.270636542263,2.4208056025698848,-0.054237604568677,-4.207431100463709,3.7336448753399107,2.1580609614283035,-0.660102849792879,-0.18267520422116645,-0.3385478015161492,0.59375
-0.25286072797359843,0.8119169590881176,0.36976299692412995,-2.3124677687910724,-0.5012952425895992,-0.23171995502846224,1.8939560022597064,-0.08311205621887481,-4.125132825288478,3.377509497421618,2.138484153264522,-0.5712399334128286,-0.16766817618682095,-0.34692674361166065,0.6015625
-0.0024369785490779197,0.014980290553853288,0.13105985483982385,-0.39294617812205945,0.015973034125608247,0.017690928545306836,0.057056921658501555,0.04477965248374098,0.8501650362215808,-0.43336956376201974,-0.4625690939707835,0.04814595962643438,0.02512803990352897,0.08553048460328068,0.609375
0.05087046042345652,-0.10091975731022065,0.7251893175880719,-1.8698355554357022,0.2167387036943036,0.1602162933627459,-0.10521797035951831,0.29859934878710315,6.261647769039186,-3.4959524178032217,-3.37890761581996,0.43134523073462494,0.1912560475234378,0.6136589438107823,0.6171875
-0.08461679982422751,0.35983904335497713,1.2100403762013041,-3.948036243229457,-0.013085987990123225,0.0746547556982855,1.014625608247179,0.35442828111923863,5.9714612749613245,-2.676102777534511,-3.275045648108475,0.2350871590537798,0.15598487093715135,0.6202793505283254,0.625
-0.06728982429658173,0.2307127728555248,0.3040719845371312,-1.2157193697083748,-0.10247081277267006,-0.031388604616643105,0.572304359295402,0.05075728862209426,0.3133131445026273,0.16605246760128617,-0.19616741082062708,-0.06869032625670399,-0.0032020394276677535,0.04873622456337513,0.6328125
0.08268460943818867,-0.3400067656826339,-0.963345089788319,3.219749101400828,0.04899116112279579,-0.03800115830766369,-0.9259658473818858,-0.2678468695758273,-4.297563660876552,1.810839647395251,2.3666944104675225,-0.136430697635974,-0.10595335591402688,-0.45282448550595644,0.640625
0.031024057308624214,-0.15858541125409753,-0.7099088091804241,2.226836068549086,-0.029038861335502916,-0.061245645698381125,-0.4743375544637349,-0.22257515761003738,-3.9476548126319013,1.88466432149569,2.155937627315704,-0.18496247052221546,-0.10621001241020799,-0.4041139374345324,0.6484375
-0.15133969227162294,0.4981665989217841,0.3824550225503112,-1.8549127640317653,-0.2764780417901256,-0.11557151475763425,1.188812739370386,0.007041159265695141,-1.3719400664531425,1.4525980358427946,0.6850700486525801,-0.2778561976177773,-0.0684233677739719,-0.0979173906987675,0.65625
-0.08832109797946983,0.29692829280241095,0.3126200685620239,-1.3428330706862255,-0.14775446001888493,-0.05414490242528232,0.7228619626999555,0.035844260415341944,-0.18522887594068146,0.5275399199771766,0.06632401661047266,-0.1255015510594688,-0.021735709893662972,0.004366013928759018,0.6640625
0.16660918494367494,-0.5731199796250185,-0.6380154406209618,2.6790406716477104,0.2791819881645946,0.1017107208601779,-1.3979552334559822,-0.08258494672699104,0.10426443499568633,-0.8809992363687577,0.010864002144562021,0.22925265251468085,0.037285762068657156,-0.03388302177639662,0.671875
0.27224533523938954,-0.9227584985525896,-0.8993213970043844,3.9572529356215775,0.47482440284634037,0.18470794436774315,-2.2294986921462714,-0.08510663173531137,1.1185329154640038,-1.927263706122114,-0.4979656475643966,0.4277400830008062,0.08740821032059683,0.03984012549899934,0.6796875
0.25023005371721646,-0.8317065579833207,-0.6253008801323866,3.048144051845315,0.4649796317773726,0.19785877363079993,-1.97793378387066,-0.007512110543700619,2.3873087185199395,-2.4752549110021573,-1.1957285225316332,0.4716812744601651,0.11948299226493157,0.17273166968370374,0.6875
0.24251858884781569,-0.7991534411272924,-0.5233434825965165,2.7126190798491536,0.46234702699507263,0.20328450099924308,-1.8878049058581943,0.021777746306526125,2.872338663791285,-2.689030067441231,-1.4619277680574347,0.48941410322812023,0.13192604751503853,0.22337778028694497,0.6953125
0.03784845511247439,-0.10809171627238785,0.14932048688292926,-0.25061005207056947,0.10695514381888317,0.06569204603699257,-0.21794259867001847,0.08517590662619635,2.032175498743594,-1.2442268650354964,-1.087243388857594,0.16963891026157527,0.0671165675261194,0.19325079444388224,0.703125
-0.4074504422746082,1.3888856750973064,1.5370994159531477,-6.478029014390858,-0.6770358625916318,-0.24424991085305983,3.389111644947914,0.1963683991710271,-0.31045531430505113,2.1674349363948346,0.00681618042590539,-0.5558683643188953,-0.0887752500650019,0.07601903880766821,0.7109375
-0.5634624209925057,1.898564808806173,1.845949260830849,-8.142326535746482,-0.976814096732992,-0.37751341788026055,4.590492899268626,0.17291843063465553,-2.330367279982474,3.983904193040313,1.0409342071825403,-0.8793803732496273,-0.1778977069805898,-0.08527753823233834,0.71875
-0.16518969759213098,0.5457027444975158,0.43877182212687577,-2.08758394789931,-0.2989947609966863,-0.12332729496411358,1.3056912857838712,0.015155830388655088,-1.3548568780537944,1.5124133885034285,0.6700943568579619,-0.2951883406944666,-0.07068587416687909,-0.09266901581704617,0.7265625
0.23840958294135628,-0.8069929763121279,-0.7657192320546327,3.402003951359721,0.4193613281985489,0.165098810338522,-1.9452072358366554,-0.06675166434070852,1.13173522659722,-1.767753147645036,-0.5189990330603328,0.38347961358309685,0.08104940640318953,0.050047564400236166,0.734375
0.19443224321951275,-0.6608154232726055,-0.647003999613098,2.8412453600037653,0.3395613999037279,0.13198622042281694,-1.595827012739871,-0.062154405426322876,0.7773015011283745,-1.3672020317990674,-0.3444431761693218,0.30483679695312965,0.0621327117289029,0.02626093108939984,0.7421875
0.023127638758349712,-0.10735690822912226,-0.3858222978214523,1.2418821931398627,-0.0005907929486552956,-0.025179022284661654,-0.3045463030211434,-0.11530041433390834,-1.96782802875172,0.8994392775483272,1.0773410366738416,-0.08079032653425454,-0.050828147121247245,-0.20353298919787396,0.75
0.07415492167437482,-0.28747430635989524,-0.6502257924445414,2.2631409709170285,0.07419704322194146,-0.00433652561431352,-0.7550152983557689,-0.16512572196054937,-2.4121052462591264,0.8775225795660727,1.339080324323278,-0.03880478055343472,-0.053447974473404554,-0.26155062380927824,0.7578125
0.1196276906402579,-0.41760415519098143,-0.5158673853086435,2.093146087669944,0.19322037165530334,0.06570702065235522,-1.025980243831317,-0.07934676426924159,-0.3064953492268408,-0.43609367770056345,0.21438031778015196,0.1433477675992894,0.016128954989444385,-0.0626128717684675,0.765625
-0.07243872562533177,0.24557763529662635,0.29513137438369236,-1.2132538238109227,-0.11489556607854992,-0.038432437137513285,0.6046114392150415,0.04337633478531367,0.11887972664104686,0.2930257190325744,-0.09303723551339088,-0.08636079410118482,-0.009812223420454465,0.030709564373960833,0.7734375
-0.27062103651842156,0.9050053390333501,0.8262848174308384,-3.733465344000227,-0.4762294554605666,-0.18842645835717137,2.1795584122294978,0.06240905597680141,-1.5100770976282971,2.114714851212672,0.7124164745131321,-0.4431946885573303,-0.0960119808569464,-0.08017634349785527,0.78125
-0.20564185500850538,0.6821706189014689,0.5641391150810512,-2.6521788992774376,-0.37060853718207265,-0.15154506980927532,1.6327228190228171,0.02507335937638875,-1.5744294573368556,1.8261712570225395,0.7734609085404647,-0.36116809313236375,-0.08491875021653628,-0.10375777237152285,0.7890625
0.045949405327355496,-0.15708343070020087,-0.14282013493451778,0.6409774678236453,0.08316870831033707,0.03426130941112695,-0.3776796441374656,-0.010725670933666378,0.26941050920144466,-0.3715459304024805,-0.12716291750634567,0.0784915415976491,0.018087630221030125,0.014565765154083084,0.796875
0.24126608245866274,-0.8151144530675886,-0.7642908410809912,3.41127666764752,0.42560169340096,0.16842390766112034,-1.9645274267988353,-0.06398464557921761,1.2135408789857096,-1.8249947294911593,-0.5616176044738559,0.39181504603946166,0.08397364300414108,0.057465733392134864,0.8046875
0.23739886624485537,-0.8010120528951963,-0.7345257776453984,3.306171424330832,0.4216161441723901,0.16815018534267442,-1.9269064343114266,-0.05680022378272037,1.3155996399537861,-1.858243878062312,-0.6178614544123568,0.39251501735982874,0.0860277193749675,0.0684639465996873,0.8125
0.09219745850513829,-0.2837620452979975,0.0680638580442385,0.2514967920124722,0.21522778511485638,0.11564505802115124,-0.6262456455883918,0.10244164460329357,2.9147136991357914,-1.968403027267521,-1.5434700160806636,0.29222748841596047,0.10309584416660512,0.2669312174905326,0.8203125
-0.0032370204060289806,0.07201626856385893,0.7818011611004906,-2.3011407508662267,0.10551080899005143,0.10698820266809063,0.29457750819260037,0.2725406456486456,5.219744849045022,-2.69055908673524,-2.8336448843156243,0.29868835158175666,0.15045912664152164,0.5233029580455341,0.828125
0.018831431981808564,-0.010187356572200573,0.6147377742282264,-1.7050592405824505,0.130376645051826,0.10870336418616944,0.08052905422213977,0.23252722109305363,4.670206378804032,-2.5159215143031917,-2.5278696631601894,0.2963026056637182,0.13913091556357862,0.4626844458113761,0.8359375
0.02160133801133967,-0.07188890422357742,-0.018836927106910033,0.16192713959917573,0.04755590988553551,0.02397510052622768,-0.16417669947907343,0.012370973863975447,0.468793022372097,-0.35485492606020314,-0.24663188598267555,0.057790949609252816,0.018915443826012224,0.04102433990430565,0.84375
-0.05323323920724657,0.12961980506940726,-0.37999111628186566,0.8541336624406393,-0.16747902123852393,-0.11042766464810004,0.2310347202493155,-0.17763729357666358,-3.9327967577716296,2.29405539549735,2.1130836893630174,-0.2950449504075532,-0.12248724754458873,-0.38030122684776285,0.8515625
-0.10987263546173225,0.3032418106668933,-0.4046205211819025,0.6498056126208929,-0.295561258104431,-0.17766709024609578,0.6189296206690529,-0.23415355511305042,-5.58875968152329,3.4313567843497697,2.989735802812808,-0.46552753348789255,-0.18127858281643208,-0.531209145712386,0.859375
-0.15657951355143723,0.46699082891004784,-0.1852405811828644,-0.22046932976948924,-0.36783288703519595,-0.20003833108366004,1.0239270761769292,-0.19669595364485676,-5.340573340543062,3.5327029833802612,2.8368332869492137,-0.5133145170913042,-0.18336476840933855,-0.49394492086106195,0.8671875
-0.22223212948957152,0.703053623704114,0.1988708513607746,-1.6640051303834056,-0.4583576695742805,-0.22097708078865885,1.6193036659726496,-0.11732885355998172,-4.4760883167697285,3.408749134633474,2.342034916118293,-0.5507052242196995,-0.17160183800315904,-0.3900793323610698,0.875
-0.12523176288681195,0.40498059057864,0.23601331737499745,-1.299166523605549,-0.23957783251791254,-0.10635022732834144,0.9534424939259727,-0.02220636686975766,-1.6714063104853814,1.4788499726449407,0.8585762892173019,-0.2602049636112317,-0.07178438092786403,-0.1347947658134146,0.8828125
0.15930900489322386,-0.5141933879858488,-0.19703352076910358,1.3541987610771138,0.3254227401515139,0.15474601331060198,-1.1906737859578327,0.06625498470101027,2.890696782642675,-2.285980091042649,-1.5046056491389361,0.3805171950515708,0.11587209644236147,0.24713293691265598,0.890625
0.23443162875365003,-0.7470945362033276,-0.1953603829545184,1.714786995183939,0.49072122866365503,0.23972389966344881,-1.7150968726880742,0.13028264566113512,4.875634839028335,-3.6836193890230486,-2.552366691430012,0.5946956837513183,0.1878477759653186,0.4261189105930177,0.8984375
-0.036206817413800114,0.15263238014578126,0.5242002007155078,-1.7086502610964607,-0.003329833310599298,0.03406649799006411,0.4335760115231137,0.15423361168404087,2.613139852930668,-1.1768886924799506,-1.4322853818815655,0.10513805866687305,0.06899489719161447,0.2708203498025416,0.90625
-0.15321053497823545,0.5294252828762896,0.6890102236656749,-2.760246564215575,-0.23731447933563518,-0.07510318649098567,1.3101045796792663,0.11325825909745532,0.6495250732005214,0.4157376707169758,-0.4134342628293425,-0.16349903837017382,-0.01069540484605075,0.10505796291211603,0.9140625
0.10994484187679601,-0.36618398495751076,-0.2642725974118873,1.3099402022573383,0.207336024760341,0.08962243703246606,-0.8691710046794768,0.0007969595098580776,1.1364360138101757,-1.136993982100341,-0.5731425246787129,0.21330652596189933,0.05566194141600956,0.08454411982637831,0.921875
0.22424077620726762,-0.7675580852836457,-0.8299096250266788,3.519928497461982,0.378901406031252,0.1400834690211293,-1.8689026627041367,-0.10141471057210331,0.32275871997492056,-1.2805610658899758,-0.08545836612553319,0.3176709515653527,0.055007264361182855,-0.027151178324864585,0.9296875
-0.07235164017819916,0.2243785097525968,0.032990285158965606,-0.4493585159733942,-0.1519917006100858,-0.07489159020736616,0.5123223655076931,-0.048992952101386704,-1.6528936420310891,1.2073644743080487,0.8695380164321486,-0.18958210786740434,-0.06079018516969474,-0.14697492476514967,0.9375
-0.23013727448267296,0.7893095306546681,0.9455752022859643,-3.885689869388415,-0.37024356622545335,-0.1262297097825376,1.9393426645336438,0.13840331603979858,0.36064242389296575,0.9454410434738285,-0.28624688153628874,-0.28227135560250266,-0.03431223746161352,0.09633386280721153,0.9453125
0.06904952507773734,-0.1912225521596626,0.32104648752207676,-0.6002150875485602,0.20007249037240205,0.12478911969728552,-0.37550796720009355,0.17198224938671766,4.014809163307206,-2.4232250011530887,-2.151194655761352,0.32548037323564355,0.13023976661685174,0.38360356203323753,0.953125
0.324977834943446,-1.1030739387809347,-1.0983248644001142,4.796680240990791,0.5629021368874556,0.21657607063704287,-2.668594976789318,-0.1105100632623977,1.1610401592350421,-2.2109661339516227,-0.5004928164692808,0.4998988736057835,0.09915346429294651,0.03029181118831278,0.9609375
0.1486836095554699,-0.5817890430455158,-1.4095706268559416,4.846330967379391,0.13107445718474728,-0.025583510934466855,-1.544874151695816,-0.36902607074316035,-5.579326036109132,2.1480329662784716,3.0883338107760134,-0.1229545273198989,-0.129620507331977,-0.5984942065270918,0.96875
-0.1534271439383998,0.4547790882008757,-0.21273105120565614,-0.12504372459128887,-0.3647621191566368,-0.2003289982807886,0.9925680690444583,-0.2037608463406021,-5.443152659233217,3.5706948747402376,2.89426183103548,-0.515250116278055,-0.18579596642553386,-0.5052441672392202,0.9765625
-0.229857125308892,0.7955896517618405,1.0358792990858785,-4.146909801079301,-0.35687268156976665,-0.11326782213514058,1.9687981145545002,0.17053508548387503,0.9786730450507077,0.6249933072830454,-0.6224501084820313,-0.2455696068839007,-0.016415718393048694,0.15826755871152903,0.984375
-0.12063443656412882,0.4499981782835461,0.949103838388802,-3.360664828609714,-0.12902431017149446,-0.00215788407751741,1.1734955458851717,0.23234170062421053,3.2638147265519004,-1.0983901241552945,-1.8198292264138023,0.030973548324199913,0.07102485733063314,0.3585156392758262,0.9921875
0.03342823862773004,-0.11675505275230923,-0.12382660442100603,0.5265503239006071,0.05851464471157282,0.02273250240093577,-0.28428475832372,-0.014539680231601352,0.069676016222403,-0.20687175025628773,-0.024468435317360697,0.05065109555163012,0.009889843542426838,-0.002003900823841946,1.0
0.10870922552720837,-0.3925181505383376,-0.6281925751007047,2.368023903257883,0.15315948944591234,0.03774385453427812,-0.9895114769971576,-0.12809171793179278,-1.3542419948985112,0.15970256361421886,0.7790490560937954,0.06847353734074738,-0.016098285049145133,-0.1645912795616574,1.0078125
-0.0108148107233825,0.03276801886847437,0.03136550768813167,-0.14282924202054756,-0.01668506855128984,-0.005586420966940857,0.08043712332571663,0.002675042498862462,-0.04281285901815598,0.07239765997904682,0.01988709660306324,-0.014171371052725189,-0.002249365957500813,-0.0019010180971254498,1.015625
-0.17074640232326876,0.5838004158887105,0.688917815873105,-2.845601659716166,-0.2759674917136234,-0.09490234426093448,1.4328063831870663,0.09840101195530294,0.1887962104401679,0.7413245835341739,-0.16964841339984296,-0.21328194272732215,-0.027444653674249024,0.06336028144343708,1.0234375
-0.07256656259517999,0.250320431078421,0.33971040141549974,-1.3468362299637529,-0.10931441551651278,-0.03262094357825166,0.6228783718665754,0.058551104727289666,0.41122059730900146,0.1405365162746294,-0.2513998908158815,-0.07073896500395421,-0.001546445788166761,0.0597805829897232,1.03125
0.16330285998158486,-0.5362604017436453,-0.31362705995845513,1.7133015201880335,0.31775232208166637,0.14295636259122566,-1.2587536551458394,0.02845090160481213,2.205764459168399,-1.9517529554817237,-1.1316308493720748,0.3456618842270546,0.09690286061798768,0.1773934085555908,1.0390625
0.16376433872341983,-0.5374993768525036,-0.30552826195624594,1.6924501960702116,0.320303172666328,0.1446808004757829,-1.2597427421217526,0.03185642629664919,2.276360723528449,-1.989709775484089,-1.1699550172730286,0.3505888449319617,0.09899733260149424,0.18433833192244856,1.046875
-0.003720437836454659,0.005395976137300138,-0.02886451126765509,0.06705816176484852,-0.009123954148101332,-0.00592729537574785,0.009640096012184464,-0.012504046410811837,-0.26051665775378063,0.1486886681855257,0.1403265865430387,-0.01805110364489446,-0.007179660571014722,-0.02558201241927645,1.0546875
-0.04428884780041489,0.13006200136154575,-0.05035285718441724,-0.06816411502171348,-0.1017050236882761,-0.05470559347391395,0.2860961412807067,-0.05446184186050599,-1.4756551023618114,0.9761017088583631,0.783965819419328,-0.14218442175464605,-0.05007969196129187,-0.13647809512129525,1.0625
-0.07482709593755284,0.23820550893650935,0.10863866924596756,-0.6815992966939655,-0.1467095985965062,-0.06707333927739742,0.5563748213564539,-0.02445107339121906,-1.2077257899912799,0.9883655915722701,0.6263178891629234,-0.16701104207523926,-0.048382573323345,-0.10148365329523924,1.0703125
-0.23302464664673506,0.7646340901207529,0.5381803603864863,-2.7081050241676783,-0.4342533106113013,-0.18594628643069025,1.8151396789333876,-0.007199185203008368,-2.468930251636599,2.422775405549998,1.2473166340481665,-0.44919897789957774,-0.11605312361756806,-0.1860847933644025,1.078125
-0.1568367374543149,0.4983190658418277,0.17814274813709033,-1.2837815851263004,-0.31746494087880633,-0.14992339900960502,1.1540361950250475,-0.06924094057945518,-2.895782332445426,2.2671793781299345,1.5089430758955706,-0.37264002313247757,-0.11313804671827989,-0.24890552222517762,1.0859375
0.2814884931876459,-0.9578574182346661,-0.9788134654652337,4.235746217424782,0.4837124444286101,0.18415520676378722,-2.322863428762561,-0.10516346612860489,0.8226817683654957,-1.821068562337282,-0.33442521690433075,0.4233107148653631,0.08089850344746251,0.008013941302274799,1.09375
0.4474922087574344,-1.4868618202264816,-1.1445256074082715,5.529488597372768,0.8256806326022393,0.34846038705649135,-3.542978707757146,-0.023010384281551187,4.072274584154339,-4.320522176940185,-2.03118116890577,0.8311777912145717,0.20723547372188358,0.2896084991236234,1.1015625
0.026155879415824524,-0.06841588389208374,0.1930455934432939,-0.4356400727712631,0.08741516854648199,0.05852249968037177,-0.12089645083201028,0.09073525535150266,2.021782260119846,-1.1777676327300086,-1.0852247370401351,0.15409630636706137,0.06442439240766067,0.19505342702473596,1.109375
-0.2831103830387738,0.9581728825687877,0.9971849308328703,-4.294924807083615,-0.4796672708015182,-0.17898660434130056,2.3283430224250568,0.11169658332065062,-0.6852699664213973,1.7493303683251933,0.2609837120821353,-0.4126474030199778,-0.0749237487264702,0.005355497657257327,1.1171875
0.0013273281147891005,0.0045017145754438995,0.14180137762024672,-0.4072353990721245,0.025497377931153458,0.0232878781789938,0.03558551357992219,0.051529949554645044,1.0198121551095887,-0.5387951903996117,-0.5519536787485381,0.0625210544488068,0.030631817992277904,0.10129576867171888,1.125
0.2672924022623639,-0.8838842286957513,-0.6145491456672635,3.1013696135731497,0.5041967514443877,0.21855432892369897,-2.0934245183292295,0.01068536157833051,2.910775953984277,-2.8309304317372876,-1.4732365941131111,0.5242435240412895,0.13785408838847615,0.22068316983627362,1.1328125
-0.026619416715126094,0.09196146830467981,0.15550571420027748,-0.5826928038961539,-0.03370579155055633,-0.006201837315363703,0.23540290367257688,0.032855415632912416,0.3806255272523115,-0.07027021915215328,-0.21717403490726292,-0.01139342096216272,0.006704461067348555,0.04471400002654978,1.140625
-0.3939750695625902,1.3091242631055806,1.0842436587564912,-5.089469568891127,-0.7110581109656875,-0.2918768898374903,3.1347634388062144,0.04860345503784299,-3.013426702468262,3.5000318116876175,1.4789911495903991,-0.6942531646310981,-0.16382545872642892,-0.19834920653205632,1.1484375
-0.2729226649362499,0.8882580434227184,0.5397699884221955,-2.908083895999614,-0.5215828882522346,-0.23078260364439757,2.09512575791593,-0.04037541726922252,-3.507187998054223,3.1580673367070857,1.7951992940596753,-0.5621332612001658,-0.15388993099351603,-0.27960868949492446,1.15625
0.06658143328560866,-0.2718789661361978,-0.7428989064798533,2.4968215336608677,0.044568919105760246,-0.025589857229317687,-0.7349304611097996,-0.20400365708086154,-3.2356067432100746,1.3412319175159304,1.7827937452865434,-0.09631255597467413,-0.07859493551958387,-0.3419894222460585,1.1640625
0.1632019032742073,-0.6022913009629065,-1.1137813300793367,4.052142608967369,0.20477168982393495,0.03189520725919758,-1.5426557414521502,-0.25267003220469353,-3.197294367701406,0.8436861156941404,1.8006019987961253,0.033850026579755756,-0.058326733649198964,-0.3638243069009823,1.171875
0.05912130713847246,-0.21207653339787838,-0.30903635572321747,1.192312804024824,0.08893322316040214,0.02594254401583301,-0.5291101535366957,-0.058006164462294854,-0.5047733155855425,-0.03653869079495724,0.29792609935348613,0.05119782779826672,-0.0016188063647224605,-0.06665169664449049,1.1796875
-0.017177396580289776,0.10554127211971126,0.663653599738569,-2.0226527729519184,0.05804304490502472,0.07481858404366566,0.34957799223176095,0.219269126054552,4.052924970830983,-2.018573480036956,-2.206495461518117,0.21329313625814017,0.11426870952945603,0.41025752033930674,1.1875
-0.0026635166635298065,0.07034123875235347,0.7852956576210606,-2.3070069255309105,0.10730976590756133,0.10826045776298908,0.29078391125687,0.2744221105924401,5.258536345414976,-2.713769098903707,-2.8551995504414203,0.3023215222849906,0.15182191258422792,0.5272868042729022,1.1953125
0.07759626600968429,-0.2442245811103798,-0.0014333666491629048,0.3840487713388559,0.17321640483229128,0.08974818510298364,-0.5497920501981906,0.06590820859434128,2.0622524840033476,-1.4551008222844066,-1.0875958192546848,0.22420778894550172,0.07585079557146618,0.18574802146980976,1.203125
0.10258667761822557,-0.3661053718034436,-0.5346760089107215,2.064355391232922,0.15310927097856344,0.043862483684766834,-0.9131951063965521,-0.1003994201815128,-0.8797904730635062,-0.05472116286224275,0.5201038542928057,0.0874381511857352,-0.003805531651567082,-0.11573134511778328,1.2109375
-0.059333071244985915,0.19208377592498488,0.13816153917171833,-0.6917572667589899,-0.10821366494575221,-0.04554976284318057,0.45836306814199623,-0.0008883691509237406,-0.5975119708109087,0.5993164097361061,0.30209934973561814,-0.11079474602957219,-0.027877280002123927,-0.0446874460530989,1.21875
-0.22741709243448932,0.7880511736267002,1.0352981145845348,-4.133062451610777,-0.3514556633034823,-0.11066614414356594,1.9517202571814725,0.17235086484099305,1.0382882959345987,0.582178183993835,-0.6537578895033725,-0.23892887187157624,-0.014217915416957362,0.16366596835563602,1.2265625
-0.10347606146680055,0.36572033181114966,0.5797095518819556,-2.196894831004977,-0.1430321298933434,-0.033963142106714514,0.9225817058250584,0.1171212323053825,1.2232471816730959,-0.12608248547319315,-0.7051743636032171,-0.06385210490897006,0.01577688466644103,0.14955051690982726,1.234375
0.1551277651343276,-0.5388371503533136,-0.6520101297994589,2.6632760349138227,0.252114005372793,0.08691753499352459,-1.3229040220870953,-0.09712060309953868,-0.29130189105743753,-0.619099527705221,0.2201787373670506,0.19131541395078924,0.023647932452173493,-0.07043021695753704,1.2421875
0.1744859086654402,-0.6229783468239062,-0.9436161686769159,3.6086681304529913,0.253408539443011,0.06824216203365067,-1.5609851376621955,-0.1833544636840863,-1.7534000318384895,0.04166679621331665,1.021581199727518,0.13221199471571135,-0.014543108904329376,-0.2220325101376111,1.25
0.059908792215078555,-0.23681694443139462,-0.5761236067724158,1.975859045555869,0.05300110998588664,-0.01012878353906369,-0.6286511360674617,-0.15121339438724923,-2.288606999141045,0.8833301052626996,1.2664355853450002,-0.050810534254669235,-0.05270191002389774,-0.24541238538280907,1.2578125
0.1273811039745214,-0.4735872371198445,-0.9061178254959253,3.270687755602144,0.15492232250283774,0.02013226772322961,-1.2173079127799096,-0.21021826977104704,-2.74266418125865,0.7846324882927175,1.5401756179090444,0.01235067536291064,-0.05235033425459107,-0.3087095610248014,1.265625
0.2124139644534608,-0.7641903036944245,-1.226996973433322,4.6239168224092175,0.2969199831235581,0.07151310469118818,-1.9258881325425652,-0.2510859756963281,-2.670941067200744,0.32811408668793013,1.5355564763288982,0.12921120562577165,-0.033428143752034886,-0.3240264318009979,1.2734375
0.01644565670751841,-0.06129857811420093,-0.08578642462215813,0.33215602628553387,0.026778989992886085,0.00874836601685305,-0.15105181369400858,-0.015646014036156876,-0.11833298591774546,-0.024859258182094692,0.07193159690395808,0.016864559805231782,0.0009402431655936457,-0.01670120889073901,1.28125
-0.235581556841309,0.8419469957198116,1.3723083958929114,-5.159151004275259,-0.32218632320989155,-0.07326458314937521,2.1281592459859473,0.2837532951284551,3.0978403945261026,-0.4449070083508864,-1.774470447078818,-0.13140597067478407,0.04327044084281904,0.37194644914154207,1.2890625
-0.2178082569548617,0.7717515784923087,1.1933910173113573,-4.549191036460638,-0.30830289277883155,-0.07793601554670877,1.940379941366781,0.23593337694524025,2.357086893728779,-0.14946359583932814,-1.365850893864838,-0.15052791966354076,0.025530831998414917,0.2931143762566796,1.296875
-0.12033911672228645,0.4013176002034248,0.37999053766731594,-1.6958846293593528,-0.20832883517150866,-0.0806974035237613,0.9704302114745924,0.032534855917999365,-0.5704425998250514,0.8840471364506002,0.26113333405579015,-0.19033489364518846,-0.03920317135173755,-0.025768848309598545,1.3046875
-0.20840703329635352,0.7196369781292576,0.9236738523087853,-3.714350888359058,-0.325305795786668,-0.10460120934619713,1.7788712181604454,0.14921447614654795,0.7851715164218953,0.6172762163101018,-0.5100587225553042,-0.22868066474058565,-0.017706317170309023,0.1333063731939732,1.3125
-0.28138968224593625,1.0147156591989153,1.7459092435425918,-6.473818078996025,-0.370142193712853,-0.0729413747722956,2.5805758453693755,0.37647939250692086,4.417217716411365,-0.9011015070313956,-2.509474684950321,-0.11550244634800355,0.0721969493387334,0.5163542635984996,1.3203125
-0.08721901202294853,0.32152190183104234,0.6514556439058073,-2.328519969412516,-0.09751557739981756,-0.005755584393064356,0.8350257801415064,0.15594184170133912,2.133534156475043,-0.6768111593233821,-1.1914162680455374,0.010015006091289235,0.04514258849458801,0.23631768569555697,1.328125
0.2126843066128015,-0.7799508807147537,-1.4044240168773376,5.142631394060425,0.27242676488180473,0.04742203995130613,-1.9908316828892332,-0.3130549286437846,-3.8604862995614715,0.9443309648017244,2.181128827312421,0.06124204683572518,-0.06753270926398562,-0.44319379564387273,1.3359375
0.3416430727301303,-1.2216218942177794,-1.902637463646092,7.2280145630658845,0.4860691654362862,0.123825649675536,-3.0699234214134035,-0.37905863427169634,-3.831898139251845,0.2920667739843855,2.2161227959055827,0.23384293758228483,-0.041063886921895124,-0.47428736047279746,1.34375
0.2571179963652916,-0.8767784846232459,-0.9090688749469206,3.9124622151000104,0.4403239656100945,0.16625827372779522,-2.127311644670087,-0.10127458672534578,0.655459123204615,-1.6126662274012753,-0.25265999470306444,0.3811602852989579,0.07110688695536145,-0.0025586763927240115,1.3515625
0.0610977350429817,-0.21020979339543888,-0.20848412637530142,0.9087685912621827,0.1078442676299992,0.042240714636005545,-0.5076334581060792,-0.020823727506496494,0.2309175170575175,-0.4248179305327926,-0.09922394280294071,0.09677046423496814,0.01991393831031203,0.006484676829847098,1.359375
-0.08674984216405024,0.2559836985988592,-0.122127894889747,-0.06565774933140579,-0.20542024669416434,-0.11260059180847874,0.5578693445965934,-0.11557506244481601,-3.0769442550237063,2.0158498904816367,1.6370036521937128,-0.2906445560311424,-0.10453998573423261,-0.285807480952095,1.3671875
-0.02114895359045741,0.059586283174765074,-0.03949373002614029,0.012200133346103873,-0.04968036797722328,-0.027130183131103436,0.1281966292278189,-0.031114459406436604,-0.7967388523820712,0.5106793030830479,0.424337274789374,-0.0722250086206986,-0.025909374758188775,-0.07444481935897716,1.375
0.17937635153745973,-0.5736976752467565,-0.17209455291651407,1.3785593294257283,0.3727624263627662,0.1806919558273173,-1.321990624821174,0.09186094812887179,3.5817397349142923,-2.7444104127801676,-1.8726258436104357,0.44670891260871054,0.13981275397059428,0.3114025380609977,1.3828125
0.20227562973718488,-0.6742323706857288,-0.5212312374325718,2.5119545222912887,0.37418270556513106,0.15809387272214054,-1.6058187912845616,-0.011437009268537234,1.8285966792805832,-1.9485315846833375,-0.9117711432128509,0.3761387552161789,0.09392773066527943,0.12965471052786337,1.390625
-0.031546161103656635,0.08259082191943919,-0.13970112150232086,0.2567377909753075,-0.08619668328736972,-0.052727538281430925,0.16538501402332928,-0.07504420587837028,-1.744376180818004,1.0547739801731055,0.9339877038818462,-0.14015300790421878,-0.05528061517773656,-0.1667254015010685,1.3984375
-0.22460565714906822,0.7702409478541615,0.9265371086750013,-3.8017928615541074,-0.3606425877867506,-0.12256713618933905,1.8936860988939832,0.13641850610413137,0.3762455490172748,0.9091022601940854,-0.29415902514079034,-0.27373392276252967,-0.03269299607927116,0.09653270312451351,1.40625
-0.18406270513204254,0.6651110652308967,1.172650387338445,-4.323758154404877,-0.2369261203904775,-0.04269825566148626,1.6972143522794354,0.25714743117395295,3.1040112027317326,-0.7031054336222697,-1.7576763657183825,-0.06252404276434563,0.05376572793852729,0.3589762447684963,1.4140625
-0.084255711661821,0.2825844045902338,0.29448242198919705,-1.2702793632768505,-0.14123501170430802,-0.05199364628431709,0.6881510466778574,0.032863621114889156,-0.19956374722917464,0.5141593904734575,0.07605836772053377,-0.12112884638493979,-0.02139141126417592,0.001608548371403195,1.421875
-0.11603426288814513,0.34903979191008816,-0.0927063461877974,-0.2938842174818047,-0.2656941134702584,-0.14158071517830337,0.7733506154754657,-0.13007855083358658,-3.648960414227487,2.4558928151351442,1.9353657047575246,-0.3626535354502891,-0.12688499026724828,-0.3355828585401287,1.4296875
-0.1993798423372832,0.6677776135753127,0.6310827699489328,-2.8164052757995415,-0.34694764530373984,-0.13513566658316076,1.6123667954963263,0.053885643738154645,-0.9532783974102197,1.4719402130267043,0.4385433374884863,-0.3174873860025214,-0.06596913881043039,-0.043555220891530626,1.4375
-0.16122717381583268,0.5765097486104154,0.9574705842649915,-3.5843520066345858,-0.21696207252285887,-0.046774497150120706,1.4607395724503183,0.20091115106406476,2.255084557438878,-0.3760672856365969,-1.2872186393102936,-0.0814621583150423,0.03383850607468449,0.2677912011199968,1.4453125
0.0027371375049459906,-0.007588889503050644,0.049937732601424076,-0.13168281560426726,0.015769502988483373,0.012250587450591396,-0.007592295981082856,0.020601318950145497,0.43999725886296615,-0.24496964914805514,-0.23611369556122774,0.03121596890525426,0.01427518149936785,0.042831229264541054,1.453125
0.12966311136266495,-0.4694358719645262,-0.7698106685935103,2.8835003212110717,0.17930717875076008,0.04167826914221047,-1.1856116745970016,-0.16018844751499323,-1.7584948113472252,0.2666759034300912,1.0072986743302776,0.07259863278455161,-0.023631912362406856,-0.2106426754382083,1.4609375
0.11656115787960473,-0.4078490913149247,-0.5175351527562368,2.0819922600432865,0.18595829788282026,0.06195348483204817,-1.0046802272291742,-0.0825663015915602,-0.40154985068538745,-0.37112971991515226,0.26443469921799573,0.13371646005416674,0.012834297310905875,-0.07105368246546052,1.46875
0.09080583619636243,-0.3041094551623005,-0.22926116691196508,1.1137302456690024,0.16999424806561975,0.07296882163890717,-0.722684057666062,-0.0029743926648856107,0.8678955046956113,-0.9014499818908138,-0.4355316392305035,0.17291775157668535,0.0442266085056222,0.06294244502775502,1.4765625
0.21379776417553648,-0.7330091405767031,-0.7984149388422507,3.377255037216526,0.360422677748372,0.13276607320915004,-1.784729353606667,-0.09903439731974634,0.2610815331175588,-1.1952643974152597,-0.056980895830711906,0.3007083166129628,0.051209598388636354,-0.030358327929619927,1.484375
0.3333590646674116,-1.1384245124283812,-1.2150404319478951,5.177890646689655,0.5646769451675434,0.20980858739216465,-2.7683514747603777,-0.14447228214192856,0.5921570124071629,-1.9573723205584026,-0.188389278694139,0.47805926080133104,0.08446364600689465,-0.02881520174530717,1.4921875
0.15456494544561752,-0.5231904104896498,-0.4878931178329878,2.1802599653498502,0.27380801595192417,0.10895316322972338,-1.2596369221943282,-0.04015059804094163,0.798104713669649,-1.1812752653398644,-0.3709289342727507,0.2529335507942801,0.05483285883452569,0.03888809977448238,1.5
-0.20191117271627,0.663145827576535,0.4805188058071658,-2.388322992145991,-0.37369363066006356,-0.1588753120028007,1.577040685686398,-0.0011429087268416604,-2.0381120569883424,2.046608061734893,1.0264092238520375,-0.3831603661748916,-0.0975472624645226,-0.1512833126929456,1.5078125
-0.2726959896636096,0.8848204771941179,0.507683934796883,-2.811896627021334,-0.5252917186182547,-0.2349842390037586,2.0813776312076784,-0.05136736685204742,-3.7145235401640413,3.2637956600803233,1.9078728934707865,-0.5735653221757343,-0.15980493616621325,-0.3005844926848554,1.515625
0.02327141415089878,-0.07472847331556139,0.01196585926574492,0.08081690595614198,0.05589504561618034,0.030131996130257178,-0.16482185641279393,0.024612796613331833,0.7222640829504617,-0.4929545113548024,-0.3822131342519946,0.07507559519357973,0.026535553603201607,0.06579311487741223,1.5234375
0.24511493368579743,-0.7754847329544117,-0.13737306244821212,1.5988592400609025,0.5225574703847919,0.2596963034630376,-1.7694506356089716,0.15962622708010626,5.546948207896029,-4.084302511314731,-2.912171095727756,0.6477722890635366,0.20928165240823224,0.4905523806052993,1.53125
0.11828200216574658,-0.3743641078459868,-0.044101493740914585,0.707786728084261,0.25660989408382257,0.1295842755988711,-0.849395815332046,0.08524468183913698,2.8421206458644432,-2.058585253221925,-1.4947221073012065,0.3234818692664395,0.1063177415506614,0.25297342846260473,1.5390625
-0.15555500731085617,0.4930724886457373,0.17177804438906424,-1.2579760255370693,-0.31509182035588634,-0.14932262021053605,1.1420966188384227,-0.0702685466072358,-2.8988714774659012,2.263217661885077,1.5119229455376826,-0.3709831493298726,-0.11311667773141215,-0.2500027745932757,1.546875
-0.34123144310702763,1.1361340336858627,0.9759110525504712,-4.514073274489032,-0.610135554765246,-0.24718812217442634,2.726108040679756,0.05531806810556544,-2.352417454300423,2.8968253599333242,1.1418230780408825,-0.5856529473921137,-0.1343343730653869,-0.14638324476734657,1.5546875
-0.4134740753389298,1.4398762488369317,1.9281992519156876,-7.651510185468509,-0.6352503080594608,-0.19666499486491795,3.570220416608167,0.3286804593059702,2.173067473639993,0.9125827404350829,-1.3423848998678705,-0.42049699119888384,-0.01867066932233187,0.32602577906886304,1.5625
-0.3323321954207837,1.156256822703453,1.5382008879488533,-6.117691222348139,-0.5121566698501404,-0.15942750396617478,2.8655158136474523,0.2600290186574507,1.6693633724069845,0.7730534213939246,-1.0368805588834105,-0.34262639642031373,-0.01704433457942148,0.25438219269268203,1.5703125
-0.0477243210954953,0.12326481873714563,-0.2699019033107474,0.554590438751445,-0.14090364286300877,-0.08930581296802659,0.23371453074823542,-0.13478397946278642,-3.054547743286954,1.8111739264119486,1.639129334575874,-0.23853312679958102,-0.09621129734546455,-0.2936054976353133,1.578125
0.2706778616133882,-0.9722155965899577,-1.5633725004455912,5.88859721420528,0.37749991236046043,0.09054386320635616,-2.4529661531948435,-0.3200220120106684,-3.4116539349264046,0.42249668206677576,1.9589268431568976,0.16302070964127197,-0.04312168460267752,-0.41322132231516945,1.5859375
0.384640823665735,-1.3034473175977692,-1.2903222092127928,5.647243728405306,0.6668807491462858,0.25719126501964873,-3.15436124462182,-0.12753201508042156,1.4328327236712566,-2.6471245156478447,-0.6247753969293346,0.5943042075115971,0.11882661860687566,0.04196903296286757,1.59375
0.3094617966343605,-1.0205902105172249,-0.6902007755415388,3.5274335635630663,0.5861568094090123,0.2557429624169298,-2.41620049990999,0.019931804979764652,3.510028148201636,-3.3498382005974836,-1.7816497564219567,0.6150561481813154,0.16362398582147528,0.26982134118790163,1.6015625
0.20515089699151307,-0.7115975721344033,-0.8640427272939641,3.5274346359254727,0.33224864609092114,0.1139058635316954,-1.7477139535179247,-0.12937322041840052,-0.40805917196547464,-0.8061205222328349,0.30341730258520155,0.25081286924827284,0.030278130926563382,-0.09518679635323593,1.609375
0.10172856472884495,-0.4075541318483692,-1.0618574782112606,3.6016853742540897,0.07695813836828394,-0.030272649541988977,-1.0935227489164276,-0.28641881516737605,-4.466240827001727,1.805699385395209,2.4648127416576404,-0.1203858240246575,-0.10695993505622849,-0.4745230629367399,1.6171875
-0.015933138910188084,0.0071750366087078065,-0.45790499182917926,1.2633206792788227,-0.0965776411952693,-0.0791884052584943,-0.05635394328527642,-0.17362084251395454,-3.482631028941708,1.8783751578241141,1.8841518683977654,-0.21927798304259322,-0.10210897055499489,-0.34506493084318246,1.625
-0.0630488505027404,0.2199754823597069,0.34499538379543754,-1.3126017709167694,-0.08691606454825572,-0.020896313291985522,0.5567830162746285,0.06883397571849259,0.7023802290326149,-0.05493489599496096,-0.4060321426630678,-0.03995143470891317,0.00882201758652023,0.08657714576986063,1.6328125
-0.0202526929577584,0.11272893645192233,0.6461701462015106,-1.9847583736362155,0.04954217223299822,0.06913093177893283,0.36351416674552306,0.21086095579249511,3.8623676732326664,-1.902250419567319,-2.1037014223311243,0.1990133104783405,0.10815925886992275,0.3918491674138792,1.640625
-0.01649018229494526,0.11028207447282999,0.7507011175764062,-2.273577186658147,0.07217712809711369,0.08781284572480832,0.3749017113785185,0.25061975967035444,4.664610242152711,-2.336363429435914,-2.5368266711864726,0.24990043743634235,0.13192552502130864,0.47112523045832183,1.6484375
-0.09728768030285778,0.3745496299696829,0.9137014855095976,-3.1450481748031693,-0.08278687010607864,0.019294042347997847,0.9987947998342096,0.2394810687368927,3.638443968466386,-1.4066215001101507,-2.011849009703924,0.08325470027378071,0.08632412808109048,0.38950474273687075,1.65625
-0.16659615873529957,0.5792647587543783,0.791744772460435,-3.1260591212333213,-0.252291272043207,-0.07579498001992413,1.4404707948836526,0.1380469423843145,0.993193618257462,0.3038649884628359,-0.604480490347938,-0.1614564426647048,-0.0034938242330023995,0.1427780466500594,1.6640625
-0.21520855252798526,0.7053814968980471,0.4928222126677756,-2.488438449905426,-0.40120919480170425,-0.1722123749091972,1.6742307700828365,-0.008072722100972304,-2.3028291735422295,2.2488601884179804,1.1645548168767432,-0.4162599866295588,-0.1078766648186748,-0.17448049453792902,1.671875
-0.2829164351352341,0.9191525725590967,0.5330253970860515,-2.9360017364291267,-0.5445821396834252,-0.2431389752660395,2.1620633542501846,-0.051209391996032486,-3.8133607713717037,3.364575284115166,1.9576986933300737,-0.5932620453315677,-0.16472596378371532,-0.30782320363408144,1.6796875
-0.2253749755812395,0.7386495093911339,0.5081999438750969,-2.5833844870856106,-0.42161932406826125,-0.1816250531652823,1.7508616687231877,-0.011297449747148178,-2.46886957025825,2.3847757515286716,1.2509556363749714,-0.43934567275648856,-0.11461916096813322,-0.18823115489285128,1.6875
0.065586698724048,-0.2361452118989776,-0.3562221450292545,1.3617589988873948,0.09665766142864468,0.02681624175065047,-0.5907863385405533,-0.06909345223963974,-0.65287850017251,0.00866551640235263,0.3805979088158009,0.0511642463257435,-0.004586167563819613,-0.08300669593997093,1.6953125
0.3200688250402554,-1.110389181656749,-1.3740162510708664,5.577697816781658,0.5130705195215991,0.17271139880223843,-2.731585778649687,-0.21165355597032937,-0.8317673053925349,-1.155097902215331,0.578672409545147,0.3780740194519388,0.040846697225489975,-0.16801938738881944,1.703125
0.254833311370502,-0.892212084365627,-1.1860937640661184,4.710263199586078,0.39595138513762007,0.12513192837515152,-2.2087752495350306,-0.2007516037154553,-1.2791106776427807,-0.6019302966657065,0.7957465886500876,0.26578706145047554,0.015050872799159908,-0.19559392616110835,1.7109375
0.08548903379316065,-0.2836586276434712,-0.18719566524944767,0.9643991945071575,0.16407929838025698,0.07270678503287645,-0.6705567028887893,0.007191355788065495,1.0111139179647053,-0.9515004027328049,-0.5145009634269754,0.17372133579527455,0.047267608867686856,0.07852498335600143,1.71875
0.13137370167430384,-0.40653725512403704,0.048437237363083765,0.4990946081986019,0.29820394477314893,0.15723352294014928,-0.9080209406566128,0.12880678146125413,3.8087153397211333,-2.6251405076961927,-2.0146024983638697,0.396194863099357,0.1367930787453474,0.3466725912260921,1.7265625
0.20844021011411487,-0.6943962452140108,-0.5356117320993272,2.5821517680969834,0.38553430483774376,0.16312111052589312,-1.6535172609388231,-0.011350106134270014,1.892332921235344,-2.0124145342327417,-0.9435123857838663,0.387647639514819,0.09696939221334124,0.1343473650859261,1.734375
0.0336882565517303,-0.16119655980877895,-0.6415171703476237,2.0398256294671624,-0.013596297796714372,-0.048772554417308905,-0.4684364226078533,-0.19629633394835805,-3.417461124332591,1.5987052368677959,1.8690912064278649,-0.15063271450518587,-0.09042286790885419,-0.35152534833910337,1.7421875
-0.1552471365506191,0.47333267729428613,-0.057988015801172736,-0.5869550141994393,-0.3468022851254096,-0.18093163690546546,1.0593754465153806,-0.15085207766586536,-4.4444660306553345,3.062317828683632,2.351104861004004,-0.460265681458189,-0.15750239354765094,-0.40470062436827453,1.75
-0.06319974543336224,0.22174398701246412,0.35333260982110437,-1.339704656240043,-0.08634393844976603,-0.019974338699547657,0.5608742940178467,0.07155771062755012,0.7547082034371961,-0.08267957879093323,-0.43431768527267933,-0.03780422854533157,0.010220964076450853,0.09170160596100735,1.7578125
0.024612557707402394,-0.02794886058285173,0.6299760347272183,-1.7185216110674966,0.14580303657721697,0.11745253925265702,0.04507630490631185,0.2429713525629472,4.93197821215515,-2.6765517173163835,-2.666342894100489,0.3201197024920853,0.14774195077183513,0.48696366065385005,1.765625
-0.2149362544966533,0.7759663434058358,1.3623790021395579,-5.026238719781709,-0.27776044214067275,-0.05119644578291409,1.9805676498816276,0.2978607488217808,3.5775053064180997,-0.7917758979972838,-2.026247471694351,-0.07533087107082219,0.0612278398035622,0.41451669424087423,1.7734375
-0.43157858317582354,1.4860353122406214,1.8168473247507138,-7.411933877963898,-0.6901619043331945,-0.232501671981954,3.6566143808235183,0.2744972774896187,0.9492820672152702,1.637461844425208,-0.6860085825809831,-0.5142912254271854,-0.05735947759176955,0.20838372257884433,1.78125
-0.17790338895461724,0.6118199629115335,0.7618273869849247,-3.093265333499982,-0.2810917651294434,-0.09266994536980763,1.5079721654911735,0.11814934860603901,0.49625798534165766,0.6177445727339052,-0.33926918455779875,-0.20467981742691443,-0.019969609215369784,0.09610230468571124,1.7890625
0.24283700571296749,-0.8422153643921302,-1.0323000145492371,4.201643003043036,0.39120138617479366,0.13300956437961398,-2.070566784103295,-0.15680804761198835,-0.5553851081467926,-0.9172224428171198,0.3988203346181575,0.2917583902457656,0.03345287413346691,-0.1200731846899183,1.796875
0.2550446984489935,-0.9173490996956177,-1.480817626984415,5.572868501643659,0.3548209349132754,0.08448544761749102,-2.314648362948715,-0.30416339898902256,-3.264443417813113,0.42339616044910616,1.8737020508788864,0.1513941057126705,-0.04194081682543028,-0.3945112786485244,1.8046875
-0.028590290807492653,0.047609132257501276,-0.4569639136026135,1.1975614492116238,-0.12463935642961946,-0.0934624049379541,0.03191914827260697,-0.18407707929856132,-3.8102548353381978,2.10650830866974,2.0568485697020624,-0.25588942746939314,-0.11401012704373055,-0.37440884170949956,1.8125
-0.056972009930412675,0.1757791130671877,0.023182344420836522,-0.3449064126987475,-0.11952437038830943,-0.05884794341149904,0.40033043836749427,-0.03931906819242286,-1.3143966903695412,0.9554818620057084,0.6910153918554515,-0.1493623449516069,-0.04794247315254216,-0.11699375810971341,1.8203125
0.1988988084513743,-0.6791660413139715,-0.7166578815861872,3.064736116052684,0.33874346736764566,0.12719571793406695,-1.6515252259019952,-0.08307248467986017,0.4181293661266832,-1.205141812682895,-0.14761182347727136,0.2896033196995045,0.05274896509060169,-0.010821541522656805,1.828125
0.24548380584120705,-0.8431485737404364,-0.9510786600553613,3.9772617875895833,0.4081534955959767,0.1472457353640004,-2.0600961986931234,-0.12611491507028105,0.059129643334535346,-1.2501334732330314,0.06521404753372588,0.3304617466946522,0.05173894717321033,-0.05889339390650947,1.8359375
-0.04473222902288151,0.145747634723697,0.1186584249952312,-0.5645837617288824,-0.0792081698798012,-0.03178027627116434,0.34957489625020816,0.004469452743446471,-0.35034023831200434,0.39599151681738765,0.17181001476452046,-0.07780072425751507,-0.01778144957484543,-0.02343717868683332,1.84375
-0.21137356643538935,0.7192888871924783,0.8045895487802907,-3.382429343505228,-0.3488920703806346,-0.1246673846132928,1.7588498085186508,0.10464108925308416,-0.09983032784620154,1.0917629114907637,-0.02965225140246556,-0.2841027627250143,-0.04384675635850218,0.04531823383426528,1.8515625
-0.0036419000820766267,0.02018714507906951,0.15122210390324445,-0.4595304484075962,0.016043679922500685,0.01906032957649467,0.07416120957285727,0.050682358743989415,0.9545009468426039,-0.4781698001490911,-0.5182442736508699,0.05228154886259302,0.027691553273841145,0.09594437625678895,1.859375
0.19391498821453063,-0.6274872743983341,-0.26521676157456914,1.7222196316491443,0.392008054145842,0.18425003673885382,-1.456190666985133,0.07146530242152406,3.3407489914543604,-2.688769097422525,-1.7345385134802511,0.45229605551966073,0.13561427981756546,0.28288613607598356,1.8671875
0.034774690257914145,-0.07172621550079479,0.4798872266532414,-1.2306479237960388,0.14704739030233835,0.10811962758404278,-0.07979118221005108,0.19888564488756882,4.186978128397258,-2.341504060924388,-2.257484448648925,0.2906028942821703,0.12839019528133047,0.4097200567653145,1.875
-0.21250837769681155,0.727725625172146,0.8639528901907509,-3.5593791765099145,-0.34280294527151417,-0.1176235668839915,1.7859002236419412,0.12481574156736647,0.2757411183942881,0.9027184641399992,-0.23338420302608384,-0.2630666387933165,-0.03314551317347223,0.0832223573174388,1.8828125
-0.19082834241248947,0.6036858475770289,0.17767743294655558,-1.4488190045279863,-0.3919566526915763,-0.18840039745925427,1.3912795233378366,-0.09807975494238337,-3.7890178449393663,2.897995430524989,1.9811297053992087,-0.4694459672834477,-0.14566390328223913,-0.3295986731715614,1.890625
-0.07036662524285257,0.21982517931570983,0.05664016084105463,-0.5079818254705589,-0.14415083922575941,-0.06926476226456528,0.5060769845260462,-0.038830540159605645,-1.4395144236767796,1.0872239630559517,0.7536692993727606,-0.17425135127622052,-0.054195899025887014,-0.12596396797831524,1.8984375
-0.12491823265745107,0.46180584317870327,0.9347594926605179,-3.33994884564781,-0.14043420545911478,-0.008991891168692787,1.199343137656023,0.2235904062754236,3.0531342945111866,-0.9669941784314965,-1.706338233376289,0.013141850832755904,0.06407927543261743,0.33845318413197334,1.90625
-0.1757160658445192,0.6122622122383878,0.8508887512351726,-3.3418464220865705,-0.26391296204471887,-0.07796594658022418,1.5253115339294214,0.15114504209753454,1.150751117013355,0.2690356661891381,-0.6937090851808394,-0.16386110678030597,-0.0007070407268701854,0.16121689842259077,1.9140625
0.0015339299919759394,-0.06083637958556696,-0.6301523532693742,1.8512359042810622,-0.08255948181492881,-0.08340585499738157,-0.23971686055164726,-0.21942789552157388,-4.184748584523179,2.1539715489763585,2.2728462509714302,-0.2372104139485765,-0.11884414449592916,-0.42008235293414303,1.921875
0.20595375366049956,-0.7621186561092421,-1.436633134881948,5.204757630208582,0.2535715961644162,0.03545121624245589,-1.956197920210776,-0.3299286167713373,-4.250869194300452,1.177809530326776,2.389866139200508,0.029701484747594143,-0.08012646188981629,-0.48063070924670026,1.9296875
0.2469914345064455,-0.854721307859156,-1.0202558507334423,4.187652402976362,0.4024578634008476,0.1395326980920689,-2.0961453429378425,-0.14887228718963894,-0.3604622736080246,-1.0381558851398522,0.29410665950500703,0.3087397402510964,0.039862520785452236,-0.10162469921984088,1.9375
0.302158844853667,-1.026770005543746,-1.0343916937323692,4.498031535048018,0.5216048111117544,0.19969558176281435,-2.486890010011205,-0.10726857160637834,0.9923065654154092,-2.010581742154337,-0.41871207667487215,0.45997011768554974,0.08974299238336486,0.01948159037350656,1.9453125
0.39939995563973446,-1.362247327825882,-1.4447322831713043,6.171296618869504,0.6774452357444158,0.2523515401015147,-3.3119344289729806,-0.16939417001437507,0.7767781935374811,-2.379324130052476,-0.26292410633449936,0.5762493245865762,0.10288145027402339,-0.02775918764564782,1.953125
0.19224181537436008,-0.638308159056701,-0.4714078903662439,2.315586039041396,0.3587343236923702,0.1536014986334157,-1.5171577494715631,-0.002614429094760398,1.898352730962842,-1.936846013721482,-0.9532835966122114,0.3662605026626554,0.09392553748181488,0.13910638799975739,1.9609375
-0.32998460325123635,1.146367807671436,1.5028208387326358,-6.001737388720978,-0.5119310276649024,-0.16172056605622123,2.8359982590723303,0.24960154474883375,1.4910711806263142,0.8517967086160908,-0.9396447027580764,-0.34951459395462753,-0.02154845094375236,0.23603098370211756,1.96875
-0.6083907107965392,2.0742138417954834,2.2722218572333133,-9.607938031138707,-1.0159523595853484,-0.36905559578011404,5.055919559484804,0.2846595502464012,-0.6373561300109716,3.326528053755532,0.10408831653232398,-0.8413954365581188,-0.13799130117133768,0.0963857690850775,1.9765625
-0.3724009230013648,1.283952612989644,1.578368978705839,-6.428621098226644,-0.5944706248124292,-0.19896151099977008,3.1585806350254737,0.24046634204660372,0.886818933463264,1.3728054628620256,-0.6298685168677736,-0.44041998064981375,-0.047285557472536106,0.18686576040116773,1.984375
-0.04221275298976859,0.19415839192514342,0.8008090277519682,-2.545452470334037,0.022621084815503848,0.06577337564492983,0.57297125774212,0.24647128080588826,4.325590557475019,-2.034382683035678,-2.3641403293986385,0.19602398229208376,0.11705842066676421,0.4440694682971526,1.9921875
0.03237830638402123,-0.09470236688654644,0.11563968197283216,-0.17877850125405112,0.09052629408285044,0.05483450018420466,-0.19153697705465053,0.06878394315522791,1.6647917937365921,-1.0233770083883964,-0.8889943389896954,0.14136899809313905,0.055284087631824505,0.157630549514963,2.0
0.047135620044152,-0.2201749392768892,-0.8416550138002128,2.6915308560361653,-0.011731597997077063,-0.06138109819338793,-0.6341180362971702,-0.25512494402143515,-4.409242943080091,2.04716908126549,2.4138229326254526,-0.18975203409655023,-0.11639113535079244,-0.4548066606746175,2.0078125
0.19774768743486948,-0.7285369005657777,-1.3351829272235196,4.8684650493607275,0.2499576638814136,0.0401478318486707,-1.8629357132319062,-0.3011730852791233,-3.780180092528035,0.9773201267166769,2.1315164644773468,0.046298361209922236,-0.06833520360814163,-0.4314861387293162,2.015625
0.3002206141953465,-1.021386372185038,-1.0328875863829239,4.4841197919248375,0.5178361174971245,0.19782510552731056,-2.472596431321339,-0.10830351126025492,0.9550649784025667,-1.979441201910968,-0.39835937441875774,0.4555372643871758,0.08818458917399186,0.015925478787624073,2.0234375
0.19639265457532262,-0.6837557839734457,-0.8486026907537395,3.4388921471290046,0.3153528410751644,0.10624188693703926,-1.6804117968794143,-0.13141462991526368,-0.5336508995403805,-0.697137763120259,0.3684124690413299,0.23174123657666423,0.024814426275028376,-0.10567778926195866,2.03125
0.031086717281047616,-0.16934239662581466,-0.8344716839271378,2.5919701859529956,-0.04636935818119357,-0.07842903413440105,-0.5186857679588265,-0.26628925425568384,-4.788427430240365,2.3198358453816317,2.61190621268631,-0.23313358366695014,-0.13027708666671375,-0.4881718865839675,2.0390625
-0.04068771524801892,0.11805662815124614,-0.05940646705451532,-0.022678253619178537,-0.09523455912790026,-0.05194024917913073,0.2576686951861767,-0.05457184467910872,-1.4441525916783429,0.9431311234695067,0.767659659218041,-0.13491840374334238,-0.048383593277010896,-0.134200588722208,2.046875
-0.05119730923890142,0.23445744901463497,0.9468030176921471,-3.0148435666996334,0.02327556894128373,0.07586533624672723,0.6871372467601276,0.2902194005486724,5.07376243988196,-2.3783041317558618,-2.7745472986116333,0.22768307730828788,0.13688396411490697,0.5214660203250513,2.0546875
-0.06843280120823961,0.28240258909319577,0.8783316661305502,-2.8995293447642405,-0.024287539404495,0.04697287367607109,0.7834201012950237,0.251580938899663,4.158906846931146,-1.8205084529312316,-2.2843310848988962,0.15177003052602503,0.10716547566673192,0.434339119085323,2.0625
-0.11078012956616665,0.3726620126351128,0.38122035724198317,-1.6539765647436602,-0.1874888573678856,-0.06984064501523654,0.9040687089143594,0.04099214709018998,-0.31204284424443307,0.7021698456129843,0.12624384814859022,-0.16287214929063457,-0.029769017028580324,-0.002349868048288567,2.0703125
-0.1684094129451192,0.5770110265729645,0.6878236854479396,-2.831423706703873,-0.2711526281653832,-0.09242331775141005,1.4162774859189835,0.09994869052071838,0.24030109650247874,0.701633854212037,-0.196830252536839,-0.2074255114358004,-0.02535611073449627,0.0682753849296356,2.078125
-0.15806329997224158,0.5570654438083011,0.8366809748569227,-3.2154811279153455,-0.22740095856949216,-0.06009506060361551,1.3965548732270314,0.16102408168826293,1.5165166428329662,-0.009534402655004154,-0.8866341435995645,-0.1198852056037913,0.013384909407646849,0.19349851292474687,2.0859375
-0.014438727281018264,0.021527578180962223,-0.2407949919151928,0.6348680289240894,-0.06307075097097675,-0.04746925209510541,0.009878784933387858,-0.09616496745654395,-1.9793533705471225,1.0905287206405632,1.0678015033454031,-0.1312948206468768,-0.05858089605031624,-0.19465005747236372,2.09375
0.11598413973402154,-0.44355251929236705,-0.9660889597976108,3.390612594929248,0.12174195203775774,-0.0009460828824317471,-1.159320214712981,-0.24080832963599955,-3.4439700498634442,1.2055742673041905,1.916207063906247,-0.04301206621584065,-0.07484971129652576,-0.37603476611444797,2.1015625
0.05045826176766139,-0.1597738946984804,0.000397471388132455,0.24536127827056556,0.11367902833875539,0.059163365828872924,-0.3583769462305296,0.043416809581706586,1.3590165691625893,-0.9553995740264546,-0.7155392915076634,0.1473953264645103,0.05009679619737507,0.12219589487311691,2.109375
-0.0572965009293311,0.23641385654574776,0.7448031178996705,-2.4561725806890298,-0.018451433895275506,0.04089537321646172,0.6587830085992017,0.21398754182305013,3.55174659713521,-1.5587593269647886,-1.9491129260912872,0.13111177365043086,0.09171363285779138,0.37031689850186866,2.1171875
0.0791276025852208,-0.2910346397026929,-0.5045944116435875,1.8614216505854548,0.10583537179619772,0.02155020503583995,-0.7386768956901051,-0.10965353758296398,-1.294410754632263,0.2745244493192954,0.7347002978490831,0.032164164207475573,-0.020416386051756334,-0.15106562336174414,2.125
0.31862442393828777,-1.146455869608929,-1.8544245772397474,6.975018972203737,0.4425362291009305,0.10447376647208803,-2.8921365724036967,-0.38156232868350803,-4.109045040292205,0.5490722288539907,2.3582257437615617,0.18725653869304237,-0.053704235204145856,-0.4962741508069916,2.1328125
0.24697073844257997,-0.8543895729954175,-1.0184135306958768,4.18187381209393,0.40250820121546727,0.13957597249737355,-2.0942670017327063,-0.14842458177704584,-0.35084633071590426,-1.0415844595109092,0.29053830826938193,0.30938045077793047,0.040091006520700655,-0.1009394716327717,2.140625
-0.10367304261860585,0.3807987073486292,0.7511477617488767,-2.700078835125777,-0.1195507669790582,-0.010445342746927332,0.9854524656522088,0.17702537656956097,2.3733864607719792,-0.7215654013860114,-1.3285570465776773,0.0018737973780900427,0.04877288603286136,0.26461944623301825,2.1484375
-0.2697093370746731,0.9274526599751646,1.1322293771186123,-4.6228750004652355,-0.4309482478064804,-0.14479697069832637,2.2815020476160814,0.17066962392018334,0.5796039735408318,1.0250899143030392,-0.4227108773717367,-0.3217783081186344,-0.03571952494994555,0.12895791261715076,2.15625
-0.12233303165621102,0.41262024872511976,0.4402151820138039,-1.8810713639547019,-0.20429805497124914,-0.07460772690064348,1.0053638348443494,0.05208506348717461,-0.21708872746388458,0.7107580582245014,0.06783014999821288,-0.17231364101218102,-0.02933084305087956,0.010390535270529133,2.1640625
-0.006831382576138992,0.028160867839632037,0.12223787060879937,-0.3886443442996097,0.0047426820232460525,0.01142902174014005,0.08504745689305834,0.03794511964385794,0.6730685691908439,-0.31830859500936365,-0.36855077957091636,0.03227277878420402,0.019190974487543293,0.0691193563321268,2.171875
-0.07913512941241263,0.24877295695618454,0.07404871025821964,-0.6007390002403354,-0.16113871712251043,-0.07683491306960395,0.5738187068765928,-0.040111139089335265,-1.5530246350219583,1.1905605928981637,0.8118817659735376,-0.19217628095786957,-0.05914354340447037,-0.1348303215648124,2.1796875
-0.10813007183511691,0.31431730666129426,-0.2184386782815217,0.11264363435116621,-0.2659901253288828,-0.15003272882285235,0.6730077073758342,-0.16743000723960608,-4.2895984803856475,2.7485640665269018,2.286108641954148,-0.38878072262363433,-0.14356299112486193,-0.40144557017404103,2.1875
0.022215397886745883,-0.08749360007455412,-0.1832569606286292,0.6453613703009986,0.025722178261053528,0.0019005810986784926,-0.22603398105437786,-0.044971292565349395,-0.6251462154857443,0.20888840113437054,0.34903207574550615,-0.004466113254035128,-0.012411054987425944,-0.06893113159377616,2.1953125
0.15301571521537558,-0.45035400690688265,0.3372298431432325,-0.2382899413918824,0.3867703040761288,0.22164462092093098,-0.9564500231017725,0.24849184278037673,6.328644002098792,-4.033635442042542,-3.373412767708048,0.5705490390637915,0.21336545754303615,0.5930807911313066,2.203125
0.17827513681813023,-0.5301823810304637,0.32103082602545013,-0.06811055853295672,0.44016278278369125,0.24796248864429657,-1.1392060805945114,0.2642606828838287,6.885703405004183,-4.445721672940785,-3.6657549478616884,0.6362791651972871,0.23439479014744158,0.6422803042282645,2.2109375
0.10139247403779084,-0.34640878730440494,-0.3410133256675181,1.491508426630793,0.17778199849246942,0.06941274429428004,-0.8360860536331228,-0.033362612402141445,0.39457860322323224,-0.7081746365046617,-0.1728560471655983,0.15939635512474368,0.03260063399841948,0.012353215561825105,2.21875
-0.10001386798428816,0.28066247734976246,-0.3207738490172271,0.44980541716815237,-0.26260145885377184,-0.15512348769525253,0.5804159129668599,-0.196649754824282,-4.76813597694688,2.956199707017188,2.5494208534852274,-0.40599084246227624,-0.1557930549979647,-0.45174594900462756,2.2265625
-0.3240023653151458,1.0512452374378407,0.5860011235100272,-3.292748185290308,-0.6276518051245202,-0.28212138245399254,2.4687232990941803,-0.06741315300420943,-4.537929780362234,3.9421223793507694,2.335113582487352,-0.689773418151743,-0.19370554896221118,-0.369630048608913,2.234375
-0.3148182349581767,1.0449417229286013,0.8542008485344672,-4.0314694431895175,-0.5695326760824166,-0.23448027254486892,2.4988969908020406,0.034705383155418906,-2.483758379462016,2.833358535443625,1.2233990493586075,-0.5589290742203114,-0.13282279722300985,-0.16620326229616325,2.2421875
-0.05211274498069573,0.15876356171334197,0.000540542272715546,-0.2548120048113311,-0.11189667723924723,-0.05645754578095987,0.35819262790944145,-0.043133363341183936,-1.3379089199116991,0.9429432727329358,0.7058213620589495,-0.14437679277287652,-0.04763439160567604,-0.12062370868373448,2.25
0.17384809267821102,-0.5932355062678525,-0.6107809917336762,2.634506184855546,0.29886816706795477,0.11360871926410876,-1.4389293438355295,-0.06699379577706832,0.47513075398791865,-1.1106390205521006,-0.18841985199505185,0.26001066997441563,0.04939177351097319,0.0014217208912037339,2.2578125
0.232810509777838,-0.75667595492604,-0.3731631223699659,2.228083150889046,0.4620339969289822,0.21307896285046962,-1.7669895763803083,0.06635787049243039,3.6300541750214537,-3.0332481794141986,-1.8775198356125617,0.5204925550774998,0.15175431268179454,0.30190976588274143,2.265625
0.26867353075393413,-0.8599534212825195,-0.27360622564027004,2.1119117831741314,0.5551717253528237,0.26745000913672384,-1.9827753795688994,0.13176685334576999,5.248486983793106,-4.046740777255568,-2.7415579725182466,0.6615649350919095,0.2053738406888548,0.45456267323444705,2.2734375
0.29206400594779625,-0.9678161436203706,-0.6967158602768243,3.4621796132489275,0.5471871672284817,0.23519094531467136,-2.2963701338061004,0.0028959470432030157,3.008572600090863,-3.0024120731048747,-1.5160640267331706,0.5633050630052449,0.14563978563227115,0.2239471051841882,2.28125
0.16001757011641937,-0.5702147694801734,-0.841405228609204,3.241028524732099,0.23633193116511245,0.06608905098366215,-1.4234947792017527,-0.15962965403995713,-1.442253586693956,-0.046510865970206136,0.8471889044936938,0.1313870903693389,-0.008536553655770943,-0.18716475510765557,2.2890625
-0.04303967444788916,0.087759753787559,-0.5046693365385838,1.2665622588033307,-0.16296538783581685,-0.11629821222090993,0.11674814625254587,-0.2129848447919814,-4.509860270524429,2.543870504782563,2.430896440238513,-0.31492414844700184,-0.1370669632261907,-0.4409013002935911,2.296875
-0.11242653346572513,0.32865786448869583,-0.19938153457402483,0.035281470671829844,-0.27267400679059345,-0.15218535371252379,0.710465215388738,-0.16437758049674175,-4.273552067286059,2.7635500610744157,2.274850302741088,-0.3935437131461623,-0.14405030867136004,-0.39884001132954994,2.3046875
-0.13498158374018854,0.43815556501404995,0.2711053141687793,-1.4503859470251403,-0.25610673332754674,-0.11239456347280191,1.0349455259788307,-0.01817701329248679,-1.6915631882933793,1.5377704058551966,0.8648104421059654,-0.27461356618494287,-0.07430454548633056,-0.13415784573786627,2.3125
-0.29333395169053567,1.0078750878541154,1.2125859463516524,-4.973847622980084,-0.4718232253751232,-0.16050548554846447,2.476182737742207,0.17877022468357992,0.49876496190423314,1.1856903620280712,-0.3868844570808238,-0.3579432328270774,-0.04280605820538983,0.1270623635307343,2.3203125
-0.41499680230241903,1.4257690303519124,1.699856924297093,-6.990534742189993,-0.6707297416207963,-0.2301179429510109,3.4996333174679126,0.2472208116268484,0.5897732933545966,1.738835940433346,-0.4847474689042138,-0.5137234352701896,-0.06432584848882374,0.16827162138965657,2.328125
-0.22635450138388405,0.7753309808637341,0.9151030319971509,-3.777037768771012,-0.3662900639720045,-0.12606128534555505,1.901528034680846,0.13097926250468736,0.2547381176312285,0.97970292125417,-0.2273909457513379,-0.2830689141130686,-0.03641671924853204,0.0849057940033306,2.3359375
0.1198334516431819,-0.389599903032434,-0.17972605574353345,1.1107201071056791,0.24094463921473872,0.11257825762580233,-0.9084859318394779,0.03886426043351026,1.9679530967268757,-1.6168809826663213,-1.0189895259354904,0.27450839693264606,0.08159844236817561,0.1651331866478508,2.34375
0.24821922854772369,-0.8050755930573771,-0.3837045342509153,2.3333412727699896,0.4946141012906506,0.2289791615758273,-1.8790525225132721,0.0756885133305298,3.9663913167718015,-3.2842063934496157,-2.053092975392972,0.5600704975950596,0.16445335006899853,0.33141864095442963,2.3515625
0.1189019921518057,-0.3829807879396934,-0.127295680781431,0.9537005339081593,0.2463656060002249,0.11860882260139106,-0.8834752214120362,0.05652015204744999,2.296548794745115,-1.7801655314288445,-1.1992262680185761,0.2924084030081425,0.0906848343242488,0.19825123462461078,2.359375
-0.017261336326583655,0.03453755293153454,-0.18523735534384314,0.4583256724876213,-0.06125117940436001,-0.042989032923200395,0.04892130389219082,-0.07893043556513778,-1.6750918713441336,0.9481131440766879,0.9022757787840976,-0.11742226390092443,-0.05053530229120544,-0.1637214854979218,2.3671875
-0.03366374949236832,0.08322181826517237,-0.21532811542449795,0.4649884624468019,-0.10169029229504252,-0.06565314413945038,0.15352746129371142,-0.1034492136026943,-2.3104361519735956,1.3579171019225587,1.2414294063460578,-0.17606028820496633,-0.07204159263064895,-0.22308093524957306,2.375
0.029801511985608518,-0.09599240627843394,-0.005511439056838332,0.1608158172491734,0.06721702132238945,0.03502551526413546,-0.21578671139149858,0.023864330071087136,0.7733133715610251,-0.551073635551414,-0.4068969119041613,0.08607942635026675,0.029226562961163858,0.06914173243157293,2.3828125
0.14429017155681717,-0.4726900062826134,-0.26322660226189754,1.4732597465675348,0.2826351947167562,0.1284751347112934,-1.1081058084568844,0.03012034093105217,2.0438981363536803,-1.7736447921692122,-1.0514977967095822,0.3114503620213493,0.08855571157265109,0.16633586104106976,2.390625
0.2531061644886765,-0.8721489626925019,-1.0052958555284919,4.174222753584717,0.41761775935705825,0.14837125710715393,-2.1326221339934257,-0.13859155432365058,-0.10260830640608866,-1.2004162502138083,0.15683364485424126,0.3320009624831181,0.048546244329329226,-0.07735746476196127,2.3984375
0.235673918189963,-0.8320969199045263,-1.173417593424584,4.581412800044902,0.3557911491071665,0.10539067899749259,-2.070430666202056,-0.21240756085289844,-1.6947619643145886,-0.2910748412091614,1.0145417617352561,0.21696356540771233,-0.0006774850482973692,-0.23231876377965227,2.40625
0.07807086872159841,-0.293103732386341,-0.5709270580398453,2.05155665224685,0.09401522489260472,0.01115449613991717,-0.7542455158256312,-0.13395612650140867,-1.7725791176705643,0.5268206852868813,0.9939049237878427,0.0033914991135452293,-0.03426669980354038,-0.19858865639170717,2.4140625
-0.08546452343322346,0.2544734640232811,-0.08540944444770061,-0.1658077066139382,-0.19729353207355763,-0.10591656528539778,0.5619148039181097,-0.10156065871167866,-2.7960482745152846,1.8633857846516908,1.4835129280021238,-0.2725893826743921,-0.09617933051903349,-0.25793864562624447,2.421875
-0.1651615378474074,0.524206959652604,0.18546271337755674,-1.3462728555116077,-0.3342470532999064,-0.15817562719727193,1.2149515754588358,-0.07365544814827495,-3.061778313480003,2.3939130612450397,1.5957539273216594,-0.3935346014797467,-0.11962699244484136,-0.2634694938554712,2.4296875
-0.1759956473722601,0.6057903170377226,0.7596605035255802,-3.0771009170378654,-0.2770749747350015,-0.0908195866555148,1.4936305023378453,0.1190072428532003,0.5313592917966958,0.5884579595000617,-0.35807250654230166,-0.20033700851595687,-0.018523020531639383,0.09935235343560031,2.4375
-0.1329646094172051,0.5002441842293046,1.0924894518881216,-3.840670656483237,-0.1357639446634,0.0037333694739338716,1.3107752849006087,0.2722786313852746,3.9089215981027055,-1.3701949464007634,-2.1734229020722644,0.051710767466794635,0.08704305755014262,0.42631674100565614,2.4453125
-0.07332247764632935,0.2669417632786682,0.5116493640149085,-1.8531905907205588,-0.08669873546015912,-0.009604599487116281,0.6885556429295687,0.11849438947362463,1.5536299188307614,-0.4447761926992529,-0.8714419984436943,-0.005339913931545218,0.031165199517186958,0.17459892226991436,2.453125
-0.09074556899495625,0.27762576949171147,-0.008202083592457327,-0.41838474463962066,-0.1982558523722668,-0.10129790030594346,0.6264954243823156,-0.07893593473209916,-2.41500486628881,1.6939053465374796,1.2749939564618233,-0.2576343234345571,-0.0863366951989448,-0.21837408234020725,2.4609375
-0.17116191486779278,0.5698989919620225,0.5068936276560435,-2.3145086106236645,-0.3024190947900581,-0.12053301422477326,1.3710963515249008,0.03411649679516957,-1.0515879298251491,1.3836978652923662,0.5027547482747451,-0.28541813772750174,-0.06309305578867265,-0.06056865278816861,2.46875
-0.14066015227906445,0.5092331720536699,0.9149610606010249,-3.357813762497482,-0.17783502435746387,-0.02956079899649637,1.3021125646485876,0.2033000409627637,2.506076782085319,-0.6079145749699653,-1.4156416726719876,-0.03948004159648161,0.04522506355819725,0.28775975363051487,2.4765625
0.05398333254857363,-0.16703771096898165,0.04573789790922521,0.13132957289968902,0.12781554642666593,0.06946098000191846,-0.3672042407756111,0.06239305405783394,1.7573366154829497,-1.1801657874770608,-0.9314830011470797,0.17528534121426753,0.0623720378245468,0.16137000991358819,2.484375
0.19678510657992723,-0.6806352575654737,-0.8004005832170638,3.3004933232653753,0.3228606023423811,0.11327674796271436,-1.6660479716937509,-0.11417076618483488,-0.19800941828873403,-0.8728690058115192,0.18637996375717053,0.25166456384536223,0.034545671912510977,-0.07218099061323766,2.4921875
0.12357120999865324,-0.4004957845882357,-0.16403301105450535,1.0835945577657504,0.2515779108830286,0.11897604211431696,-0.9289757671761829,0.04761583547298088,2.1735657849356222,-1.7391788529785603,-1.1301339415319385,0.29158344381375834,0.0881555137588433,0.18474611065474242,2.5
0.007523383993471993,0.02734724042539622,0.646615340268005,-1.8524089475546495,0.11032865336188694,0.10042904961600504,0.16991098027891413,0.23434201984475914,4.59271480526559,-2.418467639117966,-2.488991919962969,0.2773828479801485,0.13462646205960183,0.45772763090099394,2.5078125
0.09468084565593272,-0.3124565909665588,-0.19069888468361035,1.0188553641024813,0.1838045784738346,0.08257703609966932,-0.7359802699639681,0.013701929773682389,1.2295811112822732,-1.1084798360486854,-0.6287607745900721,0.19860246742034507,0.0553158235233299,0.09782732171496562,2.515625
0.2746570399469881,-0.9880734416930751,-1.597439646582478,6.008318047340249,0.3815076496254123,0.09053326529314745,-2.493098178457801,-0.32850566500605194,-3.534737994873584,0.4683255571851351,2.0282749475845083,0.1620822724489926,-0.04582661456598698,-0.42694381310419055,2.5234375
0.20053098568561842,-0.7379728883525151,-1.3515007635662115,4.928882963514763,0.2532936089363085,0.04099427474149806,-1.8874637393593634,-0.30472892674373503,-3.8229753484198437,0.9837016643372632,2.1549565532986916,0.04724568032516638,-0.06888643487742997,-0.43630810149795435,2.53125
-0.1426897695998646,0.44986166214279405,0.12547841112095992,-1.0618331401121572,-0.29354605666955313,-0.14148381134304083,1.0369731587876454,-0.07590989940986281,-2.878306003825483,2.189672887566932,1.506179262442507,-0.35333687793195817,-0.11002364063605806,-0.2511686046071918,2.5390625
-0.3074480642860379,0.9990004449619807,0.5774660923273219,-3.186816547745497,-0.5923465352569519,-0.264709144501019,2.349954370317466,-0.05642433166343096,-4.160454303267139,3.665940034331853,2.136933512042195,-0.6460540299497423,-0.17961969882724693,-0.33611094983231443,2.546875
-0.035197254604544245,0.07909465961925184,-0.3259808959843883,0.7820610154837555,-0.12070826441299738,-0.08270421379751879,0.12515250589249682,-0.14369686888896507,-3.0988421284019116,1.771330874811008,1.6686114043312616,-0.2237987033178785,-0.09491327492633042,-0.3014947225450229,2.5546875
0.2702629047838323,-0.9003246984113379,-0.700883121029005,3.368443316947434,0.49851070065789266,0.21011094833059116,-2.144975981041836,-0.01709116378568933,2.4048389288335335,-2.584751925664335,-1.1976005413670687,0.4993433805386547,0.12404672078897454,0.16931246959475538,2.5625
0.11611417984937789,-0.3381822876411838,0.3107725601719788,-0.34012601296204115,0.30196448851487945,0.1765493695130576,-0.7082963086541099,0.20815694931647505,5.180746583504536,-3.259033245817862,-2.7655909565790773,0.4556019865705398,0.1731882940917386,0.4880497881316408,2.5703125
-0.2973300260040116,1.0308608986905698,1.3467958957924988,-5.384585002237612,-0.46151417331689326,-0.1462717190784976,2.551100057935942,0.22272721090119682,1.3023939698492797,0.7899700998817053,-0.8250408714836174,-0.31638935842179156,-0.020486944209193902,0.20857583867829058,2.578125
-0.39140578168311224,1.3095582339013188,1.1889199301202504,-5.381150064122074,-0.6904977350764614,-0.2743264759252123,3.153019723670246,0.0877873923917896,-2.23474929347286,3.0852697382853136,1.0571355229710993,-0.6453098585067902,-0.14088183119983735,-0.12099839794192577,2.5859375
-0.09227354466721457,0.31354685009289224,0.3750077245046923,-1.5430393778813267,-0.14700632025254076,-0.049744204862161245,0.7717894048517193,0.05469312683337172,0.13930667169674707,0.38062254021109576,-0.11216425571379962,-0.11159787537397438,-0.013231877970530196,0.03783574504417006,2.59375
0.1737961759071736,-0.5568371205226625,-0.16758144185929733,1.3391691345259376,0.36161331873097363,0.1750758901916277,-1.2814851206051754,0.08884605915376291,3.4708855517202277,-2.6569261999431473,-1.8138585078799625,0.43331214645815036,0.1354050219891023,0.30142148221139126,2.6015625
0.17398155802038123,-0.5736388711652531,-0.37152330536098405,1.9345417487892016,0.3328586577827763,0.1468817778047362,-1.354510424035075,0.017162090574655963,2.0937148042295903,-1.946718650525362,-1.0661782169183776,0.3536002595434904,0.0959197143829845,0.16358459810149456,2.609375
0.026129538110518213,-0.10703054423842878,-0.28158319765327317,0.9501369230881491,0.020090823830355604,-0.007427212272518847,-0.28812625438119793,-0.07629362566068355,-1.189674149963688,0.4806312721832659,0.656591766199305,-0.0322544154980874,-0.0277942235699538,-0.12625813504681097,2.6171875
-0.12213862265522166,0.39642774821211035,0.24339299138844728,-1.3072774799675064,-0.23199615220199535,-0.10177101471798068,0.9349960896580397,-0.017115745262416205,-1.543111198527807,1.39559871238435,0.7894440470936298,-0.24912434012698442,-0.0674632608365259,-0.12274072390886544,2.625
-0.15019649069443963,0.5135590002054655,0.6083951553143345,-2.511004005200373,-0.2421667225791014,-0.0827616813704357,1.2604101097572016,0.08747424265941113,0.18512110274648153,0.640859628877706,-0.1591640837625563,-0.18634571805242137,-0.02342445991453066,0.05759075422412687,2.6328125
0.022093106395585833,-0.06619681851306429,0.06501501004654461,-0.08205441038142985,0.060276273101259846,0.03617403556465596,-0.13769725310524572,0.04220248048708217,1.048003347193551,-0.6560893293601536,-0.559052886918282,0.09194283758213694,0.0356304324914016,0.09865434091848159,2.640625
0.21764711634278855,-0.7357026246953735,-0.6894294995396885,3.0778243938293652,0.38415409439378334,0.15208215338271291,-1.7733130737364378,-0.05756260737909818,1.0975773862443932,-1.6476666937266928,-0.5088562213463702,0.35405313683017353,0.07594675042899551,0.05219419936355359,2.6484375
0.169716278515585,-0.5735788241475656,-0.525948621286759,2.3665763503976645,0.30183857743999226,0.12066000790551719,-1.37990509408448,-0.040623142459240535,0.9416618472189601,-1.3299209790444344,-0.44310270934151463,0.28152312986286976,0.06189658102257966,0.049146068122680714,2.65625
-0.008268495728542451,0.01777505033331196,-0.05355474991124643,0.11736876386450565,-0.022995353453524655,-0.014620136923390063,0.03321806350902684,-0.025130290704671324,-0.5492382238782577,0.32135087038387744,0.2963129517063599,-0.040529602364108776,-0.016379544811307094,-0.053433511376586064,2.6640625
0.001187966857922599,-0.041751390928404755,-0.415743245796143,1.2221640604319288,-0.053127138765274834,-0.054153281896571426,-0.16081578646238415,-0.14446061333203364,-2.746336498839737,1.4115193503433943,1.4925063034763704,-0.1549244949792109,-0.07761114907382546,-0.27596169947387045,2.671875
0.1283238333574205,-0.4756623778919859,-0.8897005850916766,3.227987759832714,0.15975467302808646,0.0236305205576936,-1.2182434598148437,-0.2035305819890118,-2.6037653768618627,0.7087815889096094,1.4642685515012472,0.021754848127496108,-0.048172487599169964,-0.29497776401921244,2.6796875
0.06585126284957273,-0.23498219893290537,-0.32632669130889097,1.2763287770128535,0.10162411339264034,0.03136891724971996,-0.581894831884442,-0.058327259050290736,-0.44351126392143664,-0.10110869039642816,0.26623041369550327,0.06363931371255792,0.0014988197657917137,-0.062032486215984804,2.6875
-0.12477824061503605,0.4188759178828138,0.4243743918884281,-1.8482143008211505,-0.21193690927623063,-0.07955803544970211,1.0174967331969338,0.04437468630161603,-0.3875361333610803,0.8121380503704533,0.16085080473224506,-0.18569600420165475,-0.03482052471485333,-0.006271869591194626,2.6953125
-0.14966468067953267,0.4809540112334444,0.24368574255661757,-1.4409031200572637,-0.29200178419552164,-0.1326869673667929,1.127301665591941,-0.040095410750031084,-2.2606224530332297,1.9047454655620575,1.1680196915829901,-0.32657311770795244,-0.09356970396185296,-0.18735855396699827,2.703125
-0.05232753235552448,0.16143796471458668,0.03267921387948461,-0.348195895055828,-0.10758923445101021,-0.052103413199930775,0.37108333389549264,-0.031914367272971214,-1.1255611212310346,0.8354912076469475,0.58976118300898,-0.131841103789064,-0.04151827791180337,-0.09917584124794503,2.7109375
-0.08132440161417218,0.30197852456556207,0.6365464604715849,-2.2546464971125473,-0.086526397956598,-0.001088694108663428,0.7876096970166669,0.15575444393546442,2.1871867666934555,-0.7365055671369825,-1.220172922892975,0.020983910913590493,0.04794589224110114,0.24036617816250155,2.71875
-0.17240189230614783,0.6012841239575432,0.8330532220499643,-3.2745747821716633,-0.25942510132721847,-0.07672208746272083,1.4946993524856858,0.1477507792788307,1.1175997106257505,0.26810830032072525,-0.6744997632209837,-0.16151558344627498,-0.000953442958853508,0.1570828959968324,2.7265625
-0.07493200294550548,0.22319175255040805,-0.07800205384563241,-0.13734558761209545,-0.17337996297671732,-0.09323077420803254,0.4904660323847177,-0.09003461600403395,-2.4693850678411815,1.6448869853709498,1.312477484307213,-0.2393891807733178,-0.08470384611114226,-0.22806924794073194,2.734375
0.15631096175944117,-0.5229741138380326,-0.4217783994101386,1.9953185570282468,0.2869510448604009,0.12001698591868287,-1.249049941534858,-0.01534343526438599,1.292275249896245,-1.4436584588575354,-0.637596093218468,0.2842335505943394,0.06937255923540576,0.08779508965136153,2.7421875
0.22953599510538972,-0.6609072460745022,0.6540902471579694,-0.7917711555679766,0.5996442503239332,0.35195897156113476,-1.3801839437104462,0.42462251486459435,10.482385934042304,-6.561800225216442,-5.597464610447029,0.9117013364999951,0.3480019764050146,0.989089175211952,2.75
0.07942455707342679,-0.1563303993795946,1.1258584269479985,-2.9025534632357752,0.33602664639787816,0.24804106673310006,-0.16239773165666657,0.46345551495302195,9.719862677188386,-5.425448969601249,-5.243327911788578,0.6685409608190586,0.2961496199500755,0.9521696520756948,2.7578125
-0.08025847121446043,0.2224374199523626,-0.27357267906321653,0.4093234084438492,-0.21219793056018008,-0.12630569316393472,0.4595226971007592,-0.16336609676289898,-3.9284577856874283,2.4261818464079785,2.101208532951338,-0.3312488147123962,-0.12786281531985316,-0.3729436957770934,2.765625
-0.1128260294924005,0.22812549182689082,-1.423739042917047,3.6127252783950503,-0.4459221915542529,-0.3226100166503668,0.2797429854655963,-0.595092199082312,-12.551818314297213,7.04746242164339,6.768181129515578,-0.8724198550792164,-0.3820601146671804,-1.2279924165621798,2.7734375
-0.07652186316191376,0.19523413238978937,-0.4715511181223235,1.0068204727329115,-0.2322069655885408,-0.14950598068114893,0.3623463393057681,-0.2297500846052298,-5.169392821972403,3.0456917496390195,2.775225791949385,-0.39800049347396804,-0.16256242868590395,-0.49789306399473554,2.78125
-0.018310350335463885,0.12058447850302113,0.8024515504669433,-2.433501206266506,0.07524538975694689,0.09294849792483358,0.40595148357078936,0.26723114402393966,4.964311928729572,-2.485081742787192,-2.7011998062319917,0.2645208256148039,0.1402352173459001,0.5017472490301773,2.7890625
0.06933921467690893,-0.20567610614994822,0.15495039710773073,-0.11429643744925289,0.1770870665298105,0.10200690715763504,-0.43651603007873585,0.11382413971310355,2.9000451875590025,-1.8475863807150936,-1.5450839676230121,0.26161669614751193,0.09824777026577897,0.27164114667804945,2.796875
0.10350286879598511,-0.4220253699904062,-1.1712857347597967,3.9282825762329745,0.06549823474778076,-0.043467238676167246,-1.1450342281535448,-0.3233965173551454,-5.156457267771835,2.1526672069098027,2.840746688476872,-0.1585443820438172,-0.1265182171594693,-0.5443240962728024,2.8046875
0.01615745941592133,-0.12094770173524508,-0.8157728397940578,2.463397683594219,-0.0768523737628302,-0.09273311088463905,-0.4078307202511721,-0.2723832195572833,-5.0572296666891345,2.5309269406080945,2.7506583219436838,-0.2688592115163309,-0.14096743834313433,-0.511025813064444,2.8125
-0.03126538598148797,0.13340199022087643,0.47063405665552294,-1.5274218815326874,-0.0001452303020813075,0.03219654887502952,0.3797073765672832,0.1395785938940062,2.3793738479747355,-1.0828025997462285,-1.3049351715651625,0.09781016083249248,0.06335184115038311,0.24656142661727734,2.8203125
0.11238103295931014,-0.3193658744279833,0.39149645171522784,-0.5950777434722389,0.3049860936829221,0.1833013622902978,-0.653318601089622,0.23328711547582115,5.626802170320893,-3.469879842413514,-3.0091206288486148,0.4761242662393001,0.1851720016713038,0.5337635614238161,2.828125
0.22064254564259478,-0.7406140209890536,-0.6272768356630597,2.911509429812676,0.4000080922210563,0.1641853946057649,-1.7717246755969633,-0.033116935524057256,1.6000313522084988,-1.9191902562443213,-0.7792657963888595,0.38745113890920263,0.09092484723397548,0.10157782654534174,2.8359375
0.003371418920053394,-0.042713352610907564,-0.34092398988357053,1.0159308604971484,-0.0376439871003914,-0.0411451282506545,-0.15039500046667512,-0.11614864150251883,-2.181529032692257,1.1091953938089152,1.1864990462893292,-0.11871399596949976,-0.06087336794055153,-0.21992743098285494,2.84375
-0.3213570648405985,1.0805987920250482,1.046181470939477,-4.622093577853221,-0.5568780656404713,-0.21506263554732868,2.612574356373116,0.09676308540626508,-1.359956490941871,2.285483888626634,0.6103913601700001,-0.5017171200087298,-0.10171633599660994,-0.05182987105149134,2.8515625
-0.2950411002696336,1.0095976219437994,1.1712966022108082,-4.860761970048981,-0.48141137838453246,-0.16803163298179016,2.4725366980289856,0.1629793932170861,0.17681946447788166,1.3597153729785478,-0.2134280175829876,-0.3783815948213379,-0.052337700191442495,0.09518816167596013,2.859375
0.03562950576550832,-0.13123747132279182,-0.20830696024525328,0.7831346721744411,0.051847168718425415,0.013639961911315807,-0.32956124143898036,-0.04229709936813981,-0.4384940896513254,0.04578164561298199,0.2528880398537085,0.024029652402426438,-0.004395322663884055,-0.05381173041577534,2.8671875
0.18701099624819917,-0.6457645725575575,-0.7468665609476166,3.095529655012319,0.3089767422270286,0.10968067617769967,-1.5789629587177505,-0.10364620477998514,-0.09325069116982122,-0.8799480351250776,0.12659375212463037,0.24450812581994938,0.03557268093707767,-0.05923975790303141,2.875
-0.013159910321745405,0.07307051615880042,0.42527957154999124,-1.3065052140865958,0.03350478011580531,0.046352904070994856,0.23722583420245555,0.13896181344241368,2.5532744233983373,-1.2604919940789598,-1.3892090918409556,0.13211690696852468,0.07188279575048721,0.2587481363436764,2.8828125
-0.2241711185258647,0.8006280096854912,1.2994412106631474,-4.891102765813601,-0.3075827428584057,-0.0705252874197415,2.0232665826076546,0.2677708375534187,2.9046353723573035,-0.39938830592775504,-1.6643477080055504,-0.1272444523353187,0.04004785288969613,0.3497043378294163,2.890625
-0.1203991510431891,0.40034993055284895,0.3611442355744671,-1.6428617597689121,-0.21124489856175732,-0.08360409968725815,0.9645519307763237,0.025832868867048626,-0.6992076598091661,0.9536603598883322,0.33207610066510623,-0.1978947648449165,-0.04295382696669833,-0.0386702458787243,2.8984375
0.19195701321863382,-0.6917720096183166,-1.1156128325659913,4.197427641345641,0.2678979590186414,0.06397594861191683,-1.7442103443989638,-0.2290418585746707,-2.453710310725449,0.3184119780194483,1.4081430801476056,0.11475641607674737,-0.03130970156046373,-0.29682925530411564,2.90625
0.32154912267909097,-1.0995632456848135,-1.1884149052053616,5.043052691923013,0.5424447574002311,0.20009088238329564,-2.6767456416082247,-0.1451274414641573,0.46106448777737147,-1.8315681081559467,-0.1220959755084973,0.45487121088911614,0.07829437567230307,-0.038969980809958095,2.9140625
0.09407672469997037,-0.2967449053317112,-0.025278824038396916,0.5339242153627599,0.20573568824216865,0.10484557666152058,-0.6731864811593249,0.07126843894833415,2.328998252001038,-1.676517533391283,-1.2263618033030974,0.2612163823450521,0.08685442637957783,0.20823786573697278,2.921875
-0.15736985731929284,0.5362604293550873,0.6128214023700579,-2.5580882689425692,-0.2573981938101553,-0.09022798207416602,1.31220952446074,0.08294731429593226,0.023170044613397636,0.7576324333084683,-0.07556523938569222,-0.20531196871664317,-0.02937316346771094,0.043631248623661405,2.9296875
-0.04179607465126371,0.1227608340387822,-0.04317656983562628,-0.07695070731678498,-0.09548683361071053,-0.050804138511624915,0.2714065491205619,-0.04984871028162014,-1.3653672700037311,0.9059438936673093,0.7235507682538479,-0.13235281310242586,-0.04634938615120463,-0.12594934734868224,2.9375
0.21754951627506403,-0.7486922637246524,-0.8447201777642029,3.5318599530770873,0.3621730545930686,0.1305285704307466,-1.8270592938532502,-0.1122446254967563,0.046631505627496676,-1.1038935736279922,0.06099802502944789,0.2930595619115321,0.04571180040420111,-0.053009417065678154,2.9453125
0.10006085061570541,-0.3607326438444777,-0.560665000553123,2.1296324653339638,0.14407816920831937,0.03733103726854972,-0.9047536213254322,-0.1116937303747098,-1.1219323223836668,0.08249369796548967,0.649601132657054,0.07009922376281197,-0.011288807953099557,-0.13927493567048804,2.953125
-0.2709581052996677,0.8653928479895105,0.34395773445630756,-2.324433237524479,-0.5443176286265023,-0.25570666654127633,2.0113255121830167,-0.10741044138680404,-4.771408705814701,3.8036004916048007,2.4830488395320036,-0.6322444632035518,-0.1899232302005396,-0.40709312766491335,2.9609375
-0.2940394927902977,0.961034311960012,0.630350816140091,-3.275740452905461,-0.5549862632751601,-0.24194104382417073,2.2744722276850067,-0.026289128429432825,-3.447746887118007,3.2323314340470466,1.7549756427432126,-0.5864175331728886,-0.15639393279865463,-0.2682544833191746,2.96875
0.028522736902785565,-0.07343132253514166,0.21904386204073603,-0.5013357913864256,0.09609746641925551,0.06491187542851581,-0.1277912270066308,0.10184632681126406,2.256699547976936,-1.3121979285914942,-1.2128937185678172,0.17048995563181502,0.071726659352847,0.2182740041375192,2.9765625
0.1203670505284714,-0.3787101220214665,-0.026346391242001197,0.6645289836975412,0.2634797754593658,0.13441432001276196,-0.857369951144283,0.0932662159138501,3.0172386036563235,-2.158336794700081,-1.5883891420739493,0.33625407039242544,0.1118006967546649,0.27009806796614105,2.984375
-0.082198357421755,0.2629504066324635,0.1360121978258093,-0.796777377712228,-0.158948795066317,-0.0716829241447532,0.6172913853724021,-0.02094327247958839,-1.2121486625455187,1.030921791956428,0.6272894006402382,-0.17633668993204685,-0.05008728662833054,-0.10042764932460199,2.9921875
-0.09493564343848394,0.3129891967759728,0.2623142863621882,-1.2278251098686987,-0.16916506863372865,-0.06857642629580386,0.7512407084604029,0.012609653021858904,-0.6959754887020871,0.8255700585737497,0.34177730011880425,-0.16353195900899237,-0.037775454218690815,-0.04534782199641907,3.0
0.11652184136001255,-0.34701384793482537,0.21116967965287853,-0.047554708459523594,0.28854183576318526,0.16293992385733325,-0.7463478442642582,0.17337952733013506,4.517744457588378,-2.9182704000475987,-2.4050777263059784,0.41751228470552376,0.15416055384171096,0.42144270147140006,3.0078125
0.12939139748967615,-0.3940093759714724,0.126984399172129,0.2609329523305256,0.3050651905078251,0.16589003902924263,-0.8665075011148957,0.1547394361480418,4.288439748918844,-2.863851619430197,-2.2764559280332666,0.4211675994442872,0.15014518241798647,0.395233889252015,3.015625
-0.04915216803479562,0.15034671833498497,0.015122615748405328,-0.2829988900170527,-0.10314957153966553,-0.05101620396903666,0.34277016014649375,-0.03545752696839406,-1.1611553040725067,0.8379214333980485,0.6102501169766652,-0.13015237436907107,-0.041984969024843666,-0.10361901247289816,3.0234375
-0.03791248876474935,0.11102362470115833,-0.04108461247019911,-0.0642632292421721,-0.08642583525244776,-0.04621844570907175,0.24425791072709824,-0.04575811990880641,-1.2467302313972823,0.8262189260227666,0.6613313478317521,-0.12027893864244889,-0.042194201195041546,-0.11510733300490165,3.03125
0.14783891540597005,-0.4619827018701711,-0.007259268003420838,0.7423414677925012,0.32653857626470156,0.16794702983300808,-1.0429788453483728,0.12305732873811226,3.863826151033444,-2.7363430973811225,-2.0387021157965393,0.420812298739999,0.14163167582580793,0.34796626345972387,3.0390625
0.18861580001868714,-0.6112549602373234,-0.2791271191286978,1.7359232853146582,0.3778430238506296,0.1762687489135726,-1.4239109556734464,0.06193744896633103,3.1007094530969526,-2.541897787656364,-1.608012712464251,0.43078367005346513,0.12776499554389772,0.26066106450622856,3.046875
0.0734266717103055,-0.3077658310189016,-0.9188425571290229,3.044655482114785,0.034695471178500206,-0.042350338588095636,-0.8440985983675061,-0.2602207683263701,-4.244565358117475,1.8302511171670914,2.333995905425249,-0.14571598206023115,-0.10631452524815638,-0.4450724042677457,3.0546875
-0.01586076529101136,-0.03849211970963186,-1.008348155313731,2.8716051471433737,-0.1739885704783011,-0.15549933069165395,-0.2514416130215596,-0.3670838052814204,-7.194436850714429,3.798492905722134,3.9001782487114345,-0.43411834985562814,-0.20886422472274402,-0.7171582925107193,3.0625
-0.10680630663081044,0.3268802797948875,-0.010897929358960947,-0.48706718470461635,-0.23350336147330775,-0.11975839148625453,0.7371912014316949,-0.09337175349383454,-2.8520960617925186,1.9988958132334746,1.5061549612900864,-0.30394575643507904,-0.10209041117381581,-0.2580093821289336,3.0703125
-0.252016094239983,0.8691389453941536,1.0903786236430082,-4.414404563759929,-0.397894985959166,-0.13075792200358713,2.1427268418792544,0.1709236431141925,0.7629322687306305,0.8441666651783819,-0.5149034271652706,-0.28770599115332546,-0.027005074158273242,0.14260325915775923,3.078125
-0.30015363777176024,1.029385051155712,1.2230727729904152,-5.037332552431087,-0.4851488319046205,-0.16661602610298865,2.52692165656225,0.1768602879839322,0.39280178044196484,1.274919104539469,-0.33249353374595375,-0.3726599635505272,-0.047212451555069264,0.11814704015995948,3.0859375
-0.15570557354562398,0.5304592781280781,0.6119385702157821,-2.5466291495474414,-0.2535218415729022,-0.08851956597795672,1.3002707226983719,0.08417320632882179,0.0668336235879956,0.7317777226271097,-0.09640611479143364,-0.19988758455512823,-0.02790532450240383,0.04718894366927324,3.09375
0.0517526972091033,-0.1737532549811083,-0.12112874571497083,0.6077237837119879,0.09946283419306319,0.04372360178335467,-0.4110048496260195,0.0018924490583446143,0.5737441443420229,-0.5564634557438778,-0.28888894745739313,0.10401563982591093,0.02788561362728038,0.04322655819041734,3.1015625
0.17734133786766382,-0.6135485071962459,-0.7280482570005617,2.993681681466473,0.2900366610094269,0.10124278079290844,-1.5048383484349288,-0.10525809206576521,-0.22284611085056896,-0.7668966347358396,0.19186973977148544,0.22399436792309443,0.02998863388142143,-0.06948521479716914,3.109375
0.19275360970766295,-0.6687443007364907,-0.8159594976709893,3.325334636786354,0.31142358971781625,0.10652746381823307,-1.6434900678781768,-0.12313939332303465,-0.41289783012843173,-0.744435503707163,0.30047245123533295,0.2334370567830432,0.027624417720066186,-0.09243360102359814,3.1171875
0.15519029069645793,-0.5075732474854463,-0.27530785878027647,1.562116147806505,0.30506559954192664,0.1391539502067385,-1.1888208875835702,0.03511719082338972,2.2500654801102593,-1.9345488204217938,-1.1587853958631031,0.33781438878473785,0.09667022359319978,0.1841498879213239,3.125
0.17318476733120544,-0.5410583513355814,-0.003039753457308168,0.854780459553572,0.38324996028637226,0.19720694913571746,-1.2184777558525033,0.14606814367086296,4.563723057319292,-3.2196700394236943,-2.40679699513194,0.49548851827219065,0.16670312087109548,0.4110753807022761,3.1328125
0.22463920918983324,-0.7361090614595621,-0.4279725375492659,2.3480474170175323,0.4366510514508747,0.19638886570038436,-1.729458136491763,0.040300049718792356,3.0486064276343625,-2.6910808451699393,-1.5650630455229655,0.47609504297335264,0.13341075414881007,0.24584008965668222,3.140625
0.0828321341473073,-0.2925068736398939,-0.38542221039217167,1.5317880866540579,0.13060256760364228,0.04236818303181907,-0.7223101115093281,-0.06463367209816302,-0.3952532350226996,-0.20978699390032124,0.24675818242356204,0.08921084410869252,0.006303564478581188,-0.06163583809548599,3.1484375
-0.2509020962112546,0.828918346802672,0.647812713199055,-3.116026493152717,-0.45797430351697643,-0.19091975995025542,1.978975132786596,0.016252292584078263,-2.197869860026167,2.3718181659289193,1.0931066657250506,-0.4570969079752832,-0.11185164997918996,-0.15433056010634336,3.15625
-0.35166050552484895,1.1817508318390346,1.1313315854817358,-5.020413010608788,-0.6113975900985726,-0.23766386641286613,2.8553616385224947,0.10093387593075945,-1.5828534762572681,2.552003286649089,0.7203762676835165,-0.5550844908121694,-0.11426728553083501,-0.06632797979614873,3.1640625
-0.0798191935500948,0.2685073683097658,0.29044415644447885,-1.2366628554145864,-0.13191742647636007,-0.04760148537831165,0.6552894648712045,0.03527126209910823,-0.10962275976471769,0.44647321483662583,0.028849683368481534,-0.10987999038603163,-0.01790516816262577,0.009602219219315516,3.171875
0.04635335822440863,-0.16558639523933086,-0.22350215714514915,0.8805230247731884,0.07309628013205127,0.023574497697839758,-0.4097871318154369,-0.038627772269912056,-0.26095841384877766,-0.09960886722178489,0.16042358827882733,0.048418216594551367,0.0028582370290189353,-0.03872562931107165,3.1796875
-0.22614334412002027,0.7392023182851162,0.4904456178394231,-2.5357595667861226,-0.4257259070715735,-0.18479504823168075,1.7498632945883348,-0.0181272744773529,-2.6079783781338444,2.460483417911197,1.3256646221615402,-0.44837854251712644,-0.11876903366760744,-0.20200935894729302,3.1875
-0.313003928719737,1.0293391600923858,0.7385821231286481,-3.684882376628665,-0.5817860972374944,-0.2484593606268934,2.445880008576521,-0.0044203277891874575,-3.2176723639787093,3.2056921581037776,1.6223056320978315,-0.5987909817873222,-0.15359805999733797,-0.2402130447804626,3.1953125
0.14900150240268253,-0.5049989292209903,-0.47695396256060174,2.1213883829130475,0.26315443387203774,0.10411852880159655,-1.2171940515777055,-0.04098850186292327,0.7269675976244917,-1.1167171185383997,-0.33461822676669667,0.24135254312082316,0.051612536015239824,0.03317264536397693,3.203125
0.5218905151329565,-1.7446593574277882,-1.4707777094483603,6.845398663153843,0.9433991046937913,0.38702557854300274,-4.178571022626233,-0.07489940290270054,3.8261151062163234,-4.561672191818316,-1.8681240914938204,0.9148333199807467,0.21484124968718735,0.24527490302592758,3.2109375
0.24175423753573266,-0.8315726189672553,-0.9362663266033421,3.917423508506988,0.4027635343541916,0.14520435505879575,-2.029280347716882,-0.12383410424812784,0.06844230109843115,-1.233139619804693,0.05993090898884506,0.32689337417814,0.051158897354742626,-0.0574120884938412,3.21875
-0.20129424734317264,0.623853944876769,0.03834131154316822,-1.0922606177320084,-0.4344119977324844,-0.21946185025726064,1.4161930824513216,-0.15595675845711052,-5.005663352164784,3.58063943252193,2.637128390857562,-0.5534131701960591,-0.18276220090091638,-0.4488550093701525,3.2265625
-0.16036018554852,0.5220577653865256,0.3347534981927691,-1.7599696488056178,-0.3030047241238819,-0.13224438745582662,1.2350239603034023,-0.01728697057451388,-1.9311437669317666,1.7866591011181907,0.9843067607391635,-0.3220170529005415,-0.08624430412586305,-0.15145927744331622,3.234375
0.12517908815014442,-0.3604488534780689,0.3688222495947814,-0.4672153703854077,0.32957593856617867,0.1945796973379597,-0.7509465284589472,0.23606960850326397,5.808274608489434,-3.6288584437598916,-3.102103979224908,0.5032807839321851,0.19298894079707707,0.5485995641646917,3.2421875
