AF3,AF4,F3,F4,F7,F8,FC5,FC6,O1,O2,P7,P8,T7,T8,time
0.4689394384564584,-1.5408046058192153,-0.995044443297283,5.19626876912088,0.8936640737105306,0.39329602548574677,-3.639341925975505,0.04745557553641098,5.641965412882891,-5.2402817152109415,-2.875790233514869,0.9495723301888355,0.25653954688351777,0.4411737580203323,0.0
-0.13019541767510792,0.4747124022148127,0.887267309235503,-3.226978059068246,-0.15902818668600377,-0.021556946713776153,1.2189112548077954,0.2024032764717465,2.590994084675973,-0.7042033769470079,-1.45898032512138,-0.020711038142867854,0.049798983832382515,0.29364948334475294,0.0078125
-0.41488749594489427,1.3605037584856237,0.9192148032668009,-4.708920585742937,-0.7804662657160785,-0.33836071454056366,3.222269781508355,-0.027061722684076972,-4.679150178009026,4.464563462821467,2.3747197164500347,-0.8178794406899584,-0.2157903504743647,-0.359713533383978,0.015625
-0.22002021586535328,0.6322328276155834,-0.5651193762825442,0.5790570641678209,-0.5607473208013998,-0.32437104244351056,1.333493931508365,-0.38391960274672127,-9.572941378187613,6.036129494603189,5.109342252667757,-0.8422816823534265,-0.31776715532399874,-0.901485732013802,0.0234375
-0.004690628853686471,-0.055689151439969414,-0.8053457903579697,2.3305617714287292,-0.12109313864261494,-0.11468669611453575,-0.2581379000667034,-0.28626647198059535,-5.531747932418323,2.8816590766819568,3.0009966306235425,-0.3237260343858941,-0.15880451364389156,-0.5532479453634557,0.03125
0.00553445106009309,0.03141911990921407,0.6178975262543968,-1.7794818959625325,0.10164927742680505,0.09424659681484124,0.17410149882510104,0.22253871962348096,4.344746724413245,-2.2805635507448025,-2.3560821702795827,0.259987216239799,0.12713535932511522,0.43371581555564076,0.0390625
-0.052884908599354984,0.2782797097505294,1.4044212514828291,-4.3627229458038554,0.08393781195266807,0.13732745640636645,0.8612651101398777,0.44952060765827473,8.118741111817883,-3.9453539968310785,-4.426743013402514,0.4005360086863717,0.22398882446817683,0.8270914403060114,0.046875
-0.08346636394550694,0.30092838298984803,0.540080921838892,-1.985031024734215,-0.10490160900971685,-0.01712500069110201,0.7692470084747348,0.11989386672074244,1.4800271712341362,-0.3586325819352258,-0.8347966963471778,-0.023194459364502883,0.027056045099031947,0.16980710608692498,0.0546875
-0.02392402957330214,0.01714367157505389,-0.6451273241185075,1.7700938644025608,-0.14072273244522018,-0.11428479608254086,-0.06712502202968212,-0.24623793940565378,-4.955275891744949,2.677536675531899,2.6808516784548604,-0.31577120168499495,-0.1460892129097296,-0.490617703833073,0.0625
0.1809395562746228,-0.6556684673581331,-1.0906340252864006,4.072125695996946,0.24720154821909832,0.05513588502199054,-1.6584730626148487,-0.22953172696505122,-2.5744937670567847,0.4336986226329732,1.469103471429755,0.09332980239994332,-0.036908083288089207,-0.3059829902079442,0.0703125
0.31917813314459165,-1.068561990382969,-0.8998832544127479,4.188978497156638,0.5781071722908437,0.23755004674556596,-2.557983655376518,-0.04563529969850146,2.349330710058788,-2.79670619986507,-1.1476616550181635,0.5609691766127433,0.13212274254129314,0.150827373069822,0.078125
0.11352976942138737,-0.3700268080705158,-0.1738168271419154,1.0630307218326978,0.2279727915429571,0.10619100438427995,-0.8615506024412225,0.035576431078602075,1.8414411726932838,-1.5178008337830113,-0.952657290015306,0.2590909154917835,0.07663889135828861,0.15404069835946144,0.0859375
-0.24260705483218248,0.8182672033058388,0.8297835527399746,-3.6077581926858233,-0.41398390991060413,-0.1563728385217562,1.9856018928045198,0.08716864764229706,-0.7503745989368991,1.5823563645004,0.3119404148246914,-0.3625716969938467,-0.06867126621036229,-0.011708673178491962,0.09375
-0.30814871123832405,1.0483662979059323,1.1539679598649943,-4.874007079301697,-0.5123938217565914,-0.18526290279918425,2.5584664782882736,0.1457788695257982,-0.2843567988695029,1.6647866810927667,0.031713260762513504,-0.4223567691998463,-0.06829872819594787,0.05234610129113838,0.1015625
-0.07770947240873993,0.27214984048580126,0.417465675916323,-1.5962566230965918,-0.10936274228575504,-0.02743400257046945,0.6853378105643194,0.08179640265699106,0.8044001580203077,-0.03662879617431281,-0.46764787715780465,-0.053877241060303935,0.008840388431263781,0.10066208934519978,0.109375
0.10141127232563912,-0.34852503579735844,-0.3659501946208067,1.5668871839981562,0.1740208887255722,0.06591173537017886,-0.8447429636857583,-0.042181452740417215,0.2239782071068429,-0.6208781335820948,-0.08081278482192641,0.1500039561153012,0.02779910106483075,-0.004756645060205688,0.1171875
0.10625295201567524,-0.36463719322626376,-0.38033089173219237,1.6314644807300878,0.18261928666592456,0.06939350158113396,-0.8836538022932844,-0.043172470994422375,0.25296195390433235,-0.660138229177151,-0.0947485073912775,0.15797401670370848,0.029599261416848474,-0.0031171379850099567,0.125
0.04940609888104392,-0.1680998962948851,-0.13665432543924422,0.6414471503761756,0.0921533094152119,0.03916098337671043,-0.4002725905719072,-0.005499682544693623,0.4055085537417431,-0.45875049996776635,-0.20043870465966734,0.09128538139485456,0.02265382652916914,0.027182137240833088,0.1328125
-0.02550327709163566,0.059011934332264315,-0.20126047079529133,0.4643924835320917,-0.08167242010391115,-0.05432875275435283,0.10087232704843839,-0.09151766058986642,-1.9991024909362947,1.1554582268177809,1.075341432537792,-0.14721715243939457,-0.06140301317687394,-0.19393261032875736,0.140625
-0.07624629689465356,0.2112711596549071,-0.2682078603604304,0.41136593231679847,-0.20300435345595755,-0.12103915469708282,0.4329136751612536,-0.158081060251649,-3.7883520908473285,2.3320591065950675,2.026623507219996,-0.318295994031336,-0.12296048008682199,-0.3596942834750144,0.1484375
0.01367859330068165,-0.05708073191223033,-0.14339271487847632,0.48459859523358434,0.01226520632114869,-0.0023875902493166457,-0.15187624214469567,-0.038255957648676765,-0.583077556647921,0.22930637775779747,0.32218688154386965,-0.014146242097038002,-0.012960033224793483,-0.06217339579743185,0.15625
0.18737691628881664,-0.6011655065340291,-0.20380255309900527,1.5094887151233853,0.38609400562536816,0.18526225505204916,-1.3893177091657705,0.08747598988082624,3.5796252976501663,-2.7825426745098025,-1.8682772386523716,0.4568581167286807,0.14124664730002184,0.30901671484258375,0.1640625
0.19861160147053228,-0.6498753734496222,-0.36730226453274556,2.0434705256547927,0.38797440749811435,0.17535459368075734,-1.5262345670146327,0.03960511188250477,2.774413860758331,-2.421135407840783,-1.4258832203631466,0.42564553115152015,0.12036231672829524,0.22521208223186767,0.171875
-0.0006546530261862815,-0.0020934599986342345,-0.010667638273441247,0.029292701468580738,-0.0001870645366517224,3.345265632282509e-05,-0.005352673323554153,-0.003566665400561553,-0.058739093439559485,0.029076671178992687,0.03325565101343104,-0.002035821963178662,-0.0006813320091925858,-0.006189475759389409,0.1796875
-0.15182443052276653,0.5233670527981874,0.6693908146023444,-2.695791600880951,-0.2369626757114156,-0.07617676987826244,1.2933994817794277,0.10759808043834478,0.5555976776086216,0.4576594176645926,-0.3608801025806724,-0.16694712274054543,-0.01308410750898008,0.09524171253062519,0.1875
-0.09151128234184994,0.33755314624322896,0.6863322389521325,-2.450441576561903,-0.10184975353453792,-0.0057702378007263525,0.8772252275394676,0.1645804531624033,2.2564741647621203,-0.7200868706644157,-1.2607875698199151,0.011357778105453244,0.04779476249515218,0.24979711452913742,0.1953125
-0.000526773453868123,0.0022038489219573017,0.04758001705634457,-0.13923270653238462,0.008227173380455257,0.008239990871173252,0.014527790816210912,0.017012224773844193,0.3366953119764183,-0.17553569401522637,-0.18245649366153077,0.02120496105710798,0.010715712925131385,0.03347781525618821,0.203125
-0.0894481174172174,0.26595458646369047,-0.09787605232396673,-0.1482306236107845,-0.207943408893572,-0.11227585042840213,0.5854382369254263,-0.10932294208788156,-2.9850956838456857,1.9825690734098114,1.5854208750103407,-0.28843630623263306,-0.10242593791249381,-0.27593922336098675,0.2109375
-0.22558887088851473,0.7321512047755288,0.43289849890741106,-2.364084967976291,-0.4324426815009112,-0.1921635922650563,1.7257516166077236,-0.037846379159374305,-2.9816976119954597,2.6528414691211966,1.5291065733553881,-0.4685782980640575,-0.12939234706514946,-0.23979695051435612,0.21875
-0.12722489800521167,0.4234746155144684,0.3922512611989009,-1.7655584896659184,-0.22164588827127696,-0.08676117648861627,1.0229163405824686,0.031070291849888108,-0.6681313688796932,0.9695336512850976,0.31212128729758604,-0.20464118206950566,-0.043345630668121686,-0.03394032093343778,0.2265625
0.13937800527388294,-0.48142618646289514,-0.5485574599350274,2.284438131723875,0.23197690666128945,0.08344732770382013,-1.1752655957661966,-0.07425381998709807,-0.009759603479095939,-0.6885014004720024,0.06078648883153975,0.18633467204022455,0.028586635180371304,-0.038117865798361364,0.234375
0.20762076793876164,-0.7266361463205001,-0.9570463415598556,3.810900555453825,0.32422956027198513,0.10369446385638459,-1.797223968357258,-0.16020168708431456,-0.9749599516822498,-0.5271148458829095,0.6117138475418247,0.22068570932257708,0.014432333120263053,-0.1526632210955859,0.2421875
0.0058673561311999994,-0.0336216551857427,-0.1493317778816446,0.46591073101500785,-0.005618217628406847,-0.011834173047776666,-0.10009262413889895,-0.04684647903702323,-0.8267820556050428,0.39245423885437597,0.451023937736246,-0.038059341550723144,-0.021417041379618446,-0.0846424879638924,0.25
-0.11518456464253285,0.39726197369827304,0.5184223562944598,-2.07654549069943,-0.1775769466543471,-0.05572367657421316,0.9831531295477813,0.08555559582996859,0.5000353955231931,0.3051100645581004,-0.31653159739206677,-0.12167063715846221,-0.007384004613376195,0.08010528399709352,0.2578125
0.02093889977666918,-0.06275922141014402,0.06294550941634788,-0.08193893634873096,0.05751676953032135,0.03459319344668311,-0.12980436642214963,0.040491698510804516,1.0044311705366564,-0.6265874265980875,-0.5351693278362998,0.08775695037906739,0.03413012887627537,0.09472143544118115,0.265625
0.1544788425887379,-0.5231924357996166,-0.49276640254916804,2.193669104734959,0.27277575694784484,0.10809390067706474,-1.2604674260644781,-0.04197378748679675,0.7633750162201233,-1.1611412972048816,-0.3513559912495796,0.25070891205151735,0.053737095656070426,0.035372235831209076,0.2734375
0.09040357658836674,-0.29792538676016783,-0.16923845566651738,0.9365584070233458,0.17767810617811197,0.08075813219977968,-0.6982839915636723,0.017658022445073335,1.2637480807953168,-1.104425063152687,-0.6495621906190974,0.19494977674255662,0.05540750679893297,0.10238096134967556,0.28125
-0.008298046252757634,0.04899268757609549,0.3249315502701175,-0.9883408382511976,0.03056354483653052,0.038055679535616595,0.166547989840888,0.1080115581264047,2.006150682587246,-1.0015631440769588,-1.0922976198182344,0.10735834448555608,0.05716601759945332,0.20280027607798004,0.2890625
0.01141026196112054,-0.02157969926059952,0.2100851913551987,-0.5565580409309144,0.05769481939714221,0.04432815977955523,-0.01177352008369987,0.08429649861424209,1.7487041209535563,-0.9651607167051717,-0.9441761693893944,0.11866755181927176,0.05370461806307451,0.17186260086479416,0.296875
0.062225847304945965,-0.2003270903799005,-0.04699837901718584,0.44250625088838874,0.13296356634120413,0.06588244759738496,-0.4578901731243871,0.03682997129166203,1.3482303138635665,-1.008355699557435,-0.7062510124162664,0.1627649165060372,0.05227105255230255,0.11831668841959632,0.3046875
0.052856724938284895,-0.16763757281277902,-0.0050231338877505536,0.2743123215684305,0.11811307130008804,0.06105816549295464,-0.3776840673433813,0.043634212248784526,1.384949915566718,-0.9818704527999477,-0.730451272457448,0.1522912403622768,0.05142085094745474,0.12439122826017827,0.3125
0.004032202886328515,-0.019328723116311015,-0.045137793757286965,0.15338216451311126,0.005032616311029203,0.00039480662530246035,-0.05060641612773768,-0.011762462579886841,-0.17048898871167534,0.062344292377898645,0.09391621281080557,-0.0025250701256611103,-0.0029964613026635576,-0.018537824771794924,0.3203125
-0.07854081546031995,0.2211020954577466,-0.23642876445509198,0.3089976680648161,-0.20356174669314211,-0.11924559377016689,0.4597020772288945,-0.14884923836957734,-3.6348778711582175,2.2622055149975817,1.9419398985085548,-0.31219925736516324,-0.11894672339278882,-0.34375572685009914,0.328125
-0.1806140590889638,0.5535266411316739,-0.04499866947848164,-0.749237575843608,-0.40105258678005923,-0.20772746899614208,1.2422117306754596,-0.1678783091192522,-5.027072260731767,3.488091627556206,2.657787576992098,-0.5276892749438289,-0.17922673126958016,-0.4563592144046119,0.3359375
-0.20189464381427305,0.6589128336720794,0.4324755995253545,-2.248765736773058,-0.38048412058051034,-0.16540689719026713,1.5602499271391397,-0.01802229596224254,-2.3618351334421908,2.215173342996205,1.2027470022150477,-0.4017191543260165,-0.10686706923135374,-0.18387992682240403,0.34375
-0.09821214126544545,0.3385550057209418,0.4494749411032128,-1.7921574413288535,-0.14998294050838473,-0.046088897076427666,0.8404898589352529,0.07564312661575064,0.4807593569885793,0.23149131988347077,-0.299504499595345,-0.10017238252159726,-0.004573318854436097,0.07351047839486727,0.3515625
0.014443750972959584,-0.04733646799230714,0.01114963435809265,0.03913245572527031,0.036088183276182836,0.020151841213359965,-0.1032064651035063,0.016867210735393757,0.48476784178265175,-0.3275442461545616,-0.257132734585894,0.049306828646508725,0.017941691177637848,0.04428253599644178,0.359375
0.028202528713112386,-0.09852436029494811,-0.09132423087860413,0.40586999103745924,0.051973777977424335,0.02144909919733443,-0.23579237329461683,-0.007472384408596392,0.15548191421424687,-0.2238361126075706,-0.07248818944746842,0.048699882340617354,0.011223440517825495,0.007748447814786927,0.3671875
-0.0016648022325091388,0.02187467527414577,0.2411215881928315,-0.7117922646327431,0.033102407499136205,0.0338538270696715,0.09093374303755095,0.08411287205971209,1.6144898724627699,-0.8301742181736945,-0.8758464306984625,0.09346090821896198,0.04721603130770773,0.16182819356294742,0.375
0.04397364388667692,-0.12417700641566554,0.18548362514003738,-0.3266203191179545,0.12554201335659157,0.07757143326815376,-0.24805887570940227,0.10307318985071602,2.4377381121638653,-1.4826490572691082,-1.3047573342483538,0.201266153394915,0.07994076733065753,0.2322689966867388,0.3828125
0.15200931716200344,-0.5152076524316407,-0.48574478788860226,2.1626106441107877,0.26853358629076163,0.10633095992122464,-1.241541312679286,-0.04154162524335982,0.7458811778062276,-1.142329732696971,-0.3440636109301687,0.24658827616431697,0.05279847792706796,0.034263063694725364,0.390625
0.16634634849848529,-0.5877692511597934,-0.8213785291802871,3.2139448010137848,0.25276376326368005,0.07598521758129859,-1.4605574950557343,-0.1473526979104423,-1.1432425899275573,-0.235346134649082,0.6867220773846985,0.15665648565039494,0.0013765534404650492,-0.15875693572092403,0.3984375
0.03979106592014058,-0.14588770444078358,-0.2293720798516505,0.8665081616228187,0.05778284320467259,0.015317216660888767,-0.3654082531272191,-0.046255738201036165,-0.4743430038765205,0.0447659948691498,0.2734096400428749,0.027739948247335344,-0.0045442013265695885,-0.05829853532005982,0.40625
-0.016634605122529105,0.08088424543704137,0.39129971274647424,-1.2229054627848843,0.02115019485468232,0.037691604331942775,0.24910478515922982,0.12415627329072333,2.2322670727522986,-1.0768096320389469,-1.2178680617546451,0.10923006891153174,0.06200892855869322,0.22773167462339108,0.4140625
0.13433913038697054,-0.41776629027648743,0.027894398911289024,0.5749127530610243,0.3021084900838764,0.15759939703467385,-0.9358986691138073,0.12405358252734697,3.7494694565115765,-2.607982938217909,-1.980958224836485,0.39678654303396343,0.135593169315242,0.3397953937311809,0.421875
0.2158355904346538,-0.7284833916817957,-0.668944105923628,3.007801518035596,0.38315961911560537,0.1529287917570253,-1.7528055067543546,-0.051938096784742496,1.188306950301864,-1.6855342695396476,-0.5581704285283252,0.35665704809426024,0.07817043969866665,0.0616942424651965,0.4296875
-0.06592489011941104,0.17691248860595277,-0.296347354247651,0.5438255835161634,-0.18418027528117456,-0.11325127337332787,0.35038050614994565,-0.15917386233903885,-3.7060796951555273,2.2385068335171185,1.9859812361058482,-0.29966357695685925,-0.11851270945870364,-0.3541872508392945,0.4375
-0.42773671139822655,1.4033433578534669,0.9540788257018378,-4.874787489949891,-0.8037370278796818,-0.34799194016790125,3.324361863615797,-0.025582820722135358,-4.778697229106728,4.5806359589747565,2.423647750466121,-0.8410586389525969,-0.22128378376157373,-0.36618138849209003,0.4453125
-0.3579493510127069,1.2203230291585903,1.3619743829996296,-5.725483224069368,-0.5926117324404099,-0.212628710995699,2.980569071035676,0.1767659480173248,-0.18910981108186406,1.8616189698598609,-0.03965399531570102,-0.4831060888329139,-0.07550717382699931,0.0750262639439479,0.453125
0.056878662081747064,-0.1593196605999462,0.24857116105108035,-0.4479129819470759,0.1628300318125204,0.10096033330116691,-0.31569933710413445,0.1361271204235699,3.2022586334325127,-1.9420647701796243,-1.7146709860533265,0.2627563830580924,0.10447708216341545,0.30525675371560806,0.4609375
0.24704029622063067,-0.8447721337885918,-0.9041005841560565,3.8485507413824775,0.4184881730874564,0.15555293773567755,-2.0543335849696605,-0.1082324400696346,0.42000994343697334,-1.4427153338108152,-0.1286821117965857,0.3539403356759226,0.06237627558296347,-0.023513466473018815,0.46875
0.029265333801771997,-0.1427792860869309,-0.5865740534703066,1.859409613703319,-0.015599541790043268,-0.0461108573340687,-0.418844995204677,-0.1806772824373265,-3.1617085354005128,1.485398227879742,1.728057263455648,-0.14158387310092202,-0.08386048319766355,-0.3248172590027041,0.4765625
-0.19455115823314026,0.6416189566227414,0.5024382848621161,-2.4143656050146816,-0.354108223231961,-0.14745801469701034,1.5323230545637387,0.012934504404499935,-1.6925680622420292,1.8313156480993706,0.8411885009709225,-0.35310265469475594,-0.08617301328997491,-0.11872091643361804,0.484375
-0.10070368254566653,0.3544272363007531,0.5506803910559571,-2.0988032184853243,-0.1409869497639755,-0.03483208947603843,0.8933056754191234,0.10920942557332164,1.1006158412778022,-0.07650988596063868,-0.6369410065713668,-0.06735095470526432,0.012760903142845418,0.13628816452554574,0.4921875
0.14229441018844258,-0.48863958011581543,-0.5287495907899183,2.239718993417342,0.24102191884856472,0.08948356296797341,-1.1884112737168802,-0.06481828015184593,0.20053236690436552,-0.8109755338997773,-0.051046929172782994,0.20238772518602957,0.03523373551324037,-0.01783077536372152,0.5
0.201618839122528,-0.710943213761043,-0.9908245360936844,3.879915843846934,0.3063912698007296,0.09222714956237915,-1.7672281782851325,-0.177063841745726,-1.3589882334058798,-0.29710214371545723,0.8188418755432572,0.19080027374704092,0.002197335326564448,-0.18959923479332783,0.5078125
0.05767897693270078,-0.1945833686750397,-0.14611504508629553,0.7101626766946154,0.10907475271473199,0.04705467671556701,-0.4613847769739918,-0.001821050980717059,0.5607307472403188,-0.5785167834077957,-0.28083497226295323,0.11115778432983611,0.028700626504490956,0.040602284615539344,0.515625
-0.012062013944795648,0.07899378336315416,0.5421343164345149,-1.6420266038068594,0.05254218445923003,0.06384751977227265,0.2706964964426467,0.1810292153156455,3.3719933422255832,-1.6880237988456304,-1.8342918355912052,0.18110804986606227,0.09559809201774314,0.3405425453449335,0.5234375
0.10556134135461379,-0.32708883528419974,0.03884352353715022,0.40108105065836064,0.23995257000115097,0.12657923211838457,-0.72979866280928,0.10341360705689517,3.063428765457939,-2.110519813971411,-1.6196576990451006,0.31865488705951833,0.11011655655130281,0.27865931525549553,0.53125
0.14879828463499306,-0.5084573568828403,-0.5332269608717588,2.2836497231637134,0.25445732418737255,0.09591519496634401,-1.235113705660498,-0.06110839251516762,0.33799169525403844,-0.9155805354902582,-0.12344802786234864,0.21817234962341667,0.04039185885161492,-0.005717233841901447,0.5390625
-0.07215200370598296,0.22190554970016557,0.01265741978207522,-0.38842745334146894,-0.15421278915687303,-0.07747690068466632,0.5032332233845853,-0.05588559388005686,-1.783633563730885,1.2735236640918512,0.9395051673010418,-0.19686431421700273,-0.06448895273733203,-0.16000589623300937,0.546875
-0.29138443878144676,0.9768138514307771,0.9181871444365683,-4.103559758925552,-0.5086814466700568,-0.19900412055273925,2.3574585721339854,0.07713463191170548,-1.4343840821130178,2.1768292273952325,0.6624130712570911,-0.46666308707095056,-0.09798552785919686,-0.0671875117168941,0.5546875
-0.20533866965729666,0.7099078996855801,0.9182783482272383,-3.6839639026701674,-0.31959542182938766,-0.10192152653909674,1.7556658836472534,0.1498819808774712,0.8270891752502276,0.5818646778701702,-0.5306498108008941,-0.22184339034962122,-0.015843144840530836,0.13675078455443143,0.5625
0.015064465544341639,-0.03696189944410713,0.1578369940709978,-0.3859579258686775,0.058017054790765715,0.04115001995011038,-0.055791029447170695,0.06894132180964077,1.4891761176767613,-0.8501828643659765,-0.8022279811232511,0.10834033471223187,0.04698596397649463,0.14496821718367386,0.5703125
0.05775131747554281,-0.22104801521972128,-0.46120166597004114,1.6320032283846377,0.06489025810972154,0.003440825792877409,-0.5738914835828876,-0.11247965455275573,-1.5654207305631964,0.5194422373738576,0.8726139999991334,-0.011558558076561337,-0.032367360267161326,-0.1723901346519326,0.578125
0.004218182901834263,-0.0678598571218961,-0.6141165135954663,1.817509673626533,-0.07436425412098684,-0.07811398827976467,-0.25315128338711,-0.21148051842703877,-4.005149756852723,2.0472597409404623,2.175749958929948,-0.22333804852971986,-0.11315305703673435,-0.4027818604671449,0.5859375
0.0802148760613927,-0.2920327306822902,-0.4758605454722398,1.783325744384529,0.11213548719508405,0.026804227744945033,-0.7354279243497308,-0.09869162174702437,-1.0738024903098704,0.1558431122450605,0.6156741601574808,0.04669242463611596,-0.013785796919975371,-0.12921179571891112,0.59375
0.17823269176223777,-0.5741440995265228,-0.21319026635794117,1.4933530912877138,0.36475779981992135,0.17384344284510037,-1.3284516838023732,0.07652700969327145,3.278956380570346,-2.580789903280357,-1.7072389168850635,0.427954882634438,0.1308182727598114,0.28096747972886316,0.6015625
0.06505903722026396,-0.19896377474563345,0.07559212239685947,0.0973330336892386,0.15663021895229282,0.08627650185274176,-0.4349755806216783,0.08241969322526727,2.2543139803470176,-1.4924013418626492,-1.196360278341035,0.21871535473957418,0.07887724064099064,0.20817942690065455,0.609375
-0.1553210500695994,0.501558341311434,0.2750535427708198,-1.560712138316802,-0.3001383873902174,-0.1347588772010217,1.1776166781085113,-0.0338630239541758,-2.1970907220090483,1.8984907950802443,1.1311176473343332,-0.3306899777817462,-0.09288054591634078,-0.17955458983048386,0.6171875
-0.15180614197132042,0.4769669601265635,0.10622767256400224,-1.050414566440314,-0.3165135737114924,-0.15443797212616908,1.0939742343297119,-0.09041831654338837,-3.249387902904524,2.4252342829277342,1.7032107732927155,-0.38708796031121173,-0.12245131024918181,-0.2858353834448238,0.625
0.13101240251694835,-0.45683475901747356,-0.5725612900527299,2.3128488277413513,0.20979411997527717,0.07035384382233555,-1.1245868598432807,-0.08995966782623854,-0.39603777180668165,-0.4471230853321713,0.2676759855513915,0.15259462318791336,0.015764915587792055,-0.07462282407300512,0.6328125
0.3242755758466502,-1.0902772785821033,-0.9765156680768818,4.43616578572545,0.578102640372808,0.2324797322627544,-2.619819769039026,-0.06844658971499239,1.961641088595476,-2.6200288327846035,-0.934196367917178,0.5452684428768,0.12196599210392363,0.11052735698136054,0.640625
0.09201374472432729,-0.28983838340470647,-0.013175578361514128,0.48795568637801384,0.20314758666721106,0.10424900721020292,-0.6540146582615828,0.07386033436582926,2.3597650396125953,-1.6784910962527093,-1.2426657954567522,0.2606393623230611,0.0872580964631758,0.21167513290914403,0.6484375
-0.3548074701338894,1.2350064216836858,1.655532629063947,-6.56796012537163,-0.5443771630614949,-0.16833184003540547,3.062707248050533,0.28258815078319904,1.8759599299854246,0.7777299739524167,-1.158539855653089,-0.3595961671722446,-0.015491432288667166,0.2810707855711307,0.65625
-0.46495089348347884,1.5975007105981098,1.9079095594415847,-7.8421490489661885,-0.7509616668040139,-0.2575917272016992,3.9225035406474222,0.27816969343117354,0.6834963632861787,1.9379863602910377,-0.5557592564626445,-0.5745390739282563,-0.07168727765454687,0.1906560690696764,0.6640625
-0.11389791465901296,0.3781566111814133,0.3425203432021858,-1.5545964356272164,-0.19942979337319755,-0.07864172088886216,0.9120800558382405,0.024831766041605016,-0.6537357166128244,0.895858195987046,0.30912191397689603,-0.18649207739685456,-0.040298602933093654,-0.03576751500224418,0.671875
0.2326994651407399,-0.8113811683446127,-1.0353958254650746,4.162869739276854,0.368537896811142,0.12124080778858483,-2.0007755046061138,-0.16641252941437817,-0.8438682906914505,-0.7182283273016971,0.5494850207548435,0.26181648079469916,0.02321655903086519,-0.14596799995915863,0.6796875
0.24810468415247422,-0.857612902560583,-1.0209973278897593,4.1956727314261135,0.40432720966737334,0.14052175245303627,-2.1035204912118526,-0.14836340308798848,-0.34261508531112006,-1.054188667237243,0.2835958153342587,0.3110803317960374,0.040705956362901446,-0.09975489989452017,0.6875
0.13043019129142866,-0.45446666623726395,-0.56164210577799,2.2788756285028122,0.2103838284726102,0.0714423180167481,-1.117489064224659,-0.08641931581932846,-0.33383016817188876,-0.47645831492358043,0.23344723294881875,0.15572251844571763,0.017496921524152022,-0.06814247850905866,0.6953125
0.09238354062849151,-0.32553461289288615,-0.425276133734768,1.6943335566652284,0.14616437640344704,0.047530691152231706,-0.8028525142179932,-0.07061492836048014,-0.41043324482146254,-0.24712196490023697,0.2613302253511779,0.10109467548108284,0.007665649004185746,-0.06610858797282756,0.703125
0.03270498779972486,-0.12147058158051835,-0.19587796031995208,0.7327467126010716,0.04729801835188708,0.012103505068137642,-0.30425390100908123,-0.040389005184244424,-0.43008916623858967,0.05787990036049764,0.24813987356666878,0.0209611005942869,-0.00475042040965635,-0.052347165429382655,0.7109375
-0.09339891260138236,0.2984128156678181,0.1450493621947897,-0.8783731122880715,-0.1821893110722561,-0.08295868055199818,0.6983934558786281,-0.027190355263333695,-1.446581182865801,1.2051317036614344,0.7488259315654846,-0.2049671586106253,-0.05898840788265846,-0.12075695593408661,0.71875
-0.12297032161671104,0.38839070301518425,0.11853996871540032,-0.9452755100443854,-0.25123976437073287,-0.12016540102184894,0.8961104858727394,-0.06161977164089901,-2.4062805608331406,1.84695691885413,1.2579810752465823,-0.29980547061563084,-0.09245436344969601,-0.2090411350477959,0.7265625
-0.04758493398533832,0.15293227564539444,0.0970838435310737,-0.5158106449857498,-0.08863805197479471,-0.03814551122477363,0.36177855795195096,-0.005550050543184256,-0.5705694710285032,0.525260995272672,0.2920399612970549,-0.09414378199227048,-0.024753848954395027,-0.04502837547291764,0.734375
-0.035045500468006224,0.1538633309608338,0.577793647395208,-1.8600376595238395,0.0067281204662931575,0.04279458665472809,0.44435490761956387,0.1740139068233295,3.0052146083265368,-1.386803270992678,-1.6443984337200057,0.12889223288633575,0.08050165768218064,0.3099487053272906,0.7421875
-0.06090095551887807,0.2516599067856137,0.7928136416468433,-2.6135694199543194,-0.019638561214484485,0.04357577478918329,0.7006356607401227,0.227866903937482,3.7792388604295564,-1.660298219283795,-2.075910070662655,0.13956342348206816,0.09765640337385705,0.3943718373591048,0.75
0.020985981537856014,-0.06517760836572203,0.04035935952193407,-0.013442985549934724,0.0546035193896433,0.031576977800112406,-0.13914320482727727,0.032737476443197286,0.8544020304598885,-0.5511278801059788,-0.45581956587583367,0.07952968707778894,0.029909172271385797,0.07973021125403006,0.7578125
0.11732985207552345,-0.42537158351577237,-0.6946700403993772,2.605459246624734,0.1630325445521104,0.03824008809893618,-1.0729682871505806,-0.14416252291049794,-1.5737648302528002,0.23107672368261595,0.9014101816784166,0.06715819051089003,-0.02075352726024032,-0.18901799972833114,0.765625
0.05720178438013761,-0.21161066687967858,-0.3645213134616867,1.3469529169976906,0.0774051003760244,0.0162247202610655,-0.534845326534543,-0.07899298388736999,-0.9254943814212256,0.1938938464749309,0.5261679090757474,0.024904101312064327,-0.014126293124097689,-0.10829153756591173,0.7734375
-0.0330381318996371,0.11438534435928151,0.18954684420263676,-0.7134794051484313,-0.04299932419924324,-0.008631343120489524,0.2926117406875761,0.03945137546995279,0.4421569352125573,-0.06849019404099911,-0.2521715088450142,-0.01580323244190506,0.007234726274575839,0.052483664133808214,0.78125
0.03847771701693013,-0.1383103904948431,-0.18629159730060452,0.7327688310081383,0.0611266490380407,0.019910863905042302,-0.3409853986444692,-0.032227674284574605,-0.2166085487307054,-0.08212492439202909,0.13369737113150415,0.04068975118603619,0.002556397431082265,-0.032297431177799964,0.7890625
0.12507860803464202,-0.45376792849565417,-0.7550208817020923,2.816913942378198,0.1712218563581517,0.03862172624279842,-1.1481228620775576,-0.15898457987584938,-1.7817452806023775,0.29908700661693993,1.017422367201304,0.06479744104927954,-0.02517679164385194,-0.2117726467502636,0.796875
0.005558385015330194,-0.0379523222467659,-0.21344959027546162,0.6514694392176663,-0.015369458246572987,-0.021104598361536536,-0.12022261957567917,-0.06968299361376157,-1.2687412054963996,0.6235458341265137,0.6909085138794402,-0.06396848980103488,-0.034187870540394565,-0.12881927841234536,0.8046875
-0.18464005958342547,0.6457344245478707,0.9167022656985285,-3.5787615065457925,-0.27433695144755604,-0.07883226141962607,1.6102381460806927,0.16680466898670618,1.3617945771156523,0.20178182319688964,-0.8126640722747369,-0.1638623522755518,0.003589324741177511,0.18471488368551864,0.8125
-0.19830885492037603,0.7052262183952135,1.1224090190955267,-4.246523864235272,-0.27538953314864767,-0.06574633757330334,1.7786105240874128,0.22754917360389448,2.3920249585845377,-0.2633614197695622,-1.376667932218833,-0.12239189237062179,0.030460581194190577,0.29142511082982625,0.8203125
-0.09019333234880482,0.3014108781799109,0.295074766383701,-1.3012394427375538,-0.15426719985718684,-0.05869118987455222,0.7295927627777232,0.028093617560099156,-0.35229316755053086,0.623007820236147,0.15634437246095936,-0.1378017492974833,-0.026923691707943606,-0.011876298966453971,0.828125
-0.01792294422621835,0.0187948727155803,-0.4100881869291787,1.112144336251266,-0.09474793958311507,-0.07503518802694478,-0.025590104915834567,-0.15866617935807031,-3.214385748519859,1.7465860693366562,1.73820382098992,-0.2074775908598182,-0.09478600564129594,-0.317458797273538,0.8359375
0.061930020363770294,-0.2350408846708674,-0.48057466616838546,1.7073742003736436,0.07099742166318686,0.00537976624257107,-0.6094595864800425,-0.11586684781842678,-1.5900323963806902,0.5110667638481421,0.887760381261207,-0.007773477087327813,-0.03219816910646933,-0.17577298216479234,0.84375
0.16771225052134323,-0.5494431066878461,-0.310033056223513,1.7246803111331441,0.3278414510651034,0.14846706237451754,-1.2892185225700892,0.033534097045911836,2.3445397714958216,-2.04692923110905,-1.2057710463936917,0.3597712477570375,0.10189058721756776,0.19036145715258132,0.8515625
0.12682564915486738,-0.4046005898957327,-0.09122006880599806,0.8860567874056208,0.2688987002910248,0.1326757077688679,-0.9254733436216958,0.07585772465434015,2.7479571513148726,-2.052574874098873,-1.4406448466093222,0.3289533585793341,0.10530206427005481,0.241435687491261,0.859375
-0.06679271225350651,0.22296078552548984,0.23214205264483476,-1.0029036964618927,-0.11132821145661047,-0.04089927150351818,0.5436036225952311,0.02585830985595219,-0.15878765156869237,0.4085522676598741,0.06039846430302381,-0.09539212808460591,-0.016752100757207122,0.0012117445101588764,0.8671875
-0.12541084991607215,0.41214358870950685,0.32097892526713157,-1.5484422283267902,-0.22770713572921303,-0.09461066732655467,0.9847597276286704,0.007625805806798593,-1.0984078832767619,1.1843593857525347,0.5472692454528164,-0.2271570205672585,-0.055394708190892046,-0.07754375180978239,0.875
0.05916560044657479,-0.19994722676133317,-0.15229201793395677,0.7348410735487643,0.11162612687908016,0.04802597890668554,-0.47444508794913587,-0.002621397912149197,0.5609043052118647,-0.5860094193445736,-0.28001976279243346,0.11333465599608576,0.028992664133282928,0.039994360986292166,0.8828125
0.21927414184783764,-0.7447721172535305,-0.7326483576075773,3.212110391474258,0.38191467355544706,0.14805847156677732,-1.799851560817167,-0.07131428118554833,0.8512089142395057,-1.527384354427088,-0.37407652689818016,0.3421068716129612,0.06916386101819531,0.026954946093125695,0.890625
0.15843657572958397,-0.551493641837683,-0.6826681600810591,2.76964537495573,0.2548674671425016,0.08625750820871837,-1.3559691882809295,-0.10529737780625893,-0.41402569969378233,-0.5728306824136199,0.28843335073252546,0.18823623383584318,0.020745526860920856,-0.0836236825205277,0.8984375
0.0014338905620977643,-0.012635559532675367,-0.060332499267997435,0.1852711014728347,-0.002866011088172756,-0.004470116432154622,-0.036942472584817795,-0.01932042730102601,-0.3418506724468132,0.16506165736681216,0.18663220798301325,-0.015557664083689868,-0.008337259627636259,-0.03495111341424309,0.90625
-0.08179759801072373,0.27966940190396444,0.3550588170335081,-1.4344845783734446,-0.1271190407865922,-0.04061364203395234,0.6921294947195765,0.05638946736215042,0.27551115639347734,0.25713737749295906,-0.18206560764557275,-0.08996926468753914,-0.0071500439196759856,0.048794123908827446,0.9140625
-0.06882688056376413,0.2237353532213547,0.16733132362290426,-0.8228549028080258,-0.12487780541940717,-0.05208686971974747,0.5346022795322608,0.0013920534311474273,-0.650166441376334,0.6723441244202532,0.325551902836826,-0.12633010362107178,-0.031244577452020972,-0.04741368006133648,0.921875
-0.027300552713852618,0.07375988919487245,-0.09579544731961874,0.14739245920911057,-0.070995335514839,-0.04199373625663948,0.1512408600573302,-0.05612273475108244,-1.3373875189861064,0.822353139948811,0.7160716607235418,-0.1114582384201202,-0.042773638903625864,-0.12719551548564714,0.9296875
-0.07519478631162935,0.2486439657832498,0.21297688454614,-0.9898251788028876,-0.13325114721357315,-0.05332916804793728,0.5962576507630908,0.011758778881620878,-0.515971094835706,0.6329902986621176,0.25170813944098647,-0.12782660071025492,-0.028649054144875657,-0.03218606801202052,0.9375
-0.24472018160268327,0.8266710952572878,0.843594884646607,-3.6592741103472806,-0.4170998227112955,-0.15697952344619118,2.005597433176561,0.09010387361235617,-0.717021651245389,1.573648037985166,0.2923424091029786,-0.36398576981692066,-0.06808605113450435,-0.007526459923758986,0.9453125
-0.32898430894107344,1.1009514799086337,1.0062939182426063,-4.5444808069190215,-0.5790901283804392,-0.22930826022560283,2.652219609926445,0.07617983968372707,-1.8317541216281221,2.566436396531675,0.8627215342893847,-0.5398024047798589,-0.11688317356951777,-0.09698807419030873,0.953125
-0.15514998297184773,0.5257946312760944,0.5758287517473328,-2.4383803579344416,-0.25734353493178824,-0.09288458563869714,1.283337052233112,0.0719078327448053,-0.16397454660658403,0.8452632006904927,0.02711464801452074,-0.21308866922513992,-0.03442536488323621,0.02412340752877128,0.9609375
0.08313481355516548,-0.2529086454601285,0.09829566657084508,0.11870315911514727,0.19931258126913498,0.1096725384845278,-0.5528263719434925,0.10552365854890167,2.8791458927615623,-1.9053801776883748,-1.5287395495815292,0.2784603269865013,0.10039355178134483,0.2660539539773355,0.96875
0.16628904658640797,-0.5458747431071125,-0.321179759793328,1.7502535023740855,0.323180806702988,0.14533815418515916,-1.283339170992833,0.028464446889739987,2.2343052191823918,-1.9814393525554581,-1.145629360481504,0.35166601391767716,0.09840694567182656,0.17958024334702055,0.9765625
0.24289097594150863,-0.8368284844597211,-0.9584037865743543,3.9869650017722784,0.4020786376950583,0.14342437670265684,-2.0452657724815015,-0.130621938940139,-0.0521356437167013,-1.1760180653091301,0.12540806048370554,0.3213984803209599,0.04793959426204378,-0.06959134250380931,0.984375
0.40110401810046786,-1.3594963171475678,-1.340098447221321,5.874253433054097,0.6963090116277735,0.2689842651642807,-3.2873406032980554,-0.13098545600651867,1.532919245616513,-2.777401680675151,-0.6717838199898292,0.6226058989606348,0.12493588398924854,0.04742276549317705,0.9921875
0.32841834277034687,-1.0831211026573504,-0.7291822486860624,3.73392623650801,0.6224645004337128,0.27170463329430905,-2.5622388275842742,0.022216288797546616,3.746131133918487,-3.5639159634312985,-1.901732315157946,0.6539304004244166,0.17405785729308365,0.28818751603957504,1.0
-0.0518391098036657,0.17839965091133095,0.2533317195618719,-0.9916293723253151,-0.07549775336471144,-0.02106634265606009,0.4462120934385784,0.04597581020726068,0.37781541916259614,0.056430473469623654,-0.22525479632160128,-0.0445747584739964,0.0016533699361047246,0.051036938363749486,1.0078125
-0.24182937233289778,0.7701137683321682,0.2781406539811579,-1.9896007143265055,-0.4900323768087853,-0.23204582150921435,1.7843278288035997,-0.10598087663747528,-4.453598419247888,3.4942159767183907,2.3210632130825175,-0.5752444246113604,-0.17490431018404898,-0.38274163520931903,1.015625
-0.03513436624332742,0.07145033063212615,-0.4145388167976377,1.0430138751318498,-0.13320021977142193,-0.09493562550446773,0.09311359065825922,-0.17470963833872186,-3.6958781916964107,2.081012645415715,1.9922276397103835,-0.2574704312204752,-0.11196732921226794,-0.36128729765380396,1.0234375
0.04741342858494301,-0.177874304495331,-0.3320366642391833,1.2032449417522817,0.060021306174424596,0.009724371406060691,-0.4551003991641111,-0.07593430603968009,-0.9677427336036228,0.2613741567258201,0.5445836786817351,0.009293698105516843,-0.017175046520289245,-0.10981961455353022,1.03125
-0.24919425968012623,0.8240839140807756,0.6530254305433587,-3.1235015413333396,-0.4534229844846872,-0.18823611934779014,1.9689460851244527,0.019481140697461086,-2.117196438691668,2.3207512603758804,1.050470548779633,-0.4505385035406753,-0.10925892741882334,-0.14680374365781224,1.0390625
-0.37481710913477867,1.2494166480676345,1.0804374154142695,-4.985680771719545,-0.6695431822312091,-0.27074582320284063,2.9993748306393986,0.06344388017291751,-2.5357160381721133,3.1579605556562464,1.2279070719440446,-0.6413560820615006,-0.1462916926698556,-0.15560035184835705,1.046875
-0.011306764383810012,0.06829071749919773,0.43837228120755606,-1.3361719255851567,0.03946059739012014,0.05025472283877237,0.22888668739579562,0.1451201059684862,2.6897420976187703,-1.3402444247559913,-1.4631978257043154,0.14237154036304694,0.07617073170599117,0.27197513362304526,1.0546875
0.28514367013866926,-0.8990703737008036,-0.13142004552345884,1.7753187374747865,0.611401045643595,0.30569305952372383,-2.047102541899798,0.19557615357974484,6.641300389464139,-4.847942257289027,-3.490027437884996,0.7637198455681248,0.2486484748832964,0.5895750747172692,1.0625
0.08204665394963619,-0.25435632477770265,0.04716414908938867,0.2636295206091191,0.1900676416685259,0.10133496344180505,-0.5631255454329289,0.0866917775396724,2.507388934629042,-1.7055492037178297,-1.3275826029954947,0.25582080914030014,0.08941340944434162,0.22901165981578334,1.0703125
-0.18164927249216126,0.5788880531878571,0.2264898707793766,-1.5460902272534989,-0.3647822067823602,-0.17133278909187324,1.3452357401925945,-0.07325119952051323,-3.217830522028961,2.5582649727154596,1.674620233718479,-0.4245070902386768,-0.12753381640267325,-0.2748625565987482,1.078125
-0.04356447338451921,0.11869355351081358,-0.1626507842662948,0.2640048405603597,-0.1162290383249263,-0.06955848408986723,0.24129505304558202,-0.09333673884336322,-2.2162435158003166,1.3563191368695635,1.1859363622121841,-0.18388444719059105,-0.07121218526056239,-0.21080021575705157,1.0859375
0.19397815796074885,-0.6478998391952888,-0.5238930989654457,2.4772689824082748,0.3551581174313676,0.14831403514642766,-1.548682385906238,-0.01950209548900985,1.5898919833210228,-1.7874856581054386,-0.7853385199346836,0.35065515190381963,0.08546143886732536,0.1079199935050867,1.09375
0.09561484086547375,-0.3187109722153496,-0.2345238130574179,1.151761316551516,0.17963223269841425,0.07749890915224522,-0.7581034263804614,-0.0009466310768435395,0.9565187805232492,-0.9736935458717035,-0.48058356500240207,0.18386517144816347,0.047712317292917736,0.07040572423483211,1.1015625
-0.16771680572105743,0.5501928443287792,0.39480652599565796,-1.9712621291008119,-0.31072115113157406,-0.13219869252995675,1.307033191557479,-0.0023309093535425237,-1.717995357464172,1.7120754470881179,0.8665122554339872,-0.31928418244717416,-0.08151986623876292,-0.12815820419251397,1.109375
-0.21585924611147547,0.7237634645442669,0.6911843852351467,-3.0721182283412194,-0.3746690105711872,-0.1452721544223823,1.748612431777461,0.061212212226466674,-0.9805641165318039,1.5693374780728038,0.4469821637016289,-0.3403249895813526,-0.0699270353193826,-0.041678655354600413,1.1171875
-0.05744973417821759,0.2048897709646675,0.36406568023581154,-1.3432315025804455,-0.07223015987195018,-0.011884898880733755,0.524304309072255,0.08021372102261204,0.9777341094682817,-0.22633233709661768,-0.553667757743836,-0.017297747488468875,0.017824930294704486,0.11274752927849847,1.125
0.09734734973789452,-0.3380468177906215,-0.3893099061716886,1.614837058095998,0.1620977975353562,0.058213307625614316,-0.8255226516742618,-0.05368598909094361,-0.038571612321352866,-0.4656234625779638,0.05884887003014527,0.12925522065323594,0.019417729479532107,-0.02979556705961039,1.1328125
0.18324470439561671,-0.6495367276372256,-0.9299791266870167,3.614980508025196,0.27480549764932094,0.08009249967374492,-1.6177916778929833,-0.1710960490212715,-1.430392434191597,-0.16983516653893474,0.8488038809533427,0.16295381112627083,-0.003466311677942447,-0.1919356962527195,1.140625
0.18549391435392953,-0.6331690856201713,-0.6483724976928713,2.802161776763412,0.3194164812080151,0.12167895324833211,-1.5333600587230516,-0.07027333780006902,0.5305628709188365,-1.194654126493274,-0.21358727212966389,0.2792103160727456,0.053301843489775395,0.0036948648567096164,1.1484375
0.09198987413665748,-0.28567204144516595,0.042301884747325505,0.3261419878425391,0.21111334166291473,0.11193699303088635,-0.6340096063444782,0.09333758196392242,2.735058790976632,-1.872038376106169,-1.4466922445296984,0.28232646028756986,0.09796935846470943,0.2490809625499096,1.15625
0.04785106764221269,-0.1557278090655163,-0.04309266458350449,0.3603550816557972,0.1020519617400825,0.05019184592711379,-0.35526514751781624,0.02598301831161321,0.9977575587125488,-0.7544681407607035,-0.5213256105362014,0.12326168539785086,0.03921111512285978,0.08677922677895908,1.1640625
0.16448242203159527,-0.5928559073701167,-0.9522654608934781,3.5869423906649485,0.23040055799068318,0.05556267686225998,-1.4935420875376242,-0.19493076906365142,-2.0736111025842123,0.2577297244024285,1.1922002853720541,0.1003784449630774,-0.025844776312299252,-0.25158229644461594,1.171875
0.2076261002133435,-0.7425271856010545,-1.1473504024456742,4.36710750278709,0.2975610394272488,0.07714187883177555,-1.8646313079883141,-0.22706634614746116,-2.2574313268866373,0.13798966513422087,1.3094540918128499,0.14678052818664017,-0.022511117130148212,-0.281431895337193,1.1796875
-0.07090780078961782,0.2294118086266619,0.14704458083580133,-0.7753622606182912,-0.1328407018839528,-0.05747023061326421,0.542693156696891,-0.007707417196514563,-0.8449906618782104,0.7817117277152408,0.4318476865507171,-0.14103111096433532,-0.037272908185460335,-0.06646604843292178,1.1875
-0.4133230421466164,1.4105275182506374,1.5766422269912512,-6.623852305106723,-0.684419946495392,-0.24533765958313553,3.4445243421800784,0.20526195586820703,-0.19829140773002737,2.137951438321206,-0.05614205365887669,-0.5575497091342018,-0.08672539448908578,0.08882811239880886,1.1953125
-0.40616404980726273,1.401485730045095,1.7345679106203988,-7.050463868054652,-0.6463061100225348,-0.21531287145497183,3.4497530401851018,0.2669027376013167,1.0565848019345605,1.452755622445147,-0.7349926705850497,-0.4754997865048474,-0.0491844291943802,0.21282984999930615,1.203125
-0.1795198288763451,0.647452765077518,1.1202251178838236,-4.149834560713141,-0.23452647038345897,-0.04492608319918701,1.6461634415273383,0.24260159430675796,2.8681552331168763,-0.6047466303885272,-1.628187361853799,-0.07047168589937103,0.04795339286796897,0.3344975403079672,1.2109375
-0.1419552367399693,0.503937823421675,0.7972508671679256,-3.022429994824235,-0.1975364599487726,-0.04740848153905617,1.2692398817739814,0.1608050777646607,1.6745030847912887,-0.1722745035297376,-0.9653374139500952,-0.0895529853240659,0.02107714531445233,0.20487670626400345,1.21875
-0.21589350572454905,0.7118730410306685,0.5460028641593078,-2.6476414764755702,-0.39533954881614447,-0.16559253418984524,1.6978121437840394,0.010063923295707324,-1.964293684731409,2.0776528373324186,0.980268779765554,-0.39739212067793095,-0.09824061134096118,-0.14019247707069946,1.2265625
-0.023396478322418906,0.0436894845004957,-0.3019164938810542,0.7700043153343659,-0.09114664870829958,-0.06590347848857593,0.05064115021905166,-0.1250477545979565,-2.623459153407439,1.469909543352044,1.4147064316932192,-0.179983290540319,-0.0789073788280418,-0.25694699783846037,1.234375
0.33678128916002525,-1.157465956620765,-1.3078847707005086,5.466499492356251,0.5593111014961129,0.20096693164336388,-2.825614534736007,-0.17403215900741395,0.05779706402123324,-1.6958318070338245,0.10275202017792413,0.4523574152109363,0.06979064636685457,-0.08331932334456474,1.2421875
0.4146948974691388,-1.414939958103157,-1.4973329195669804,6.400465180358171,0.7039491215786065,0.2625621861760698,-3.437691132565331,-0.17478868620930507,0.827266860454349,-2.479069078384598,-0.2838679303287247,0.6000654395002978,0.1073925425336234,-0.026865770909549013,1.25
0.19944403518402495,-0.6956911683654387,-0.8783009147620513,3.5425761482318645,0.31785764931484306,0.10548267857101107,-1.712467790042958,-0.13926502989795683,-0.6536300896045381,-0.6497318144196462,0.4346602635336685,0.2293087699356702,0.021991064661101508,-0.11860185652301042,1.2578125
0.10203456696184209,-0.35312917317828213,-0.396064680611712,1.658345644664503,0.17154174921487883,0.062357837853196416,-0.86023174965406,-0.052187630718169016,0.04071843584549962,-0.5281387388835608,0.01974758664498625,0.1402549653221847,0.022551430457270545,-0.023468127763050878,1.265625
0.21898831220207124,-0.7279616985237758,-0.5459419953172528,2.665520880544129,0.4073887260468107,0.1734963877895485,-1.7314644260052787,-0.006044283802247159,2.1030086274219477,-2.1740358998182794,-1.0527649681194717,0.41406487793831676,0.10510167719722203,0.15231104254545558,1.2734375
0.21874872583070992,-0.7362443586732842,-0.6567648864529286,2.9871371196539287,0.3910985745047057,0.15794035637979498,-1.7689000239096815,-0.04522105108449881,1.3468629119790958,-1.7829225660393553,-0.6429352601322653,0.3697516574730478,0.08336076299425489,0.07676859437335833,1.28125
-0.057783954513723555,0.1884891727505948,0.14799744397944048,-0.7137101821854669,-0.10364684349555697,-0.04238723318816894,0.4509092246634546,0.003809223065308732,-0.4928829851134749,0.5345866411160777,0.2449359327092094,-0.10315911822919058,-0.024504521833069847,-0.03448006805666349,1.2890625
-0.35265874126962177,1.2096177182806107,1.4254953680745992,-5.885905548897073,-0.5722525566388715,-0.1979551632667523,2.9666457217892335,0.20341628465689668,0.3760498733140143,1.5419055148920582,-0.3441684388122893,-0.4439202766427953,-0.058199486129014974,0.13037605906377706,1.296875
-0.37086621322382496,1.2826936793866541,1.6222863967745809,-6.550704749932882,-0.5847433598642148,-0.19125482398819374,3.1639995787983253,0.2571302962638158,1.2245385715734896,1.1929932121119653,-0.8117601966911545,-0.41920366240846174,-0.037443873019731067,0.22020251344270775,1.3046875
-0.13204816319653803,0.4301244718233812,0.2816418432160754,-1.4673247198190624,-0.24823345097300226,-0.10770886046159577,1.0180033396349382,-0.012019667887334287,-1.5445939874970196,1.4461616739869632,0.7861803133238577,-0.2624924014041476,-0.06951724471173369,-0.12013244076203594,1.3125
0.08030620773672945,-0.33267994763256414,-0.9627299259157156,3.2069521291339522,0.04389286186945434,-0.04066685971471035,-0.9092187023900886,-0.26962640719846837,-4.3579321704541485,1.8531502773947863,2.397253468845764,-0.1431155607696722,-0.10812524599924526,-0.4579430000096348,1.3203125
0.046127365950733544,-0.1968833124978774,-0.603619270486544,1.991270510088562,0.019367360463007473,-0.029447510711987958,-0.5431459713539181,-0.17229904688706357,-2.8319436308285315,1.2324437377201003,1.5552453972197064,-0.10010129157055495,-0.07106200686486817,-0.29611734945134677,1.328125
-0.11827029105482183,0.41060123913588226,0.5629538567226733,-2.221477731792808,-0.17822021156330756,-0.05314770942222972,1.02076555653155,0.09853527249025537,0.7179592756139387,0.2074130527234595,-0.4364247451792552,-0.11319906327955978,-0.001733142943100068,0.10273864797594989,1.3359375
-0.1217651800525051,0.4426507842143002,0.8158906650118458,-2.978833699644439,-0.15043501625818625,-0.02194910657592656,1.1351454947381934,0.1844136444196413,2.3333102757438344,-0.6107234874611559,-1.313801770298491,-0.024597690153064487,0.04399214328483426,0.26536396769063825,1.34375
0.051660263505945665,-0.1569667046208479,0.08116136350642648,0.015372661972072738,0.12777871407934877,0.07190204763640524,-0.3388106568870891,0.07296452257364792,1.9370341304768564,-1.2609480718441974,-1.0293501361289243,0.18282712629748363,0.06708734985598794,0.17985121034681648,1.3515625
0.12096003263709867,-0.409412425051048,-0.3641865712783299,1.6564940018109362,0.21769768596665143,0.08834896661454004,-0.9817044195333565,-0.024851960713986616,0.7550155644337444,-0.9909058383353708,-0.36031745341769383,0.20682280400319963,0.046901472284150175,0.04312358117969707,1.359375
-0.004628549901650082,0.010574682886644775,-0.0015516070276089203,-0.015696671007997043,-0.007602998948318024,-0.003102940691807121,0.025786438360500607,-0.0036832584032861515,-0.10137682518993522,0.07184613255523077,0.054312684062361685,-0.009256594909097826,-0.0026866283583624087,-0.009549254102400798,1.3671875
-0.07002453998356643,0.24944064251811013,0.42716012412743676,-1.5884076329163503,-0.09129739813768027,-0.0175059448303873,0.6357292743886871,0.09155023369034536,1.0703411680964363,-0.2120992185481988,-0.6080106690345488,-0.028699000155066906,0.017955117793434932,0.12513799361139363,1.375
0.07411786313342084,-0.2210999188965092,0.1469918710265567,-0.06713338499637575,0.18628042072883416,0.10621355498575123,-0.47192919893942986,0.1149528372120806,2.9690555630671134,-1.9062309383152225,-1.5817878399934444,0.2717871849349005,0.10114918559972212,0.27746834571416473,1.3828125
0.20827509314397413,-0.7019876002129576,-0.6296456576204258,2.8570189087369693,0.3720921611641664,0.14985270395366695,-1.686023775811323,-0.0444790227553904,1.254576086285663,-1.6819478905284362,-0.5983799672443477,0.3505457005754483,0.07856298109619435,0.07049884807464454,1.390625
0.10040326389738519,-0.38691459209701223,-0.8682781859278508,3.028706159403486,0.10121353556141377,-0.00492827230359319,-1.0162142003108543,-0.21951759632225265,-3.1937722552962433,1.1509507239067238,1.7729483579017986,-0.04939104310820857,-0.07065812793541904,-0.34655357172376383,1.3984375
-0.11604262948789686,0.3477916411335382,-0.11188299310912883,-0.23736764973275934,-0.26843676039953557,-0.14419667568147113,0.7660013050138191,-0.13672893906773248,-3.7806407099823454,2.522458015122154,2.005527081381904,-0.37018698592125426,-0.13049492534741328,-0.3482075806292284,1.40625
-0.11164083042605527,0.38009192560458804,0.44064988707673197,-1.8309933677228944,-0.18100289052704582,-0.06261622659487501,0.9312020653105928,0.061132538521746965,0.06487107648665007,0.5117183515495728,-0.07953477947466753,-0.1422009473607773,-0.019106161416532385,0.035840551337640594,1.4140625
0.1556213772012933,-0.521999970769834,-0.4349774886841712,2.0313794982733824,0.28355438934372884,0.11739015868077408,-1.2486054577044656,-0.020641686552325754,1.1828930657272163,-1.3853550124431473,-0.5794384069640937,0.276666260846632,0.06610679893136967,0.07723389590225328,1.421875
0.3133303427183057,-1.1009873765556286,-1.5127679295886722,5.950796664529854,0.47877685679387,0.14579525997474138,-2.733938548347538,-0.26605151448710873,-1.9439742620273264,-0.5460585756435856,1.1809361987476363,0.3051631361521618,0.0075484467549957355,-0.2777989945048227,1.4296875
0.08064188707484524,-0.3102666743474835,-0.6830006473586137,2.3907996217109844,0.08401151963645087,-0.0015414677843908868,-0.8122715857048252,-0.1711331362210893,-2.4596552495710657,0.8697872088109387,1.3683573387287937,-0.032978183340141395,-0.05356540725744491,-0.2682720811796889,1.4375
-0.26461227438209295,0.9192469912429647,1.2248226400255258,-4.869920058772527,-0.40660595524014004,-0.12630141010986096,2.2791981095669263,0.2074579404229197,1.3411635329121847,0.6088841840544681,-0.8320725027405049,-0.27108418171084336,-0.012998633154440876,0.20347636816062398,1.4453125
-0.2774390633224295,0.9821220017981431,1.503488921677051,-5.747572319911613,-0.39562253826680993,-0.10209018494335435,2.467814411495571,0.29455209518318337,2.884594291603503,-0.12577120294577127,-1.675173411233538,-0.19896624767879,0.02881278474288543,0.36155079209120883,1.453125
-0.05507150125769339,0.18776621236383995,0.2455548387321528,-0.9857806550137549,-0.08376609039591885,-0.025754026560948634,0.46615885415684244,0.040502810472390106,0.23941061244918901,0.14406128618708322,-0.15157086491371255,-0.05693814561008567,-0.0029527006786499465,0.038052369857375416,1.4609375
-0.019476156227253898,0.05314188384109624,-0.04740826778290321,0.044864061084953506,-0.04682052881477758,-0.02625358368817123,0.1131128360251886,-0.03235630428895352,-0.8032237643748624,0.506683638892756,0.42803380292843235,-0.0699354562854001,-0.025798763164652058,-0.07568907414200854,1.46875
-0.13763354765949734,0.48638608362066327,0.753096726045614,-2.8714836483430695,-0.19412316427111784,-0.04850938127716707,1.2238079571930482,0.14900005050959012,1.4920771015538834,-0.09733989699222384,-0.8644531893874791,-0.09406254359141368,0.016683150900158948,0.18543668367331287,1.4765625
-0.05531294474185316,0.21321798415442897,0.5391982969286772,-1.8453153864980973,-0.04328412528346028,0.014665820542887946,0.5725773945568715,0.14337462847701277,2.212082001512366,-0.8754744179333317,-1.2217224327049492,0.05664480969193663,0.053748108657460075,0.23585238528939728,1.484375
0.1380624107783223,-0.475595909963443,-0.5284537704195033,2.2190004588812644,0.23183245734590655,0.08468352689255988,-1.1589523750757158,-0.06827623652757081,0.09139184624174924,-0.7327298925112932,0.006511127017251625,0.19070312294161157,0.031258552315672546,-0.027619992422774086,1.4921875
0.07520963206761737,-0.2713506697306345,-0.41580826777115254,1.5841874873967632,0.10970474396053628,0.029378140127068984,-0.6799879567956626,-0.08174347679341261,-0.7987292503875847,0.03795933722816833,0.46438345725733,0.05612755789063126,-0.00684606541674983,-0.10029191382370996,1.5
-0.10962171271453934,0.375190080716949,0.46315044236170705,-1.8861407295722716,-0.17305622361377898,-0.057232044636318695,0.9247766257556832,0.07082664780206552,0.2738047551859999,0.3954736348480516,-0.19148598160062014,-0.12709139549521212,-0.012820071834004878,0.05585661671348966,1.5078125
0.0027521875162156493,-0.010105316458324808,0.020446366879555318,-0.04433345556820754,0.011501082851147522,0.00812792036048511,-0.017406526921677046,0.010120117598880667,0.23719246433753993,-0.14097034275358836,-0.1272256200669811,0.019475447873292785,0.008478594515672335,0.022673433243215666,1.515625
0.2764088747248845,-0.9614510240925986,-1.2115805739657628,4.891168939525346,0.4397907955899418,0.14599889702552277,-2.3683746516556075,-0.1915010642127102,-0.8847840306259419,-0.9127742216612198,0.590004709688207,0.3172894463517292,0.03070624371502657,-0.16172214433509433,1.5234375
0.21511334465976747,-0.7551609656217667,-1.0175671085638656,4.024539210626607,0.332475963877041,0.10382366662922285,-1.8716107339312436,-0.17502560132270154,-1.1844701383129135,-0.45560606791902053,0.7281476997161808,0.21872005574440107,0.00991968215726552,-0.17561685145354763,1.53125
-0.14334764588245472,0.4637638339155425,0.26763230535026766,-1.4808831977313026,-0.2747999591989392,-0.12231069902639058,1.091155626330312,-0.026357788347006045,-1.9322976614976188,1.7022689557654553,0.9921762350998201,-0.2995962728351677,-0.08291009794888399,-0.15621801428191354,1.5390625
-0.2803951408779396,0.9096806294929757,0.5174360128908089,-2.879300164919669,-0.5410974913138384,-0.2423408792814476,2.1389131909485153,-0.05447297511174404,-3.8502485997170033,3.3728118151636592,1.9792639561103258,-0.5919528513711559,-0.1653302495254463,-0.312286449927698,1.546875
-0.045687933329734906,0.11380699077101997,-0.2963542591217819,0.6445100950933567,-0.13952685232478898,-0.090450665487289,0.20894645935035935,-0.14207083883980806,-3.1733553692473198,1.8638835378575445,1.7049949960273838,-0.24169319116855165,-0.09918673895990128,-0.3062133442787161,1.5546875
0.18056627397858432,-0.6027994982814758,-0.47259369164436915,2.262941455279361,0.33331496135266464,0.14040952718774402,-1.43659089454738,-0.012716733816292056,1.5863963560799847,-1.7171087372303637,-0.7888051516625738,0.33306318145276453,0.08263566114223944,0.11104767204281252,1.5625
0.14222416239217536,-0.4283231693992141,0.193998336921978,0.12707444091598277,0.34276931037046343,0.18962967910120432,-0.9323134208439051,0.18909936210098022,5.077753187930495,-3.3352129087743903,-2.698934061787065,0.48379389654527577,0.17536578019238142,0.47082775323244047,1.5703125
0.02108141484537109,-0.030951456938359184,0.4509772813351405,-1.2149125701555419,0.11230720880427243,0.08856665602091977,0.006551791774832504,0.17692158805435848,3.625298774319271,-1.9857319912168876,-1.9587346163337376,0.23928120380687376,0.10954221504810584,0.35721414453152733,1.578125
0.02467322386296057,-0.07303629711789258,0.07836746056622486,-0.10821879951803674,0.06772310440563313,0.04095461059120382,-0.15055283518772672,0.04902210147602446,1.2039319961716783,-0.7503392605937744,-0.6434269509905539,0.10423061217142067,0.040683468964539775,0.11379183457056248,1.5859375
0.03922804191984102,-0.12045186700400731,0.053774586603766876,0.03458782854273245,0.09653454157268267,0.05403495580950694,-0.2616583277485057,0.0528086385820351,1.4230196032580473,-0.9346847125608496,-0.7566118423522452,0.13640776630166276,0.04987063926049602,0.13191680947017886,1.59375
-0.09854258638805571,0.35257844772364394,0.6064831605984989,-2.252291679818506,-0.12842530362044166,-0.02472540472427459,0.897649089776838,0.13067305680542532,1.5338999038259171,-0.31028983433707374,-0.8710201519762286,-0.039396923704199845,0.025630363033127677,0.1791697929404523,1.6015625
-0.22752529168867877,0.7664170128127196,0.77424386793445,-3.3705567671917644,-0.3884705682657738,-0.14700663931040206,1.8598457844260265,0.08057311120276266,-0.7249081556882344,1.4963193128087826,0.3041213323486852,-0.34058443600766086,-0.06496012216355938,-0.013251913041863057,1.609375
-0.10231360352460578,0.31496943336315,0.01749230212202238,-0.5476323883016059,-0.21967108167331098,-0.11068073138788215,0.7162679843045587,-0.07956417963286853,-2.541370116030091,1.8175104066230863,1.339622560675816,-0.27970686639176445,-0.09226527096019524,-0.2281708900687874,1.6171875
0.1231808361292402,-0.452665981071753,-0.8036152096911228,2.951268809329407,0.1606125997243359,0.02983697497153486,-1.152153671958414,-0.17752258934329138,-2.1553184847853544,0.5032951344435579,1.2194668023036992,0.041121301868980456,-0.036322525673078865,-0.24882369557575257,1.625
0.09863875644184585,-0.36293174798952876,-0.6454880044397507,2.368676269252423,0.12869905344869004,0.023956800560228433,-0.9245342598635091,-0.14276577928579898,-1.7349923862463101,0.40627076471108503,0.9816446004405608,0.03265501549843348,-0.02911925347501882,-0.2002200966031755,1.6328125
-0.11755303147372864,0.3763514397923332,0.17508286655984417,-1.0838596163903862,-0.23147014088989742,-0.1062323778603331,0.8786577884883461,-0.03723385275594234,-1.8826896146754142,1.549437598408049,0.9758028335094211,-0.262507277640702,-0.07633970534621136,-0.1580072116531773,1.640625
-0.17188530795729723,0.5767397232859233,0.5582025906446371,-2.468292370537938,-0.2969972104615463,-0.11429141757014072,1.3943200426084257,0.05149399701489295,-0.7251079935626388,1.217942562244238,0.32541132310146426,-0.26771335246867217,-0.053851285820273515,-0.027619824449767297,1.6484375
-0.03668575226492081,0.13412638905908028,0.28129883344702744,-1.0000143880909522,-0.03847657379617945,-5.5804336389245814e-05,0.3501464850315123,0.06854121068908098,0.9620051356556211,-0.322385113195058,-0.5367669991739018,0.008919460681561877,0.02151683283275607,0.10582602017758246,1.65625
0.04081355601192821,-0.13380614117968187,-0.04969653606117387,0.34468541585656054,0.08538369044675219,0.04137562824318446,-0.30906360647862563,0.017712730918808484,0.7654933128046975,-0.6022427878398791,-0.3986963192703712,0.10027944450385645,0.031233418325136354,0.0656347736238522,1.6640625
0.0574509190457559,-0.203649158024948,-0.268581051536742,1.0655219052393112,0.09113734364430616,0.02966382221777736,-0.5026072233242096,-0.04519754959117185,-0.27473057096575987,-0.14591550996627398,0.17310765701618713,0.06216958537273131,0.004605876788077244,-0.043093167535488044,1.671875
0.14889104988160728,-0.5124491337788754,-0.5679580503833748,2.3869693009112383,0.2502169289351372,0.09137468797642687,-1.2485357057534894,-0.07306458570501737,0.10995151425215849,-0.797650512588642,0.0002691151441728105,0.20553313141569904,0.033864416253166024,-0.028674682172733945,1.6796875
0.1910420485374348,-0.6483104131608453,-0.628821054207766,2.7707433700428097,0.33442049556541403,0.13059484504710536,-1.5654418811874191,-0.058769763145883176,0.8076206580685784,-1.3676588780583554,-0.3624588071951173,0.3017816511606721,0.06235266998581578,0.030205409680387638,1.6875
0.04281467735022896,-0.14494850106590285,-0.10844772800506548,0.5270852142155095,0.0815695692920144,0.03548872377437968,-0.3441283321634971,-0.0012528212846248516,0.4209760809292345,-0.43527155100933396,-0.21161783199060222,0.08312594194084971,0.021786109288354557,0.030581764501528295,1.6953125
-0.11290106993314197,0.3927093442889781,0.5490571050143782,-2.153521194322813,-0.1683467131653093,-0.04904510747241204,0.9783907634748852,0.09815332009766682,0.7649957470421892,0.1564447620055485,-0.4598632788911108,-0.10326417384364402,0.0006820885980307889,0.1060050938861931,1.703125
-0.09975203711414152,0.3683135032150538,0.7525199640039206,-2.6835775291314192,-0.11060662028768652,-0.0058783310516147885,0.9583452383348948,0.18089268920851406,2.4871270645116534,-0.7987887012288052,-1.3894038303041645,0.013828191315039071,0.05277540141596458,0.27500863342199433,1.7109375
-0.025626016970783285,0.11403269904449737,0.46194690767597707,-1.4733937372636243,0.011528652192719705,0.037570219724778885,0.3366064829383388,0.14156040554443988,2.4759029487191966,-1.1577342139562024,-1.3539694809866127,0.11168256877063165,0.06722454882769278,0.2544376420600282,1.71875
0.05153362917220232,-0.18461557584550847,-0.25566796473122033,0.9989105837360642,0.07996672221673627,0.02509087461202002,-0.4572636635689418,-0.04540747624953589,-0.34117901016906865,-0.07977214066186857,0.2063829304593726,0.05137923067488326,0.0016431453327333749,-0.04802196507886498,1.7265625
0.22349831964158803,-0.7987590077325747,-1.228164103222032,4.6791614990819514,0.32114542413446995,0.08419916175510773,-2.0046553875828974,-0.24182862156011053,-2.3845753852509475,0.12832747355427732,1.38473629148078,0.16119626674073054,-0.0228948023396011,-0.2981325033915335,1.734375
0.3372024108793952,-1.1796203595763486,-1.5650055304538495,6.218497904177949,0.5238838249106181,0.16573990290744364,-2.9196123416045467,-0.264097310149409,-1.667384933368532,-0.8057795430500222,1.040696931704344,0.3530780019445102,0.02028736530723188,-0.25640638924200904,1.7421875
0.1018860228979419,-0.3610295444638795,-0.50209279651489,1.9648710049848246,0.15599651429796077,0.04754896668596703,-0.8968534565555785,-0.0895977166857753,-0.6812563122924509,-0.15541706256163412,0.41132871666054666,0.09788890375234788,0.0018064102127509512,-0.09563003181178908,1.75
-0.3330104090685838,1.1265354132770926,1.1581885081211718,-5.008002900059001,-0.5667869488427626,-0.2129618359495719,2.734226612929458,0.12606289764102335,-0.9120529524116399,2.1113232317475306,0.3634784341647337,-0.49195695288863023,-0.09131090694361628,-0.0040794687318303395,1.7578125
-0.5144837307919928,1.7531720296836366,1.9258178878479395,-8.13578691047291,-0.8576936525192965,-0.3111833321421307,4.276086665164395,0.24238684012663192,-0.5016437652872981,2.795142001543745,0.06852984954238264,-0.7087614193495516,-0.11560215411593552,0.08486375337010782,1.765625
-0.3754117490529901,1.2945272145896547,1.6028495838560604,-6.51330055509548,-0.5971332223560187,-0.19896769231502648,3.1886400808036983,0.24652229591345168,0.9772828006345066,1.3424304424533826,-0.6794692761053207,-0.43916938574811026,-0.04545621813561994,0.1963732159538149,1.7734375
-0.2140577500740094,0.742163769220291,0.977946200242566,-3.900735422332781,-0.33032617710539436,-0.10366578841676832,1.8382884865215263,0.16331437737924728,1.0011686755368625,0.53250988044816,-0.6290227083002343,-0.2243054790155138,-0.012708585346894945,0.1563522170327364,1.78125
-0.10588361169470441,0.34637127071331986,0.251626278361072,-1.251056411522725,-0.19477879650330646,-0.08248007704309392,0.824237412391213,-0.0005045524047488796,-1.058677743506177,1.064650304533187,0.531981751045112,-0.2000319237685979,-0.050416197632396915,-0.07841158955835288,1.7890625
0.10748800540474818,-0.39766432860061024,-0.7301236085052961,2.65946157522526,0.13641545956710865,0.022157052674443914,-1.0164413491898394,-0.1650164423539196,-2.0731960846306863,0.5372146964733152,1.1680642119603175,0.024598352130917777,-0.03712876427415261,-0.23633968116069956,1.796875
0.3715172430161756,-1.276880342694818,-1.4478666539898575,6.04583843028411,0.6161435909270276,0.2206450476563575,-3.1182888943881375,-0.19389385467276976,0.027074665529703036,-1.852962745376695,0.13356211756844352,0.4963909364093302,0.07579176222338989,-0.09562441443227872,1.8046875
0.4556078888453219,-1.533960603325597,-1.4068517428444083,6.335906429488596,0.8066287335565197,0.32119411517659235,-3.6922749337053364,-0.10840806740054532,2.5137325867973264,-3.5554429972263457,-1.1825155130379297,0.7515771915501641,0.1640337718153775,0.1313578732568763,1.8125
0.3444188876190573,-1.16496403062223,-1.1244403211841527,4.967041936772415,0.6016003415564631,0.2348155161201624,-2.8140638624094834,-0.10327025333370127,1.4932564197397804,-2.478298782904103,-0.6727340327544322,0.5450590437199332,0.11259825888426693,0.058525667368967714,1.8203125
0.21165152687229405,-0.7513791773376054,-1.1031612584879993,4.256449048754855,0.3126285219347559,0.08799968148898756,-1.8773232267978444,-0.2080548680355559,-1.8548090978377765,-0.08946269775778938,1.0917520076034464,0.17562689480058358,-0.01005415059111262,-0.24189532768433492,1.828125
0.08693372826456176,-0.3305963029755023,-0.6926301702970622,2.4484067778603418,0.09623511066154211,0.0043373223711967775,-0.8594275171101564,-0.1691709065242824,-2.3619592460251435,0.789033962299004,1.31731898192415,-0.018848030322412244,-0.04942833520570862,-0.2598869587965911,1.8359375
-0.11818813605802793,0.41331337873592616,0.5989286350003485,-2.3262001221552726,-0.17306209108940226,-0.047925512054300935,1.0327609674236626,0.11132411808225291,0.9632329421977495,0.08091827366627147,-0.5691328564568043,-0.09853111408328406,0.005383132589015931,0.1273123869950485,1.84375
-0.30320772431691223,1.0727996813990113,1.6247127087703686,-6.226158121059492,-0.43552974326207233,-0.11443182252266142,2.6903880217092295,0.31539029697263293,3.0228880915634235,-0.07106033607124891,-1.7605261486813413,-0.22476462541793057,0.02779772057992429,0.3824674440031028,1.8515625
-0.26326669923323504,0.9167144973210486,1.240221630732181,-4.907718442314528,-0.4017320154559687,-0.12268313152125294,2.275129049547064,0.2140227693137898,1.478243546601858,0.5314371147228578,-0.9062618725536501,-0.2611543469807321,-0.008679616229515626,0.217180205304921,1.859375
-0.09839752617805754,0.3397807401143438,0.4558540296255636,-1.8115601621818824,-0.1495611213795807,-0.04542773096517948,0.8443336780431231,0.07770010702618786,0.5182527283382385,0.21352675874196128,-0.31999083573046727,-0.09831838669139574,-0.0035109524652736784,0.07747998278785229,1.8671875
-0.106907613993858,0.3844488560311344,0.6749196927946663,-2.493338141554356,-0.13740453652102405,-0.024690255428309545,0.9813959424425323,0.14744426038624464,1.7728998264341014,-0.3947047222638145,-1.0047099685804253,-0.037303601204829145,0.03083305482307149,0.20533460867742467,1.875
-0.21061289596127478,0.7248662678956765,0.8999923517023882,-3.656411514767269,-0.3335868137777915,-0.11059122898285982,1.7860954665095023,0.13891757230687163,0.5671972219832746,0.7414293834751717,-0.3913946289096787,-0.24436010928376087,-0.024501732492076538,0.1117762912831547,1.8828125
-0.04967855752190532,0.12104249574296064,-0.353318865227219,0.7920211591528376,-0.15594698611581256,-0.10291298432218618,0.21605463475229525,-0.16539393542117223,-3.6589465327469965,2.1347633476216994,1.9669066453112787,-0.275045158545307,-0.11403756117257048,-0.3541215996258512,1.890625
0.2539275244506277,-0.9259966922394678,-1.6149825314659016,5.960277769280293,0.33400392164197723,0.06470114844920032,-2.354436584295535,-0.3521151868234319,-4.192722593403568,0.9122281698610253,2.3775911321150662,0.09654743829148439,-0.06900614035561518,-0.48759685120533586,1.8984375
0.1811840445193598,-0.6219392836217252,-0.675036169284347,2.858274580279589,0.30614549134842295,0.11309227918934572,-1.5122410999899019,-0.08335660127131729,0.23693723203165887,-1.0215231048520643,-0.055737636731556676,0.25599619927236683,0.04393670715683919,-0.024489667641833017,1.90625
-0.18787263144278898,0.6653013221980432,1.0306484520258357,-3.926798906259234,-0.2654316722882599,-0.06676098070901722,1.673683417658954,0.20402722431019985,2.0446313982427533,-0.13535145368641666,-1.1836899909412713,-0.12868078520700565,0.02258686706636348,0.2540222453173716,1.9140625
-0.1943811937822597,0.6484799029606414,0.5825498246189631,-2.6489758811189534,-0.34288198188321195,-0.1364057023718493,1.5604077143570874,0.041022213430606455,-1.1522736107757974,1.5510440233617828,0.5489974343830949,-0.3219782863241749,-0.07060711400515714,-0.0645503279648397,1.921875
0.20109561334907025,-0.7259944782972867,-1.190696574648014,4.462095053706675,0.27713414767669453,0.06382393309538906,-1.8342256555728773,-0.2478293607130431,-2.723460706846959,0.4113361069300418,1.5588179357834568,0.1113098243515175,-0.03717417024607,-0.3262677654150368,1.9296875
0.30428712415225284,-1.052506591677329,-1.2656032342613346,5.183831239526432,0.49357444048456245,0.17003859037094152,-2.582890579934379,-0.18685011958023728,-0.5146531201459649,-1.2417818990253708,0.40045212968707866,0.37560152201157493,0.04685906439708285,-0.1321281678343214,1.9375
-0.03704484196286014,0.12954379366166585,0.21205758754992085,-0.8001711762085697,-0.04900289615884903,-0.010008776341229455,0.32773824908563076,0.043988166790187674,0.4856463245975248,-0.07479401978911439,-0.2784443880500534,-0.019009993324453602,0.007822416755189514,0.058250791853001624,1.9453125
-0.17866138110090274,0.612049628188511,0.7248179115050281,-2.990065216972896,-0.2884656174636622,-0.0987956661840983,1.4999451090414404,0.104452504362748,0.2216840162583495,0.7610730703982835,-0.191381460348207,-0.22205008156532152,-0.027894303562350963,0.06930436758926785,1.953125
0.10663372684920314,-0.3306494647278705,0.030319992928621656,0.4311540328667252,0.2409471476696821,0.12662445863939784,-0.7412866561725964,0.10146278606624422,3.0334022845954953,-2.101620594090475,-1.6041245929390173,0.31838972880031075,0.1096034012053167,0.2757982888189577,1.9609375
0.28525854987091587,-0.9095681398033642,-0.2604575416795363,2.1532609495707296,0.5930428553928748,0.2879157676647575,-2.093542776239054,0.15027719845753318,5.768649517570203,-4.398009228997759,-3.017888670413189,0.713356275841056,0.22370242576930227,0.5026062945072348,1.96875
0.10125961272977171,-0.32503795756516707,-0.08624167957623605,0.7481354367940604,0.21339589564633682,0.10465456884644067,-0.7448961698858028,0.056059862909362136,2.1096734784205173,-1.5956576708841927,-1.1047333448598486,0.2586051167444117,0.08195046225366266,0.1843414175886303,1.9765625
-0.07442069336652526,0.20590379778509904,-0.2512494744602524,0.3741446634002696,-0.19598909790563165,-0.11642264619063389,0.42566092376377385,-0.1504179013357587,-3.6221132342817968,2.2382686078074925,1.9372849632195452,-0.30507169765615194,-0.11775725371839448,-0.3438121128221863,1.984375
-0.052743596853505714,0.1432501277226724,-0.19634243403762236,0.3189211607498263,-0.14067472977271286,-0.08441924219139008,0.2939037183076149,-0.112866224088737,-2.6810209351344705,1.645293033618531,1.435749072528682,-0.22208194734026543,-0.08648350099546975,-0.2554758443989469,1.9921875
-0.09400123000275022,0.3420271203157572,0.6535100934174888,-2.3669732479832786,-0.11175111496437469,-0.013087620106068787,0.8835031287443513,0.15092164476764083,1.97270110365154,-0.558424473126489,-1.1063191047657428,-0.00811902742534745,0.03901386907588515,0.22150824425808963,2.0
-0.2854888158506591,0.9895390022136508,1.2934053989207963,-5.1719903801538365,-0.44269980867703673,-0.1403497749772328,2.449118558352266,0.21399036766661556,1.2581508118416198,0.7560239163106159,-0.7945175167561561,-0.3033342491283265,-0.019571056110074977,0.20048428113639827,2.0078125
-0.3616426130873382,1.1953195342654757,0.9218487127715088,-4.45811961075702,-0.6626263078898711,-0.2778689524970001,2.8500325506659254,0.019013701347140328,-3.254870291282233,3.4655678154314913,1.6245538411476934,-0.6652007944180197,-0.16436263389646988,-0.23135083701358972,2.015625
-0.19285432370579966,0.6154743700713639,0.24304133598997918,-1.6506077903669807,-0.387240132480252,-0.18167717276395545,1.4290861808801545,-0.07692957122141392,-3.4019323759250377,2.7071608475446824,1.7706944364887143,-0.4501726460650324,-0.13499345522909348,-0.29037600670256614,2.0234375
0.051493428596500974,-0.17926688893333165,-0.1964512997371734,0.8267938213085937,0.08818027175152766,0.03303313642509791,-0.43591266719510874,-0.02480370806321441,0.05595176322018156,-0.288430442243762,-0.009967056931924519,0.07351593713332642,0.012981508401321853,-0.008242774955721986,2.03125
0.21376007753436996,-0.7290892803814617,-0.7534099236960983,3.2463620424926405,0.36659111655101373,0.1388656917517119,-1.7683711194400034,-0.08333020317309542,0.5626449604296636,-1.3514792993249765,-0.22090309957201362,0.3179579773101707,0.05981483731553847,-0.00016178585358985056,2.0390625
0.28183462268160475,-0.9806166584956638,-1.2416908067238062,5.004494103592699,0.447369352553798,0.14790329665781174,-2.417048259839898,-0.19748042216776168,-0.9465346228949132,-0.9073712484106956,0.6253407457111684,0.32078171027281166,0.029995998052898088,-0.16921836760273987,2.046875
0.26651799636520834,-0.9104687071077062,-0.9724870818446053,4.142341634074755,0.4514630957393591,0.16793074335055033,-2.2141115458993474,-0.11594206841274932,0.4656680756911799,-1.5637393111636273,-0.14726301958184063,0.3817582554171326,0.06756361232470082,-0.023692689466035016,2.0546875
0.17114313503783368,-0.5596907849346195,-0.3108464245600154,1.743897495599103,0.3349870172161073,0.15213120856078458,-1.3129209244115068,0.035997403586562025,2.425978564227634,-2.107503536042189,-1.2491556253902085,0.3686602791613177,0.10494861131515469,0.19774830890799835,2.0625
0.039184054798284546,-0.13518288528630384,-0.1271972872610765,0.5638807140473635,0.07074310911130909,0.028769855557618875,-0.3252419642330029,-0.010900224507654226,0.19845748380673575,-0.3023871215534494,-0.09212434105451373,0.0654101105178877,0.014683578294558701,0.009271393151219927,2.0703125
-0.08609822354967483,0.259682666134671,-0.05418744993739723,-0.26088434094543017,-0.19454477449451063,-0.10242276718346324,0.5771407491892663,-0.09113269318158677,-2.602692982031469,1.7666839270460981,1.3790643748211704,-0.2622651345198921,-0.09072808578086249,-0.2383603155364532,2.078125
-0.18125596141816966,0.615191103061089,0.6713263442668778,-2.845125436353281,-0.30153969400343256,-0.10909610385703462,1.4998400171550739,0.08339519192298255,-0.20628079806814267,0.9970165729212921,0.040742167599742495,-0.2498799538451244,-0.04076471242256105,0.026796208648390437,2.0859375
-0.18295367854304773,0.6721790248277215,1.2996539261008513,-4.688655090375102,-0.21639619423838707,-0.023788843046239315,1.733746533620175,0.30288006328162737,3.9944653359624636,-1.1675302702740038,-2.2399770626894826,-0.0092775271088541,0.07959995777944447,0.4480036000101952,2.09375
-0.04674738214626027,0.19711625917866699,0.674564052308027,-2.197113405914981,-0.0046165338114653965,0.043195989331526845,0.5592808394418924,0.198442241918621,3.3587816020852057,-1.509835040999349,-1.8405646732638743,0.13475154538130552,0.0883546424236452,0.3482919336116339,2.1015625
0.1043847225715247,-0.36662166226683096,-0.46668658623196,1.8746346888209193,0.1668865361213501,0.05537839991541168,-0.9016813880222067,-0.0749091584376171,-0.37319607445707825,-0.32431749757232053,0.24529382636912161,0.11952999531477228,0.01112593117321145,-0.06547262732655341,2.109375
0.08316960630540499,-0.30624303137144804,-0.5361564880694288,1.973845548758723,0.1101982332289061,0.021784962937765443,-0.7775618861837521,-0.11733991114131004,-1.4024976045944517,0.3122513668993497,0.795255156301696,0.03184879219712322,-0.022656263667699978,-0.16298042307632177,2.1171875
-0.06595000306107716,0.2199397515171974,0.2263680480216886,-0.9816084559767074,-0.1103989908948324,-0.04071458980311149,0.5354535296749434,0.024549193531632953,-0.1758246882607316,0.41278165052219534,0.07000240191774561,-0.09510541517882125,-0.01706534197928849,-0.0008104916346292674,2.125
-0.11654239299254732,0.389575272290605,0.3791849254051786,-1.6753073134995755,-0.2001170272205756,-0.07664029109442895,0.9436391621301455,0.03544933917523921,-0.4740820843989922,0.8169573003041223,0.21220215922534055,-0.17962125518892702,-0.035746132401447785,-0.01740936125943896,2.1328125
-0.045069015182453036,0.1294243421581797,-0.08336327752596055,0.024010747683063115,-0.10815365586482467,-0.06015808819450108,0.28042931604443444,-0.06675091901984871,-1.7187647995099573,1.1083895250832034,0.9163785560524103,-0.15701128088227118,-0.05731103478170872,-0.16088331972170694,2.140625
-0.042928068962207425,0.12278153903499933,-0.08520176021888679,0.03965231053293266,-0.1037537542892968,-0.05795692507468292,0.2647602684584959,-0.06558749741074531,-1.6761075358216357,1.0748495935220053,0.8932306749488892,-0.15180913352285308,-0.05560536115129658,-0.1569958366541756,2.1484375
-0.10923971712699418,0.35270557816760184,0.2037288873898486,-1.1271789019496015,-0.20886834270874974,-0.09274189183596437,0.8302333333673141,-0.02005517997783014,-1.4689786984723967,1.2936146251241143,0.7535502668503704,-0.22775847802565016,-0.06280305363700933,-0.11863529170975969,2.15625
-0.037965755669265175,0.10147043311483242,-0.16084309828512358,0.2862873379123749,-0.1035698112691186,-0.06303677922865097,0.20236343401009307,-0.0879617226406631,-2.0569073644056206,1.2454691801610172,1.1012832835161541,-0.16731311935411927,-0.0655309819874071,-0.19630165557102186,2.1640625
0.14866800277106995,-0.5266627252399533,-0.7535407507653462,2.9278950871487788,0.22315940567953135,0.06526913683663665,-1.3125259366004416,-0.13857843867239455,-1.153289067309129,-0.1431881405040159,0.685701003654547,0.13221441146078194,-0.002423887406538221,-0.1549455578193809,2.171875
0.19285216870755925,-0.6395372635446762,-0.4622327659299245,2.291738405783373,0.3612822807182798,0.15563576372013863,-1.5183344738056803,0.0011701188579894902,1.974337217528486,-1.9797514532185467,-0.9947057849710154,0.3715793223073162,0.09632104445457024,0.14682603587183543,2.1796875
0.06161805738763229,-0.1663915579051385,0.3338898906322458,-0.6739392128544994,0.18499730591254218,0.11810445040732674,-0.31903910627485405,0.17015667069673263,3.900577382791912,-2.3288368961409267,-2.093298401221372,0.3091884721096741,0.1256290339342895,0.3744347137273476,2.1875
-0.0006041288303423283,0.02923124713004203,0.36720147841389217,-1.0740271375412327,0.053032280023694714,0.05251375122017389,0.12769440695444742,0.12933282296828866,2.4915309429206243,-1.2919636390478306,-1.3531070804615692,0.14551264356433283,0.07272630156830219,0.2495776508833728,2.1953125
0.10648419936385736,-0.3648729125517323,-0.375937883735986,1.619218426601441,0.18385936541782535,0.07022274348617484,-0.8841501068422305,-0.04137219427838145,0.2903824482159883,-0.680610602432999,-0.11479058342226071,0.16020734222714694,0.030675574506534374,0.0006487530630828323,2.203125
0.19852102618363443,-0.6832564691391446,-0.7702287940332183,3.2192982796802903,0.33072716045522227,0.11938399469134885,-1.6672767072045807,-0.10219616065614881,0.04870957011421262,-1.0095195210311698,0.05345174619473882,0.2679872180446097,0.04195090625937547,-0.047976142460969866,2.2109375
0.08905443163333594,-0.30013122474504134,-0.24495383357125544,1.1506415863650723,0.16415788547065915,0.06876737237065157,-0.7157276591065501,-0.01008699599900137,0.7184705343682906,-0.8155413339652063,-0.3538296270959935,0.16156321835897341,0.03940141369097234,0.04792310666077048,2.21875
-0.16889836709382355,0.5734416961265764,0.6397656483927083,-2.691768660373952,-0.2782940994162881,-0.09948266410101632,1.401839006698604,0.082868136781133,-0.08951943922886113,0.8768339336817804,-0.01780045743047376,-0.22662718279228658,-0.03507506321474932,0.03498918056546391,2.2265625
-0.3232265047232466,1.077045864064103,0.9409912129179443,-4.324074819135884,-0.5752083561054655,-0.23170004867276958,2.5881949546248086,0.05832376662417718,-2.113577630968999,2.6869274355470627,1.019891272397537,-0.5476389951140535,-0.12386738850935339,-0.12709768038818664,2.234375
-0.22181028043875584,0.7215652592248657,0.4491757878280292,-2.3922246775360176,-0.4215736829881303,-0.18547184813400866,1.7047504780568863,-0.028810985747171742,-2.7680759906007517,2.5247044884708916,1.4156837521816517,-0.45097297831404465,-0.12249297696751359,-0.21942493707483673,2.2421875
-0.054450597184456,0.1710835330727143,0.06770106562282623,-0.461641799595933,-0.10749292742792624,-0.04975052254845976,0.3991628925420696,-0.021517119504620305,-0.9449067994925605,0.754267720857408,0.4925775238889277,-0.12424464947312253,-0.036853741210876874,-0.0808630605858999,2.25
-0.07206463484167144,0.25664943490919256,0.43264420088434763,-1.6148264293010413,-0.09508518816264151,-0.019214023107793132,0.6519286473403251,0.09171310555930196,1.0526749919343779,-0.19311488374015898,-0.5988463091766261,-0.03267784728798915,0.017038429207105528,0.12405709969939856,2.2578125
-0.13153533590245703,0.4568004978005444,0.6189174378847436,-2.44969460370546,-0.19969894720363213,-0.06045740770972313,1.133747911810285,0.10689982895687461,0.7450918875483687,0.25860492317712963,-0.4561278784819382,-0.12947208579377723,-0.0035880973241004593,0.10911324297887585,2.265625
0.043986617247301886,-0.16131629241427706,-0.2617927557823473,0.9804770050296833,0.06245388451822414,0.015564191567688545,-0.4066373918481188,-0.05411826195242675,-0.583640941730556,0.07853831883395283,0.3339174258432412,0.026444181281629668,-0.006854183491611119,-0.07020719767321791,2.2734375
0.2852829856511452,-0.9838284195930643,-1.1469693307700772,4.74444944969728,0.4686043399913553,0.16504474678101647,-2.4082465433879467,-0.16117247679786598,-0.21289398505851068,-1.3042045015305557,0.2282643118739809,0.3677231424248543,0.05173293738193163,-0.09676890674730186,2.28125
0.25884189026334287,-0.8790994828422751,-0.8749407161244098,3.8200939190106555,0.4487056154724589,0.17284504492047165,-2.1264239429469867,-0.08799851266947774,0.9276081695672799,-1.7624651351976923,-0.4006707206791577,0.3985843572040351,0.07921163831712266,0.024349476873255838,2.2890625
0.10609855503702356,-0.36383037253746614,-0.3784265059501999,1.6240104457606181,0.18263883204523507,0.06937914569354021,-0.8819702335987972,-0.04264870179357594,0.26230463630141226,-0.664043842924859,-0.09968235614530128,0.15784250097567976,0.029759901648097716,-0.002052011796303044,2.296875
0.11334052377914182,-0.4004810964706345,-0.5470497941355876,2.1527704472138143,0.17489150680015622,0.05426214094397136,-0.9929064101950421,-0.09569145915732362,-0.6843587272388126,-0.21092382707957025,0.4170007070334059,0.11295594458272452,0.004051562710826413,-0.09879296724946367,2.3046875
0.08431593744887413,-0.28065595654290026,-0.18819403419644803,0.9623459484624035,0.1616205520178215,0.07131956079220383,-0.6627692455022083,0.005910174686866909,0.9761702138733261,-0.9264063310602262,-0.4957297884406204,0.1704283140727838,0.045984913466185606,0.07514208130064065,2.3125
-0.21463533598731788,0.7634136000844096,1.2101961560694163,-4.583661798491729,-0.29907045017796885,-0.07206874395243995,1.9246794232621451,0.24450304721153665,2.5539873609992934,-0.265319709832234,-1.4703913910039126,-0.1348035545207867,0.031839093545875836,0.31194018856355443,2.3203125
-0.4163490248734304,1.4195643823208641,1.572718103656,-6.627046493512332,-0.6917202165663245,-0.24938001212736605,3.4645264287860833,0.2013070040989366,-0.3048838489011379,2.2097793348127515,0.001237736344090456,-0.5672967200967226,-0.09041179840016829,0.07875162391994958,2.328125
-0.12665320908318953,0.3773791701464717,-0.14848629316305015,-0.18238017761365485,-0.29683139526768226,-0.16121395211028777,0.8275374129691534,-0.15857581994945302,-4.305945596964872,2.84814982546622,2.2873010503461035,-0.414285393386872,-0.1477482793377933,-0.3983345911427066,2.3359375
0.3102693458732396,-1.0985158139215725,-1.5924018192725498,6.169159128664479,0.4608948462160705,0.13148046834751945,-2.741198861163306,-0.2965224260671553,-2.5615314054963627,-0.21219651823125316,1.5137004739273772,0.2655505563129403,-0.010760754268929801,-0.338730016387456,2.34375
0.3242354532589427,-1.074222885014141,-0.7817297918951632,3.8670023013466004,0.6056925884511284,0.2596302323259224,-2.5516891020764323,0.00016760603639720564,3.279755444812387,-3.3027902587840265,-1.650748639736384,0.6212198412460682,0.15983123563772073,0.2426989795517083,2.3515625
-0.020326977900299685,0.1267967227267006,0.8022168511585583,-2.443120542606538,0.07082681796445518,0.09054104699925425,0.42017787864374373,0.26544387479142373,4.910817480227729,-2.4452778096862082,-2.6726010536454674,0.2587209024845949,0.13820101938042992,0.4968696489943996,2.359375
-0.24216251811209366,0.8328379910163275,1.0185534662137734,-4.156104491549494,-0.3865247962406983,-0.1297086668799086,2.0488033347994974,0.15391838784640763,0.5365005477764976,0.9130511311851408,-0.38699249290429333,-0.2876461465435656,-0.031575215896925614,0.11711759869959824,2.3671875
-0.16010077378341753,0.5046284703797347,0.1392030842505147,-1.185075946315079,-0.3296900741526942,-0.15900198885551128,1.1632554542878069,-0.08567748871550702,-3.241162404989391,2.4629431264884065,1.6954633201703957,-0.3968619518501457,-0.12382540611399123,-0.2829523139574092,2.375
0.01824374642709533,-0.09397409794506997,-0.4027937793648793,1.2682342819598558,-0.013666670207473527,-0.03286117139024046,-0.2762744842535118,-0.1253225244855924,-2.2084551699766113,1.0487628797512598,1.2059926227656257,-0.10093087731704205,-0.0587050919151178,-0.2264646540366897,2.3828125
0.06411352651907767,-0.21490836256367069,-0.14722967677254728,0.7447470276048231,0.12320943179084365,0.05434994857928697,-0.5065911119038722,0.0032735843656332402,0.7233917958784428,-0.6947473137328385,-0.3665722602530522,0.12913848521507387,0.034704807184557464,0.05523868269081046,2.390625
-0.05088832602218273,0.18854752649918674,0.4117517398281446,-1.4493979586144532,-0.05105572185376873,0.0020062798304980693,0.4959832842156389,0.10244263722152847,1.4711871322876733,-0.5139623558108668,-0.8179374213600882,0.01999977205563261,0.03335981613378635,0.16051509112875648,2.3984375
-0.15540281175549547,0.5284368162826002,0.5975885753614082,-2.502812622237618,-0.254870531968155,-0.09028456685975186,1.2931664475140519,0.07931960851537696,-0.024516728247621068,0.776493382512782,-0.047715150693019404,-0.20503284990153198,-0.030454109982706583,0.03821147860608978,2.40625
-0.06886848145021497,0.21963861068751722,0.10924939494240506,-0.6551724730767368,-0.13348272793762933,-0.06042987096656623,0.5149109214964627,-0.01918612874042012,-1.0463028372163534,0.8778761232621073,0.5412068936279096,-0.1497802234879041,-0.04267975073370341,-0.08697194746377486,2.4140625
0.13755157421853262,-0.4793450881681753,-0.5976951781611712,2.4171198535953926,0.22087565298527323,0.07442652384915288,-1.1797988488499924,-0.09311905106910927,-0.3904308640097904,-0.48189280984826605,0.26728484872441083,0.1614608916874824,0.017215229183962687,-0.07568747890199205,2.421875
0.20628683991825814,-0.712558212715586,-0.8361920323899378,3.450406822867182,0.3385279575917827,0.11888437944787182,-1.7452978966236186,-0.11881947590571272,-0.19299822972126557,-0.9240775478454675,0.18753871828957375,0.2641934486882043,0.03658071373590852,-0.07411277059536864,2.4296875
0.06691313207337993,-0.25538464216130885,-0.5344091880542039,1.8893505323131856,0.07455966352998766,0.003494849097440874,-0.6631220222666041,-0.13060578682268012,-1.8211418988306145,0.6073728985111985,1.0158817646301286,-0.014295250429085303,-0.03794256624684791,-0.20059735422692596,2.4375
-0.06717319876679204,0.20226232705737368,-0.03399798074945881,-0.22778105802664125,-0.149989221231583,-0.07830637984676735,0.4523664455936566,-0.06811479823296077,-1.969276303080322,1.3464773363559799,1.0428229347418485,-0.2006333529234983,-0.06886118261920819,-0.1800874297690865,2.4453125
-0.020684457104722345,0.08942880590178237,0.3373358867490479,-1.0871086781578838,0.004318259682581214,0.0257194095839675,0.25828740032192365,0.10169963963102607,1.7599247562622946,-0.8141274154477299,-0.962972601046995,0.07616496986776546,0.04763509384006185,0.18137035816722655,2.453125
0.12688849556972268,-0.38305905515789096,0.15741001809740546,0.15868672912258083,0.30349538088863043,0.16727363972950063,-0.8384190442804048,0.1632706999293492,4.426307694006318,-2.92391283449967,-2.3515259481798476,0.42577533231862746,0.15367606347065052,0.40966151588252386,2.4609375
0.17992848658038257,-0.6027474071075097,-0.5004853945273744,2.3410194570260754,0.32774912551626273,0.1358995071370126,-1.4426292480468579,-0.023026744190071502,1.3810117104677126,-1.6094673874987322,-0.677640668198248,0.32039997605970594,0.07667225301259083,0.09058046973978925,2.46875
0.04713836818245396,-0.1930714307501739,-0.5204132308056447,1.7523458131843652,0.03314948690024787,-0.016611296701611523,-0.5203835882222393,-0.14224961489797347,-2.2440072758442864,0.9235123778109289,1.2366635170921243,-0.06485250731259971,-0.05397735706231443,-0.2375864001373842,2.4765625
-0.16292936174058656,0.5488474093443203,0.5653746497800298,-2.44527270874983,-0.27595338938604447,-0.10304592552057186,1.3342253065335266,0.06169065567299937,-0.4379653003071079,1.0269409259514646,0.17266256401565874,-0.23904704395252044,-0.04386233574990697,-0.0012863697756996678,2.484375
-0.22248509735621375,0.7825311745997099,1.1517484905974917,-4.449320372432539,-0.3243880061918728,-0.08904426546514202,1.9589041939238543,0.21733476291930856,1.9540292606580423,0.08354896404363828,-1.1486887161821926,-0.179858381964441,0.013027047099410147,0.25395194102477836,2.4921875
-0.059845424184422735,0.187363486812198,0.06657906415241982,-0.48390042200467126,-0.11922640940914501,-0.05609079593795899,0.43673162299063967,-0.02648095616701492,-1.0932690278493706,0.8582021003305635,0.5707986592275597,-0.14001569698272298,-0.04224727581538169,-0.09433272486587155,2.5
0.07294573934575876,-0.30490260205460007,-0.8925288185506317,2.9676743545178104,0.03810532100788219,-0.03914871543247751,-0.8325520857318349,-0.25110570987947567,-4.073027508278614,1.745009304123494,2.240884196207947,-0.1357277730779509,-0.10146461257584691,-0.42783696930115234,2.5078125
-0.07379033831847637,0.24386451171036036,0.22914529932142128,-1.0265218138258578,-0.12678766545284134,-0.04902803476831354,0.5906466251415279,0.019107612837038778,-0.3592497383721514,0.5469186138682763,0.16610955980044415,-0.11572539295723645,-0.0238198265575812,-0.01692576554000751,2.515625
-0.2971170183129684,1.0713161028885039,1.8366650325191276,-6.815470035271599,-0.3921205436940303,-0.07814656248306893,2.7224833739086414,0.39510469267526027,4.616269672183137,-0.9264052000093285,-2.6234564230902855,-0.12478822204924829,0.07482415344111071,0.5405356693830102,2.5234375
-0.1782777737699648,0.6509754555186505,1.2095019585329312,-4.40408291421934,-0.21941590878298903,-0.031216844190172583,1.6695718824361652,0.2750089628998367,3.5039248265920846,-0.9378668358152425,-1.9719280685123184,-0.03183778022153997,0.06644816443728159,0.3977460320972047,2.53125
0.21862607729259992,-0.7570024065553833,-0.9124301830989722,3.7332486392658404,0.354734114636044,0.12225234172050234,-1.8584220444793722,-0.13518511494839486,-0.3842547045421643,-0.8853308756498623,0.2965557493213806,0.2696676531189967,0.03357710419783288,-0.09645838799907319,2.5390625
0.36768524697635613,-1.2826433719770756,-1.6720348438508923,6.6800482766217195,0.5756241733694466,0.1851049493287136,-3.1703000010894664,-0.27612690026152814,-1.5931433315975958,-0.9964296329370598,1.011456198469269,0.3972962998497063,0.028479505229073814,-0.2567954277193848,2.546875
0.10878098121702523,-0.40052264061418946,-0.7271183150796453,2.6549105400626645,0.13912856565373677,0.024009601812368324,-1.0240463159935416,-0.1630444858673054,-2.0250777059639957,0.504334165183248,1.1423352840420433,0.02879139187632858,-0.03541651145592842,-0.23172494041737798,2.5546875
-0.09672684358734894,0.28585829989809625,-0.13967399163476643,-0.06398848297365119,-0.23010891755743465,-0.12644191683452677,0.6221343214295639,-0.13041277417309127,-3.4643255532060957,2.2641127804846306,1.8418735972067033,-0.3268176262232624,-0.1176944680568146,-0.32178827776245084,2.5625
0.04864458573804221,-0.2033007676917153,-0.591500778973467,1.967053265866463,0.02627295353565316,-0.025050850869011154,-0.5551238043823021,-0.16619843134180443,-2.68853758017773,1.1464557709585141,1.4791248710396723,-0.08884309199439178,-0.06652336879655739,-0.28255443361060306,2.5703125
0.20150019936959385,-0.6918599813731657,-0.7586684582957708,3.201725607134428,0.3391161186897718,0.12435440716488727,-1.6842410436255235,-0.09556612786995232,0.2058064218827304,-1.1052667869753519,-0.03083341304580868,0.28137409159120125,0.04709237519879191,-0.032985551274240216,2.578125
0.010996237543223023,-0.0348059825951966,0.03527666052493006,-0.04869675853283267,0.031915651294331764,0.019650687831170386,-0.07038949404151634,0.0224395468454465,0.55631094928651,-0.34653046550087596,-0.2970482224042372,0.04906384049645162,0.01932673586894595,0.05236260093834446,2.5859375
-0.27665787855485596,0.9313690581581171,0.92224553380451,-4.044316327357209,-0.4757785060684212,-0.1818228451703735,2.2562327152133945,0.09097144622094676,-1.0195940176597027,1.8894026549682599,0.44380201200085,-0.42334624320893455,-0.08319022811369504,-0.029696320832336014,2.59375
-0.24519923013276604,0.8419873180502219,1.0226800237592517,-4.183752168502009,-0.3922642657871641,-0.1324103809425886,2.071341728936575,0.1529470778462118,0.48893637527218836,0.954801592743098,-0.36208551266348454,-0.2943428222102274,-0.03363493830657907,0.11303579436464901,2.6015625
0.03980715633076749,-0.09409930039380301,0.39657593882454495,-0.9637296532637138,0.1463438024435754,0.10223779159234689,-0.14467594401774883,0.17390861443669603,3.758697121158516,-2.144063443070054,-2.0229109224603983,0.2723468627390137,0.1170119261312972,0.36541231962632403,2.609375
0.19967026886506817,-0.6437836571708525,-0.2546791028506815,1.718951753722913,0.40591617619298875,0.19220779559280102,-1.4935307410922247,0.08010388896300072,3.563798326022731,-2.8342792848766263,-1.8535418232957768,0.4726849721488042,0.14325763807520597,0.3038336867664646,2.6171875
0.11569620327057369,-0.3786625225130527,-0.1993788615828996,1.1486761141115565,0.22893045720908536,0.10516509890038875,-0.8862795237233875,0.028488113205624402,1.7271700079049577,-1.4710828801316747,-0.8908107033571195,0.2551001210905004,0.07381885157495216,0.14211588800581643,2.625
-0.019149441664176762,0.09888661473490397,0.5176715793806227,-1.6029526550529023,0.03357664954258987,0.05256668730022143,0.3107523941461505,0.1665474454163272,3.023334682123452,-1.4762511489910133,-1.648750419675722,0.15139899608035198,0.0842587994232814,0.30757011100591825,2.6328125
-0.08312255609338395,0.33006544474798194,0.9111285474682892,-3.0647292084561872,-0.05169002018453496,0.034927897040561144,0.8976814320006554,0.25073127285594193,3.996516667669645,-1.6637801496422788,-2.202562196668211,0.12291913296284059,0.09951386822724556,0.42195049428612047,2.640625
-0.13705428120697521,0.454078065546132,0.38318081317902686,-1.7861864456289607,-0.24501946045788653,-0.09933511476179392,1.0888109553806318,0.01941655163142934,-0.9916817896457603,1.183497552051163,0.4837352507021032,-0.23681838640128283,-0.054535578699401635,-0.06345340238622152,2.6484375
-0.18018419741262867,0.5249968930734658,-0.3771648892263162,0.22465761910871518,-0.4471301373408364,-0.2535831085332844,1.1217786094810362,-0.28437086024728475,-7.263274549855701,4.642584147845076,3.870898527183589,-0.6561398216910119,-0.24334023784401382,-0.6802775122240033,2.65625
-0.08783181579541205,0.21556724865058408,-0.6481963617040271,1.466850726686295,-0.281878543799792,-0.18688485607795424,0.37928446505328695,-0.3014244669121885,-6.66220955065668,3.877901017210559,3.58170142736788,-0.49858301473195354,-0.2077369406806837,-0.6444616089274469,2.6640625
0.11576057190126532,-0.42135461653651635,-0.7064518124155614,2.6293287837958315,0.1579722930067209,0.034906157200999995,-1.0660260752287356,-0.14964309873608383,-1.6980188957871796,0.305373072025196,0.9686260245814572,0.05817109710770199,-0.024627192370217287,-0.2009344254200838,2.671875
0.18623287067387861,-0.6430138029329607,-0.7431027837938075,3.0795121233561464,0.3077239281327209,0.10937024558082402,-1.571703116518904,-0.10298833983127986,-0.09260969555891584,-0.8742357622635147,0.12518254905309478,0.243945447850339,0.03551702668360563,-0.05865877387313916,2.6796875
0.036839581830688986,-0.14376466763743206,-0.31479635029830466,1.0995199373092546,0.0393654962003623,0.00017808720243292882,-0.3747003627175754,-0.07883637417026745,-1.130586552673054,0.39881722415018483,0.6285198303159,-0.014462992040563977,-0.02402594628454238,-0.12316812901421374,2.6875
-0.07348007897030345,0.2523122079718331,0.33357765066926326,-1.3328418071799253,-0.11186752123906647,-0.034350242436495815,0.6263340340311492,0.0557955330122443,0.3481316954018994,0.17764340433577017,-0.21817640012855988,-0.07549791297194137,-0.0035203119691482924,0.05395563350270946,2.6953125
0.0378802359487883,-0.09839729380837112,0.27216753631202883,-0.6102280641950681,0.12442215709255947,0.0827880646700104,-0.1746006831164059,0.12837800500619798,2.86492273839575,-1.674636566572918,-1.5393137862157322,0.2173146812588403,0.09087614984394496,0.27646076079686094,2.703125
0.1552150500029085,-0.5057412060741119,-0.24998748969566043,1.4883143117330881,0.3088008716874351,0.14266754867548828,-1.180069615973232,0.04401258221846029,2.4253898901534843,-2.026619317063556,-1.2535786292040154,0.34739419670814053,0.10155570816979446,0.201346195848968,2.7109375
0.06642311212098394,-0.2196793843110633,-0.124450734238268,0.6891749031259377,0.13113589737800552,0.05981372609839375,-0.5144972617530313,0.013072180764101124,0.9372499967337935,-0.8178793264446194,-0.4814001634631669,0.14401229298074544,0.04119415690713359,0.07574733180613885,2.71875
-0.03747703982293025,0.14165415703516945,0.3430789051105146,-1.1838858045392637,-0.03150412925645691,0.0074503699960291265,0.3775009511159747,0.08962548282255454,1.361449354473517,-0.5240134668977119,-0.7531933895893715,0.031128393252734646,0.03280669460491757,0.1457530845838249,2.7265625
0.046613925339843786,-0.14238616165045778,0.06275029808274851,0.044608429361894686,0.11388465297364071,0.0634991222121351,-0.31009826288317843,0.062208655887160486,1.679213717130294,-1.103912737345567,-0.8919762125546098,0.16096356783225454,0.0587013162653377,0.15548156231384908,2.734375
0.09167668574316175,-0.3138113648033735,-0.3179272983609213,1.376799507774189,0.15933587087689924,0.061583059132022666,-0.7599411840762899,-0.03351772482860247,0.292508230765283,-0.6092210382236152,-0.1214347335556445,0.14056582813967733,0.02782683699979975,0.004773161573525628,2.7421875
-0.13261535499827026,0.4467394599022408,0.4638857086072197,-2.0007791521953684,-0.22364920796187726,-0.08293919276916192,1.085732441114581,0.051693764618028076,-0.3268872449950939,0.8190984066493515,0.12487701373264978,-0.19218663910914197,-0.03454336884863088,0.001954129941800488,2.75
-0.33998669112977603,1.1665618581323254,1.3882370226042366,-5.712688286053395,-0.549313737337922,-0.18858278637818415,2.8632893704023306,0.20133965071860638,0.46233587130424886,1.435047096846405,-0.386238229837456,-0.4211001371281381,-0.053077011269715556,0.13565344999184592,2.7578125
-0.17751121808526502,0.6031250801562417,0.6751492364132311,-2.8364500912106174,-0.29241373500016254,-0.1042083012277102,1.4742831323789307,0.08803500468520119,-0.07970703032084148,0.9129892951051278,-0.026748064166688675,-0.23710896827918512,-0.03637791530246613,0.03836301128233245,2.765625
0.13150975318479988,-0.47586926527304974,-0.7732808386446642,2.9034644965408636,0.1831264562836909,0.043391900373456374,-1.1998263245481575,-0.1599080807153343,-1.7344527005811528,0.24311049873296492,0.9947942783772036,0.07661379071036516,-0.022543871187026464,-0.20894774138648808,2.7734375
0.16659541986592077,-0.5912059985405311,-0.8524368121330638,3.305857190451271,0.2491134296672507,0.0719419329729718,-1.4729607849570674,-0.1581132127175907,-1.3470648081906138,-0.13013033331030677,0.7979846852323654,0.14532661688873535,-0.0044654851816561935,-0.17929357228487972,2.78125
0.008566054934568303,-0.02694567455792267,0.03630174068142734,-0.0629672479570465,0.02664467589578105,0.016986312735199387,-0.05269741122372704,0.020675030801691793,0.49807014241619046,-0.3040159169888392,-0.26688414343233724,0.042311189867632125,0.01713772790577382,0.04733262604030751,2.7890625
-0.02134265887684939,0.07350421502277941,0.1257486371621586,-0.47142823695014135,-0.026700441655074576,-0.004348614520199003,0.188290738992684,0.0268281904920916,0.31534505413678454,-0.06174315980534588,-0.17928956492009737,-0.008078495482040628,0.005944727405298581,0.0369467559807203,2.796875
0.021888286530467434,-0.09714414212546918,-0.3161101250128245,1.0305472953048478,0.006082029238205577,-0.016988511613644782,-0.2705475217099189,-0.09194669529632539,-1.5320798878232864,0.6805049248033915,0.8408759980644678,-0.0575285294890051,-0.038539350608044316,-0.1594989646334114,2.8046875
-0.056222081852863814,0.16898444544298263,-0.030858921856692402,-0.1833848325205251,-0.12551585916623725,-0.06566391043196998,0.37675267776494425,-0.05772864126289534,-1.6611793446416858,1.1326789423864074,0.8791958480413874,-0.16843265087846324,-0.05775965599126612,-0.15175110958996563,2.8125
-0.08462251224663178,0.28598949275163144,0.3164529108712984,-1.3368820998198565,-0.13910401533183753,-0.04953158578919921,0.6982322854219742,0.04034346739720235,-0.06301242593225331,0.44547537314799357,-5.849066737288942e-05,-0.11386145083932857,-0.017475756094639455,0.015885806981633572,2.8203125
0.13297908035712058,-0.45485611061532943,-0.472537303411009,2.0295648015761887,0.22841609356107556,0.08662847829774864,-1.103618068543151,-0.05295590249617434,0.33437833870521566,-0.834771937670398,-0.12843222090048403,0.19734324166465184,0.0371772716123853,-0.0017966659951025,2.828125
0.3065412971845877,-1.0603011055160143,-1.2725740722517442,5.214128128753666,0.49779687835157044,0.17160410872876333,-2.601410901206219,-0.18733206701515007,-0.499776395499886,-1.2595968523622436,0.39434261486028377,0.37934295712839605,0.04767040496214959,-0.13133704076576935,2.8359375
0.102501945518614,-0.3542750015967273,-0.38995976301654967,1.6401263196671083,0.17361272315748874,0.06390829991667206,-0.8615663061699321,-0.049602028109086656,0.09457776005892288,-0.5590794438648882,-0.009605406275846466,0.14349659273099452,0.024161891656830473,-0.018108146964344617,2.84375
-0.21755386514788266,0.7630988307938125,1.10399052972911,-4.286768435907097,-0.32007507567047944,-0.08999237877096732,1.9069148890413627,0.20478626386227836,1.7621370912385084,0.15826862812134793,-1.0425345646366797,-0.18440598079873524,0.008462515202182483,0.23336813105572865,2.8515625
-0.20602959946107938,0.7192226098925006,1.0009579445943113,-3.929390475717046,-0.3095433969640073,-0.0913402137011278,1.7902376775374946,0.17823908662320037,1.3680764096967628,0.30495078940091647,-0.8234441802181044,-0.19194975135394304,-0.0005361147156022297,0.190860353856394,2.859375
0.0201562900247633,-0.08040257088733846,-0.17583699046893542,0.6139105587548034,0.022231464848879175,0.0006670901768450337,-0.20903664098224767,-0.04405568371142051,-0.6265016476755274,0.22031727395795542,0.3502018741149634,-0.0070734624556806755,-0.012852570216744932,-0.06871589948555175,2.8671875
0.04244114243773148,-0.15472811729742228,-0.23351772785446503,0.8923649090659513,0.06329966110840222,0.017915099311724057,-0.3857094748154093,-0.045390174201204135,-0.42743045044679245,0.007307014896467211,0.25088477032705236,0.034278043074497014,-0.002683132038893807,-0.054750265926885776,2.875
-0.10651336611118895,0.3790783451163616,0.628290383718902,-2.352635414906336,-0.14308687916634127,-0.030634056606987394,0.9617760371712312,0.131502426489364,1.4716409601780474,-0.24045606321433435,-0.84029907541762,-0.05360283911130527,0.022284040452687375,0.17487401669588615,2.8828125
-0.07388180857406762,0.25775267699917986,0.3812076123136068,-1.47207923989224,-0.10642184075949426,-0.028276269451561913,0.6462837305412922,0.07213923476904946,0.6574925154332022,0.0191770086535706,-0.386183107767968,-0.05771178506233052,0.005376544729189304,0.08493870565126499,2.890625
0.12261215323250751,-0.4473095339638782,-0.769366421073362,2.8482103387727444,0.16372036301306245,0.03371634320638703,-1.1363215593729445,-0.16606523457689557,-1.9436314133381905,0.3950913550119843,1.1037123976572645,0.05244376307503129,-0.030305940991980557,-0.22729081194086487,2.8984375
0.151402721217992,-0.5311455939000679,-0.7015029757727159,2.789732696007358,0.2368462395394296,0.0757118177494085,-1.3144758438587665,-0.11774763787833421,-0.7263427146094672,-0.37677703937733786,0.4541378712774775,0.16100140944566824,0.010417913536754581,-0.11285915131706319,2.90625
-0.004298188943959296,0.052932028421282376,0.5146865414414346,-1.5245946565021014,0.0657458567380865,0.0688740478491518,0.20549133910750897,0.1780533140591078,3.389766710322131,-1.738433006687822,-1.8425764858909233,0.19224270215887135,0.09777822381700563,0.3406311550905214,2.9140625
-0.05503364245898089,0.22968743010564,0.7472231172118597,-2.45192600373421,-0.01315563652439929,0.0438811131909561,0.6433241397521816,0.21680934343887245,3.623935978470625,-1.609406938614712,-1.9898473748929562,0.13834599210616222,0.09441099284648485,0.37748915900597274,2.921875
0.01921438749777893,-0.07129181415782833,-0.10035639654408468,0.387124908316044,0.03088581461484709,0.01000552525163259,-0.17599602594743008,-0.01829794887552125,-0.14456357483877863,-0.024665463176645395,0.08627244985918378,0.019182310336579786,0.0008041858617129089,-0.019788882584104727,2.9296875
-0.03500942878031641,0.09238924118696883,-0.15224095656096406,0.2740685127118203,-0.09552323148652975,-0.058400855264009045,0.1851809842101632,-0.08234567958831984,-1.9184177158348896,1.1631412981270346,1.0286677622539202,-0.1549348482717956,-0.061025578146986476,-0.18342465468829203,2.9375
-0.18190706753115396,0.5980384007187565,0.4477192872167947,-2.1953953639435624,-0.33422221815952413,-0.1409486889100478,1.4259649273039159,0.004236662825228102,-1.7321226703162826,1.7927219579977556,0.8690797383218571,-0.338869012129418,-0.08489499585923177,-0.12605171024451367,2.9453125
-0.10909074708161924,0.32220997577470384,-0.15550463297382344,-0.07620801854920797,-0.25927871798028107,-0.14254928071444214,0.7034003328479446,-0.1463214179956151,-3.893037657246375,2.549849440045602,2.0702469485456807,-0.36734511048224533,-0.13249802322526813,-0.3616002599886956,2.953125
0.13906140544313492,-0.5524363253765066,-1.4179026732696436,4.823813865069662,0.1086533438227181,-0.03769997630355828,-1.48014616646431,-0.3801765033253784,-5.889914283044823,2.3561410956780833,3.2529181180646254,-0.1538946936352676,-0.14051865167430358,-0.6270591724191442,2.9609375
0.1456586027775106,-0.5362835261083136,-0.9787567878571415,3.5716858707486723,0.185108043107469,0.030778086107296012,-1.371631790377424,-0.2201431582527055,-2.7483356641654115,0.6974983496321283,1.5510343357076137,0.03633557191782869,-0.04887840257963623,-0.3141679869808869,2.96875
-0.11504226556466604,0.41707231656347576,0.7593953148707638,-2.7799810454025047,-0.1434709820390581,-0.022128690014769522,1.0674650366617673,0.170371607652606,2.131767999912404,-0.5404521483588981,-1.2017711604199133,-0.027279982455000178,0.039578815669292666,0.2434767770824745,2.9765625
-0.13715960478654485,0.5062585535383993,1.0084947609497104,-3.615083194336431,-0.1570878735393565,-0.012529718657354274,1.3106734529868067,0.23916515390845694,3.230151019643191,-0.9999841940895413,-1.8077035403656452,0.006796378938623302,0.06673686545060832,0.35942705082420245,2.984375
0.22742125533144594,-0.7449347826792517,-0.43305724504280585,2.376373164960596,0.4418214384498768,0.1987958622032483,-1.7503429701179634,0.040734165478174676,3.0854409748791465,-2.725306066041881,-1.5838239758297068,0.4816186496475161,0.13501391526161777,0.24870510474182445,2.9921875
0.40777212672123375,-1.3407521425541888,-0.8677202007741658,4.525976932189134,0.7774658232340169,0.3420095488809988,-3.166380561376131,0.04051910390865348,4.896670128734013,-4.552165224655194,-2.4939084866611627,0.8254762284062995,0.2229143225790762,0.38240254398173446,3.0
0.04771343939790463,-0.11458959605357229,0.4455581661829874,-1.0675939685630138,0.1706601178746412,0.11802573643898845,-0.18272192333144677,0.1977654579401913,4.296016382054897,-2.4627648990930626,-2.311392819974527,0.31394798839127913,0.13410816713200074,0.4171729673599419,3.0078125
-0.3536135128603683,1.1931609747246132,1.2011462593591615,-5.23210726586841,-0.605592928769277,-0.2299218244895749,2.892654347528134,0.12404635160855897,-1.1583616737194944,2.3411409851119047,0.48766938570422896,-0.5328298115196318,-0.10242466638015126,-0.02326308400373866,3.015625
-0.2558395401473476,0.8156862049035819,0.3100684671912531,-2.151723082335003,-0.5161568511383469,-0.24326110575543725,1.8935843307308668,-0.10652654095394107,-4.605102639843478,3.641874020848558,2.3969981051198412,-0.6025286453913842,-0.18209074240733883,-0.3943335382733905,3.0234375
0.06741199883407602,-0.2489793847329044,-0.4372478878384278,1.606948667340418,0.08935818002583104,0.01767324931978683,-0.6321935291601036,-0.09596489299408424,-1.1502638890924939,0.2586358527353734,0.6519979572330397,0.025168271594475652,-0.018559072777930744,-0.13356478886039552,3.03125
0.08797344423742755,-0.26430939804064396,0.1395068130861383,0.02107829004381134,0.21559927017509017,0.12075596461583592,-0.57186896733676,0.1240765449265847,3.2830577197029163,-2.136748049389716,-1.7454332652792293,0.30841859200346317,0.11299312497729745,0.3052768191145792,3.0390625
-0.09182123489716666,0.3341856673318177,0.6265757986143552,-2.2783838001991072,-0.11137819467730015,-0.014610450883360328,0.8584260806490843,0.14322426362746493,1.8402199830100436,-0.5031092155591284,-1.0351153637259691,-0.0132112844049245,0.03583389913751813,0.20844856904271838,3.046875
-0.0674515192337588,0.18972474129098954,-0.19975711523904832,0.2557340080276114,-0.17417003645501725,-0.1017517465209332,0.39562126326813757,-0.12663068638491723,-3.0995084449844392,1.9320335663051007,1.6549075753378568,-0.2663857493064338,-0.10132092704765681,-0.29276915408466647,3.0546875
0.09372360667137088,-0.3903809654702669,-1.1614490323952393,3.8518905221464323,0.044972212034435674,-0.053248699682383153,-1.0723670700039478,-0.32835806851797855,-5.351844244248494,2.301666287710593,2.942318976133416,-0.18303729615533154,-0.13406660261199912,-0.5610867279048041,3.0625
0.06688041800216396,-0.275544457387039,-0.7825970768619107,2.6139860453807207,0.039462527812823445,-0.030862949058915495,-0.7509196514605487,-0.21781674581636312,-3.496713811884098,1.4739716158743226,1.925218065322628,-0.11140023952324568,-0.08606117101664992,-0.3682211394161294,3.0703125
-0.08155931058638198,0.2769508369734363,0.3246024532093082,-1.3449350888097116,-0.13086221052605426,-0.04465086787125119,0.6789587333041961,0.04591770029708799,0.07665596275044934,0.35723313492488873,-0.07404594786788257,-0.10153446555644804,-0.012815968174984791,0.02897475541375989,3.078125
-0.07163198292623012,0.2806745763965176,0.7446088979305996,-2.523638890672893,-0.049673038955036074,0.024809090673496584,0.758174193402935,0.20193350042131425,3.1741996278035876,-1.2944072044212878,-1.7515993765469178,0.09061728863659921,0.07814524447338583,0.33655506571571203,3.0859375
0.045174630235325516,-0.10923315666844373,0.4177872681506322,-0.9989922147702273,0.16127798095186838,0.11119523167146539,-0.1742241020341162,0.1857623384851773,4.040279203900658,-2.3182292215643803,-2.174313586749548,0.295386183508729,0.12617152171031623,0.39227381053606486,3.09375
0.06005415898023668,-0.1873455189386888,0.032146816957899026,0.20031527739402719,0.13955268484531427,0.07447295285354615,-0.4144239750866363,0.06276610833573378,1.8276512261241735,-1.2462557603064945,-0.9667109177852665,0.18723529118982798,0.06554259180091385,0.16667920489903187,3.1015625
0.045218349108196505,-0.17420105461262905,-0.36829757114333855,1.2976756800273532,0.050243624336156215,0.0022041088335914044,-0.4522720588038565,-0.09052841575410253,-1.2681289319878022,0.42854497502266364,0.70765207661788,-0.01127203331468885,-0.026312116186994274,-0.13936895708187005,3.109375
0.1228500726191447,-0.4465637450236846,-0.749529809585184,2.789911722516328,0.16708191635462355,0.03687697014403227,-1.1303347204293048,-0.15890861001669682,-1.8023729683477747,0.32166391097112507,1.0283899086900579,0.06079252386324495,-0.02623558150270657,-0.21335725992765842,3.1171875
0.09817086658236117,-0.3426414367892953,-0.41870388669676195,1.703011707577817,0.15936759129885492,0.05489219531750874,-0.8405332223120529,-0.06352213919100494,-0.218348439215352,-0.3755348039449651,0.1585936622093175,0.11974523750448343,0.014338867733121706,-0.048285225359389526,3.125
-0.1742722395307401,0.590301061699265,0.636855305765653,-2.7099045170299965,-0.29111906687047734,-0.10602342368505313,1.4391485792664396,0.07714469534825495,-0.2565967310615639,0.9894396710124622,0.07024289398479637,-0.24338068509286867,-0.040890147063258185,0.01978078481778634,3.1328125
-0.3577702246852453,1.197649558552719,1.0921366939667978,-4.935437252467529,-0.6305339505236727,-0.2498604478570153,2.8838663985440958,0.0820524933919404,-2.008216873661875,2.800915607673223,0.9475368169411045,-0.5878232180300353,-0.12764983173145925,-0.1071722152217908,3.140625
-0.10397475377680099,0.34009653785335314,0.24755586735869695,-1.2297148685880313,-0.19118781178388222,-0.08070318915037064,0.808774494845934,-0.00016265259143846485,-1.0339886725550018,1.0431691595056483,0.5203660350431047,-0.19531331524080903,-0.049214470260704815,-0.07657747591124592,3.1484375
0.30915468649600814,-1.0249763115370043,-0.7505992277918317,3.7027848123397433,0.5770613783277122,0.24696084944451266,-2.4355136782626436,-0.0015953334169053952,3.094619027240326,-3.132413886753497,-1.5554698759189438,0.5909050759303515,0.151535427756133,0.22793100862722826,3.15625
0.36525346824974436,-1.2027101453246503,-0.7902186258878825,4.0930802001930395,0.6950034505034257,0.3048463893188868,-2.842196810206486,0.03199070956036874,4.303113913585868,-4.033968558767937,-2.1895051814571294,0.7354221433338954,0.1974577640272132,0.3342883062126585,3.1640625
0.09971626334785587,-0.34194084665982244,-0.34657059985582045,1.5013134628079097,0.17341061191631746,0.06679191220885207,-0.8268822150698494,-0.036635580796524334,0.3128956014804897,-0.6580318348123008,-0.130101739165837,0.15292921426623113,0.030016573971264185,0.004764507943190318,3.171875
-0.058776290181508234,0.16798579598504815,-0.13203235514089626,0.10029686048506409,-0.14510551626602738,-0.08239939781735504,0.35859071851039204,-0.09537631855274084,-2.408723133609621,1.5325470934261969,1.2841847165118043,-0.2148530175626486,-0.07977980611553008,-0.22609119116456622,3.1796875
-0.024922405531729874,0.08558067510203594,0.1372775993313723,-0.5221165874649457,-0.032789062778795966,-0.006911330201031562,0.21730256192082084,0.027814339718301415,0.29978072960787905,-0.03658291677003505,-0.17205025145615208,-0.013878832978928137,0.004730972602745259,0.03621638808471955,3.1875
-0.06702003587810312,0.2590258995078839,0.6513238512272833,-2.2293477347391013,-0.05303826778741142,0.016935203838865508,0.6937404575253162,0.1728740744817634,2.6627037316524094,-1.0523875938844791,-1.4716247178865602,0.06678499802009671,0.0643031587410438,0.28407663971991187,3.1953125
-0.2398982893711745,0.8105910643376779,0.8317711739431503,-3.5997623981701428,-0.40801440614774975,-0.15313427440252908,1.967298569903002,0.09007323881257447,-0.6678637014890549,1.523565946231061,0.26688508484285406,-0.35484525869092154,-0.06575276003130012,-0.003874439959322072,3.203125
-0.3285838779363271,1.0629393584619216,0.5557984311133095,-3.2263813471244975,-0.6420724817013513,-0.29158732855149316,2.4904153865448557,-0.08197060174857518,-4.865116144188907,4.133440636184862,2.5099446112457104,-0.7149989932744875,-0.20403813252736155,-0.40096848147855263,3.2109375
-0.23486122467191695,0.7603044742127175,0.41614407264601105,-2.36150966371449,-0.4555189626374292,-0.20514613238076893,1.7852601416071197,-0.05175740741594559,-3.3420793394635826,2.8838534016719457,1.7209153180787782,-0.50255548287078,-0.14162670652831488,-0.2731733783884673,3.21875
-0.032174584221334054,0.1222057224871169,0.30929580941975615,-1.060244175460449,-0.024591800300358194,0.008919144513601245,0.3289416131590772,0.08220275687355909,1.2693544695554224,-0.5022644810448638,-0.7014195431500458,0.032971266540549736,0.03127465666012311,0.13533925245416856,3.2265625
0.1932340438070524,-0.6375143359190772,-0.4171507479693611,2.162651375624645,0.36888225972174454,0.16250297604248415,-1.5056826445664704,0.01753188861650553,2.294117027748736,-2.145723014356016,-1.1678018469235594,0.39105238091970435,0.10556809006008532,0.17855983042219878,3.234375
