AF3,AF4,F3,F4,F7,F8,FC5,FC6,O1,O2,P7,P8,T7,T8,time
2.930880641702293,-0.6381290271568395,-8.323353968565131,3.9450183092740714,-0.36572931836658695,-0.3515732258054413,2.1032922671685084,0.5350774948672646,0.2195370435463268,0.3819218426458186,0.0675231251184406,0.038962787439494315,-0.1316270150597884,-0.4124482146459132,0.0
1.7395400369445198,-0.3786724850299391,-4.93896506244084,2.3412924785056757,-0.21695553011580201,-0.20881317704816899,1.2482091731898166,0.31758702537731404,0.12978819601229974,0.22680000518383459,0.039860395588433406,0.023087710228385853,-0.07799571011125965,-0.24480017912347385,0.0078125
1.27988383663354,-0.2785925328699456,-3.6334447406203525,1.7225313161217293,-0.1595260452443821,-0.15374444305049537,0.9183324213785657,0.2336662329522375,0.09514833409936713,0.1669451022010955,0.029188130118224156,0.016961761187878243,-0.0573101511970214,-0.18012969030194037,0.015625
0.9170600586612492,-0.19946854905973094,-2.6024649301823195,1.233718690861753,-0.1141856509822445,-0.11026172116980294,0.6580054007873419,0.16740138022297246,0.06781723350009096,0.11970029346716249,0.020755049562364826,0.012132388270130889,-0.04097345871971085,-0.12899865070119515,0.0234375
-0.3667131549862236,0.08029037208865478,1.0447727403054003,-0.495147175741718,0.04613197427864772,0.043620580363921614,-0.26332132754235543,-0.06701791039128105,-0.028886371666494562,-0.04746707348612676,-0.009066249101623573,-0.0049639869335272825,0.01683059077429642,0.051788465526962285,0.03125
-1.0766971931153788,0.23490884287013253,3.0612538829141704,-1.4510969727940253,0.13477670173334294,0.12873256463170224,-0.7728863957340427,-0.19666734149543755,-0.08238119482213313,-0.13992015901066818,-0.02555211886926422,-0.014422465534882484,0.04879294897041232,0.1517086752972259,0.0390625
-0.49822254919912234,0.10878315429545003,1.417400805614186,-0.671942896142021,0.06253751195826407,0.05940058755213868,-0.3577817629521057,-0.09105516927034739,-0.038818870774659946,-0.06459599070353947,-0.01210961416489615,-0.00672036717130473,0.022738943602753175,0.07020430798742057,0.046875
-0.592174883146001,0.12923778940910982,1.6844691826522697,-0.7982308559502964,0.07428442539693533,0.07065125007278607,-0.42535912657190106,-0.10820447188241895,-0.04589293488898864,-0.07683335123605295,-0.014286018062263484,-0.007972789537828722,0.02696266309936423,0.08343048330746737,0.0546875
-2.002101166378055,0.43643901211900377,5.689997321671432,-2.6966933626686167,0.25034999900612814,0.23964085095769921,-1.4373734628044508,-0.3656286521648086,-0.1520897218268272,-0.2604355064591985,-0.04702718107820975,-0.026752095121730827,0.09044153463997552,0.28197912487876986,0.0625
-2.4432367223962483,0.5325519991730361,6.942789194694849,-3.2909663435565375,0.3054195218210217,0.2925379304469344,-1.7538819153398895,-0.4461771201498789,-0.18531925052690662,-0.3178951125771975,-0.057271475868385775,-0.032626404158144134,0.11030492129609487,0.34412714240187914,0.0703125
-0.7932565978660775,0.1730877474517722,2.2552413986803295,-1.0695312134428512,0.09936763277635888,0.09479700291696891,-0.5694904246718336,-0.1449178144154407,-0.06103293022665166,-0.10306163066460707,-0.01895604104151363,-0.01064719673283263,0.03602090700520182,0.11184468298679391,0.078125
1.1058723154468166,-0.24063337006200303,-3.139460124237257,1.4877637138522672,-0.13779563142983878,-0.13284166083525964,0.7935578379234923,0.20184885488126503,0.08203581309641378,0.1442397281509468,0.025144882839801944,0.014649135417753091,-0.049477239484260666,-0.15554468728070828,0.0859375
1.6778551298149889,-0.3652367124103424,-4.764006573798811,2.258201851281192,-0.2092529331430339,-0.20142635853211244,1.2039707349827165,0.3063019684152062,0.12514135583759597,0.218761098709399,0.038428615939355946,0.022266851051076692,-0.07522144619728043,-0.23611628289914008,0.09375
1.3786810981536757,-0.30007850916934714,-3.9140741091686313,1.8552574741568693,-0.17191571660422944,-0.16556004172755207,0.9892718095826045,0.25167773523755965,0.10260434344130169,0.17983033175989668,0.03148099339616419,0.018282682413521708,-0.06174800597021672,-0.19402773025404615,0.1015625
0.891178229472845,-0.1938637088169511,-2.528934967762402,1.198469766449068,-0.11100192530855647,-0.10708652976384961,0.6395399729835778,0.16264967186738946,0.06585631825495453,0.11631146102647424,0.020153726121145386,0.011792487359515222,-0.039801568169343396,-0.1253621953742375,0.109375
0.1738124668577438,-0.03751923669722591,-0.49073850629443044,0.23249492448142461,-0.021349638213132224,-0.02108342161513605,0.1246967163281002,0.03164740228980008,0.011797458838819285,0.022833426676706153,0.0034866870393970343,0.0022392607291446998,-0.007506835899023642,-0.024292544221521436,0.1171875
-0.5189877957277864,0.11345351595170927,1.477080370141646,-0.6999993162966481,0.06519259344994137,0.061926866682600466,-0.3727065341002124,-0.09485357273029009,-0.04038844934435032,-0.06739159354458016,-0.01260288967865298,-0.006991189978293976,0.023684178623443592,0.07327600130533414,0.125
-0.5508741930240549,0.12034800827992723,1.5671043895346755,-0.7426639757423062,0.06913881163130407,0.06570603925449066,-0.395690795876669,-0.10064724039575436,-0.042779376372241336,-0.07149577148830605,-0.013336914349743807,-0.007420954659612485,0.025118292158538537,0.07771211402845604,0.1328125
-0.058264721892203844,0.012924212437067394,0.16755368702010917,-0.07943029390060949,0.007573157621288265,0.006643172345318553,-0.04204307052739512,-0.010660220797985398,-0.005665132170096136,-0.007308896330373992,-0.0018890103278343443,-0.0008625003391589576,0.002934822480649069,0.008281051379278394,0.140625
0.06273038645616735,-0.013482281801289872,-0.17625340041013002,0.08334845140607995,-0.0075577157616102866,-0.007855533393224682,0.04488685200170725,0.011441749464361642,0.0034543413071624375,0.008452058491405763,0.0009265807665378476,0.0007502350259023313,-0.0025185892904969766,-0.008774525278710539,0.1484375
-0.32839473796149526,0.07177959420950458,0.9344880830863901,-0.4432853110602683,0.04129170271910638,0.039030546025818826,-0.2358834137790197,-0.060003640097366286,-0.026002718845357365,-0.04248098035217507,-0.008156645106692161,-0.004456629780242706,0.01509007150354742,0.04632616010576301,0.15625
-0.17905776316083324,0.03932393208957888,0.5103935968664716,-0.24213133051153188,0.022654588296185035,0.021131802919716006,-0.128764529963877,-0.032760291212354374,-0.014749080347335596,-0.02302827566822081,-0.004695936672594818,-0.002466204480956986,0.008374774504831716,0.025326453037205585,0.1640625
0.8254644259766503,-0.1794994350862552,-2.342303528320973,1.1103923299030394,-0.10278601680062821,-0.09926617435874309,0.5922426874181849,0.15066088914246295,0.06092457837945671,0.10778241645073683,0.01862556976085785,0.010913695219312831,-0.03684242694909422,-0.11611063937767661,0.171875
1.1221637549911407,-0.24418317952988386,-3.1846316897090805,1.5097184068031788,-0.13983594963755258,-0.1348157248141256,0.8052262324188897,0.20484180726447687,0.08327725884500044,0.146421956159727,0.02552093245748073,0.014866366691245596,-0.050208020246014826,-0.15789775555283006,0.1796875
-0.22787481883844635,0.04987651429396255,0.6500624513222693,-0.30818788361485505,0.028769777916566527,0.027011947560189802,-0.16380492461652882,-0.041673529217317096,-0.018425124277783225,-0.02936675624667334,-0.005817998538769164,-0.0031146927088245607,0.01055150283330419,0.032172637492032384,0.1875
-1.3391980790176115,0.2919729473385192,3.80673103826695,-1.8044653314172114,0.16756636338085604,0.16021401255264658,-0.9615181128313841,-0.24460361961769284,-0.1021491710373361,-0.17407897748750029,-0.03162219529181633,-0.01791806851552996,0.06057724800245384,0.1886295762146156,0.1953125
-0.40574896003695676,0.08866299646059328,1.1553869045328324,-0.5474237668225896,0.050993729847628934,0.04832292960503544,-0.29153144654049173,-0.07417432415491082,-0.031836485620072484,-0.05254880554144889,-0.009956971792024975,-0.005487164370375216,0.01857330384330337,0.05720378507805684,0.203125
0.8533697276959196,-0.18556653692055625,-2.421394152816114,1.1480154109936214,-0.10625398778384404,-0.10259286045003008,0.6122363689124555,0.15571104361757504,0.06300801175779276,0.11137515183085489,0.019267748743645768,0.011282799267321437,-0.03808761837837375,-0.12003730204714186,0.2109375
-0.005131028052549648,0.0015058958835156996,0.016690696283681205,-0.007957475005229942,0.0009668383139811121,0.0003159329489247825,-0.003968138572396624,-0.001054747721791188,-0.0016753326215702307,-0.00044735196405192685,-0.000672912251763631,-0.00015170213605975787,0.0005653312053628535,0.0008918990953958042,0.21875
-1.6932723821637468,0.369259453744446,4.811846273906265,-2.2810434814817726,0.21179812211883883,0.20265486851248485,-1.215647775457878,-0.30927198675132456,-0.12884881593317699,-0.220285414099054,-0.03986981104288735,-0.022637081278739868,0.07655344550841069,0.23860384592773637,0.2265625
-1.3492722661810128,0.2942789930246778,3.835089925906755,-1.8179997333364035,0.16882807976650757,0.16141653010998558,-0.9686259602609757,-0.24641839938802362,-0.10292180828132941,-0.17548187437203433,-0.03187686409186249,-0.018055183726506146,0.06106153640126091,0.19016090598781293,0.234375
0.5845136443677549,-0.127033565032055,-1.6578443155851066,0.7855998508642331,-0.0726911099318533,-0.07035666108530234,0.4195439137226282,0.10669945157392503,0.04276488748562224,0.0763464705979793,0.013030044509926089,0.007703965021249754,-0.025994904868677983,-0.0821333323473671,0.2421875
1.4205255317811014,-0.3092031113749304,-4.033097285314026,1.9112856248833405,-0.17710520951421635,-0.17054170142321773,1.0196273164179397,0.25934980503914207,0.10573797818866892,0.18521318504205586,0.032448267208121585,0.018842662192990203,-0.06363759385293771,-0.19986782088313698,0.25
0.6559878994174655,-0.1427007458708137,-1.8618730261615715,0.8820969919163839,-0.08162918714053537,-0.07890606102412692,0.47069898941409144,0.11974365296079251,0.04813743403829101,0.08565173030024806,0.014705398479213606,0.008661069921491066,-0.029230425723621424,-0.09224729201193957,0.2578125
0.059230213600741446,-0.012702596615776848,-0.16655829492010713,0.07871027490681687,-0.0071084720487010105,-0.0074013899298850695,0.042219765213020365,0.010766940835142621,0.0031904694716544104,0.007950652161463182,0.000853208500137191,0.0007109039874513564,-0.0023651731291644447,-0.008235188917526857,0.265625
0.42965825678583125,-0.09333820696009185,-1.2179773531274667,0.5774063594723201,-0.05336910236128847,-0.051818310899149914,0.3081284552441481,0.07839672433410581,0.03110639533921142,0.056215550408587514,0.009445208411067866,0.005641387460283323,-0.019027002096597252,-0.060393506473679255,0.2734375
0.7541910363375115,-0.16398895763856072,-2.139110701620382,1.0143726338229397,-0.09389150849275613,-0.09072783593423137,0.5411452766791713,0.13767237641599295,0.0555537083648815,0.09851684610798958,0.0169672275715167,0.00996126002919775,-0.033627453810130124,-0.10611245354413144,0.28125
0.19762060975452198,-0.0427730957690446,-0.5581966020603464,0.26508936616608303,-0.024377451405209676,-0.024035308760206472,0.14163209984723732,0.03606605882420709,0.013618910888181172,0.026076862850612562,0.004042567024791224,0.002547102801607699,-0.008581452505231216,-0.02779236209780431,0.2890625
-0.4971268375547746,0.10852992989397896,1.414494812193213,-0.6703678997782448,0.062401839991865514,0.05923199745674814,-0.35713369830048614,-0.09082583907031436,-0.03872571290490466,-0.06438934323969922,-0.012080038261271287,-0.0067059671055154585,0.02267811187453513,0.07002241732214158,0.296875
-0.14487137700188218,0.031828509656766965,0.41323962085857974,-0.19622247367009926,0.018435619065764932,0.01704274898615752,-0.10437611649467254,-0.026582245598204456,-0.012195304604374157,-0.018558772616997527,-0.003896671684728799,-0.0020125147054778215,0.006818666987401982,0.020493314312005306,0.3046875
0.6377467450416395,-0.13858450679163714,-1.8097028603108367,0.8574764201684913,-0.07930110698911112,-0.07672314171304802,0.4573651502396172,0.11629655217460177,0.04676758747005025,0.08330712464353039,0.01427149288271786,0.008413461452665895,-0.028401236366692797,-0.08962248767113763,0.3125
-0.031620077186646126,0.007239784220343946,0.09228091015590105,-0.043769405157257586,0.0042577255349693826,0.00350634922402493,-0.022947839838459543,-0.005863376999092361,-0.0036400389896607236,-0.003869240384226687,-0.0012734118310721643,-0.0005012624460139575,0.0017377630866648628,0.004620541964714667,0.3203125
-1.8213723155625938,0.3970738210172106,5.176557566311781,-2.453658881056198,0.22775222238614515,0.21800163061811068,-1.3073847191247696,-0.3326033084106557,-0.13846433647963985,-0.23692435840230375,-0.04283114978409588,-0.024340612505217497,0.08230428139082127,0.256561891673051,0.328125
-1.981588629355958,0.4319730212397137,5.631624430413,-2.6694799732384746,0.24778845581867387,0.23720315301661182,-1.4223498452797436,-0.3618734721856778,-0.15055332761190304,-0.25780285775098,-0.04655563218322332,-0.02647520451130672,0.08951943919269231,0.2791211330340694,0.3359375
-0.02759091846067176,0.0063618987399059485,0.08096604818670754,-0.03841493779731714,0.003783326497998092,0.0030102886257223913,-0.019980171226749582,-0.0051224632354736266,-0.0033580703748685116,-0.00337478568197719,-0.0011872089258904094,-0.00044767163060895114,0.0015665357535284909,0.004058523110899802,0.34375
1.1192079134654045,-0.2434549367964581,-3.176821260163702,1.5059372170321534,-0.1394660958067315,-0.13445520681934986,0.8030591288015178,0.20428779928127855,0.08305908504118993,0.14597467778075715,0.025448226485717526,0.014827661089481773,-0.050056906443608426,-0.15740271426597544,0.3515625
0.2946282585662958,-0.06389119282286038,-0.8347157869332468,0.39578438677091193,-0.036520695563559705,-0.03564500932848787,0.21125061548720558,0.05376036897882591,0.020951914856591588,0.03863142218537676,0.00630904795786059,0.0038413119894745496,-0.012946091092838802,-0.04136814181771062,0.359375
-0.19284383449162223,0.042261077743622276,0.5500106117958002,-0.26071391372363545,0.02438018672726673,0.022790378205722536,-0.13861306794722963,-0.035249334058813725,-0.01580556147809379,-0.024845793070277598,-0.005015447956682972,-0.002655341336076414,0.008993546327289959,0.027237970864808118,0.3671875
0.6324238415545738,-0.13750613717401697,-1.7941723951743176,0.8502584134605234,-0.07864411123282457,-0.07608922366538394,0.45368852520106806,0.11540935594183756,0.04632732810367297,0.082588982024303,0.014138839888838236,0.00833881269575926,-0.02815376308894962,-0.08891760671144236,0.375
0.9692012692607627,-0.2108827763763496,-2.7510185644267033,1.3036391799174032,-0.12071206408056072,-0.11643866488604739,0.6954296826377798,0.17689312706483365,0.0717069331820492,0.126436782843818,0.021964057244253102,0.012830093467828754,-0.043314925130031344,-0.1363226753201699,0.3828125
0.3105052314235423,-0.06742763280037303,-0.8800600933330618,0.41681735341029724,-0.038491381722988674,-0.037514187915436537,0.22272157438670392,0.0566450936739742,0.022118972400599252,0.04070376034569806,0.006679032759486927,0.004057775384501678,-0.013669326270154452,-0.043632370026670156,0.390625
-0.05024474155476382,0.011177190962534122,0.14507332651293794,-0.06881538903911176,0.006553799340622919,0.005692521107978129,-0.036215794827080504,-0.009198966867486892,-0.005045967009572232,-0.006233353406381473,-0.0017002988573406436,-0.0007506805805165372,0.002568078802976831,0.0071341672426803665,0.3984375
-0.18338470905015522,0.040240116180701634,0.5235640348143453,-0.2480494473254406,0.023213402115464746,0.021655028521540005,-0.13188269136005498,-0.03352056366349644,-0.015086459069665199,-0.023588564977925122,-0.004798730484262776,-0.0025249066882519376,0.0085633118411314,0.02592649528653231,0.40625
-0.6624749954770657,0.14462187730371742,1.8839363761378098,-0.8931192990853136,0.08306418298834811,0.07910787082589588,-0.47582653370061684,-0.12104408003121209,-0.05118126683067442,-0.08601893643797252,-0.015918834239756686,-0.008903304476170574,0.030128394371704788,0.09342737909650634,0.4140625
-0.38160480974139,0.08342637615926654,1.0856034247389195,-0.5149233783595724,0.0479737061058333,0.04544868409563228,-0.2742097691914481,-0.06978964064329744,-0.030011555068391697,-0.049439546079516734,-0.009391546782587084,-0.005161757858114273,0.017483640938330988,0.05387248387878648,0.421875
0.8774528964864978,-0.1908181901978576,-2.4901651414735,1.1803722819072198,-0.10927389671621635,-0.10549033876358307,0.6295586813221913,0.16012280569045984,0.06484666398133429,0.11455935946257399,0.019835793093368664,0.011605228821272124,-0.039188539466371845,-0.12343175299269302,0.4296875
0.9493503268027802,-0.20645583947213533,-2.6933435157803327,1.2772164315404175,-0.11823583818973528,-0.11412854723643848,0.6812426357856123,0.17328813307595825,0.0702600885785281,0.12392728804344,0.021495988445155587,0.012561261487694715,-0.042420714031335044,-0.13357393795869338,0.4375
-0.563177528333031,0.12298805981053923,1.6029657576569012,-0.7593703999916429,0.07066736581384632,0.06717834604751637,-0.4043265910392795,-0.1028767208247711,-0.043693822273416415,-0.07307767487145218,-0.013620263742453814,-0.0075839709075703815,0.025664597617805436,0.07938306895798988,0.4453125
-1.0645865726921826,0.23216925500763566,3.0263158917967083,-1.4346901892562784,0.13326348641873856,0.12730010671869083,-0.7642192519933816,-0.1944438551534988,-0.08147213054625814,-0.13838474646356644,-0.025255307620143122,-0.01426233124699393,0.048236021687410084,0.1499975903800973,0.453125
-0.002021510599641276,0.0007314765474121747,0.007713666827208139,-0.004171743861580765,0.0005407634444284271,-6.135456135551217e-05,-0.0016413852991473549,-0.00044064150535074825,-0.0014225664898440333,1.9503563205004714e-05,-0.0005847363000011892,-0.00010986281111764179,0.00040912047105575464,0.00042098938576463874,0.4609375
0.12753413825042687,-0.027453348995506176,-0.36007392992108683,0.17041032463835634,-0.015627893432093115,-0.015602331222361949,0.09121045460886337,0.023205539677941728,0.008338062105978098,0.01689742824258342,0.002421116617040673,0.0016168723501755829,-0.005424675127997942,-0.017807473789542373,0.46875
-0.9852859714205802,0.2149313000479072,2.800866434779563,-1.3276245278326584,0.12337030919565842,0.11778462378038729,-0.7076124343338174,-0.17999477566473152,-0.07550186598635364,-0.12806725048599005,-0.02341300991931466,-0.013204716340466152,0.04466186493931927,0.13886725295634517,0.4765625
-0.7914011248091362,0.17265990691329994,2.2500939865499676,-1.0665416228039826,0.09915088138617738,0.09455567585818878,-0.568372706118387,-0.14458174218341963,-0.060897551697246394,-0.1028495817649426,-0.018908920069786058,-0.010623803891774643,0.03593822466409417,0.11156335195378869,0.484375
0.9565483819909903,-0.20808954488512613,-2.7144282240423574,1.2866844077533115,-0.11917178236872959,-0.11495689554970398,0.6864399522733774,0.17461210754056988,0.07079494106214458,0.12481133894178296,0.021670692216658054,0.012658128711258479,-0.04273134400423963,-0.13455363677826127,0.4921875
1.5522451928142824,-0.33783643952144143,-4.406052713170727,2.08863848859697,-0.193580166455392,-0.18636026181915558,1.1141361942873644,0.2834039403410274,0.11568051529689095,0.20242449292355347,0.03549746819074066,0.020596475549321053,-0.06954413378601713,-0.2184549428120991,0.5
0.04476356185505046,-0.00948213333334201,-0.12440245623501683,0.059124210089775656,-0.005300234812256087,-0.005663145639847117,0.032068139527651446,0.008147151812455155,0.0021028516194013854,0.006093880760583681,0.0004977639271860092,0.0005196651727119777,-0.0017000442528732336,-0.006224442637588231,0.5078125
-1.4827067971275716,0.3232285091617389,4.213829182304295,-1.9973594083792976,0.18549430170335446,0.17742076235000578,-1.0644096048640272,-0.27076684356188585,-0.11299031817248507,-0.19285201225530213,-0.034965936801355686,-0.01983021532932138,0.0670452661175526,0.20885229933833796,0.515625
-1.2116507253575903,0.2641964559772225,3.4437070470576017,-1.6324854449210104,0.15167133881932432,0.14491034031622257,-0.8699424340148475,-0.22128978716405381,-0.09257818473574501,-0.1575322808785113,-0.028672283626391636,-0.01622634154304627,0.054841341552349106,0.1707077148414158,0.5234375
0.4370525421697347,-0.09492515645194345,-1.239816939394451,0.5873456512395612,-0.05422561846245043,-0.052713785942062004,0.3133019371776495,0.07970966159994707,0.031632622214458096,0.05720804941557945,0.009612231813681489,0.005733641785221871,-0.019374949212562203,-0.061409619926477456,0.53125
1.7344490667663468,-0.37752617384971726,-4.925643175052929,2.334304886102311,-0.21626977122495458,-0.2081941616724315,1.2444043013936725,0.31656059207157783,0.1293797552813518,0.22614550575480571,0.03974123678234775,0.023020485684388064,-0.07777692218247047,-0.24404594419104492,0.5390625
1.410181657514158,-0.30686406997379273,-4.004110376231013,1.8976196197692847,-0.17579573487134212,-0.16930293370562677,1.0118137396972156,0.2573675751244105,0.10496451433839267,0.18387491169765036,0.03220880391848001,0.0187061852068546,-0.06317042907401052,-0.19836466143502,0.546875
-0.009225225158414731,0.0023525740088264947,0.029265131321391153,-0.013838320583137555,0.001442174893574801,0.0008120659044546747,-0.006595267790712207,-0.0017313043993950868,-0.0019438821985770735,-0.0009564935014219127,-0.0007584667416786605,-0.00020026021777786585,0.0007396142777815034,0.0014476146507409397,0.5546875
-0.8081019043881853,0.17636461202403944,2.2992464708769234,-1.0895925064696332,0.10118507385411409,0.09653880110654812,-0.5798667846116754,-0.1475584919183767,-0.06211530244799561,-0.10493510093041865,-0.019311210736466564,-0.010844197495915009,0.03670475608791477,0.11386300692543307,0.5625
-0.40758596573801337,0.08908345813796126,1.160597446135092,-0.5500230182866767,0.051170125425920504,0.048535814667112445,-0.29270890375406705,-0.07446836991475249,-0.03195758450567987,-0.052764841565830965,-0.010003236619253402,-0.005511248084490193,0.01866263470205296,0.05746262550865513,0.5703125
0.14572820844370013,-0.031483248001814755,-0.4122343813822353,0.1952851220979711,-0.01789064064138506,-0.01777075684775907,0.10415821047423952,0.02651143279217616,0.009704172012078462,0.019244021246115902,0.0028542020595981425,0.001859436882277497,-0.006256287397356061,-0.020406530658969843,0.578125
0.12323713086857829,-0.02660611693188226,-0.3479958598499747,0.16489579561387727,-0.015055454264767239,-0.015083712603534844,0.08817276921081554,0.02242388167034477,0.008009253152965908,0.01628382120489413,0.002331985771951154,0.0015612697280182348,-0.005238124395150258,-0.01723618052636748,0.5859375
-0.25262037297967727,0.055273883051727965,0.7207087210687227,-0.34146908445695634,0.031860825360278934,0.029951874942101303,-0.18133598037448667,-0.046151927179094616,-0.020293579673182387,-0.03263905577891559,-0.006403130692567031,-0.0034452361950390183,0.011693687564277489,0.035652563124567736,0.59375
-0.7520912821508298,0.1641032181170064,2.139520693153493,-1.0139550762156166,0.09421003016659525,0.08982152151546863,-0.539928161145212,-0.1373472842719128,-0.05792474780559018,-0.09765409811644635,-0.01800561605108149,-0.010100307014296716,0.03417581024899231,0.10597007398165376,0.6015625
-0.9014810354826036,0.19666422415211485,2.562865837257562,-1.2147574530559868,0.11288573292738745,0.10773123287645812,-0.647444880033507,-0.16466690219276128,-0.06919796794537178,-0.11711996285301804,-0.021472791756298886,-0.012092595840620281,0.04088795010506057,0.12703158825261104,0.609375
0.03542830173040202,-0.007416531093359755,-0.09905735769624062,0.04689724412550988,-0.0040828218376586485,-0.004572102190254535,0.024978978130002067,0.006377645203246683,0.0013754215022871864,0.004859625087303287,0.0002824477890205303,0.00038641206416475433,-0.0012871795550660483,-0.004850589365633995,0.6171875
1.261696178890098,-0.2745072343459208,-3.5818887224465925,1.697753451192363,-0.15722219950288346,-0.15154212199058986,0.9053224640622652,0.2302886807974446,0.09376447267190675,0.16454356626466196,0.02875076341188166,0.01672177474862016,-0.05647257514766253,-0.1774819257251356,0.625
0.797233062930586,-0.17330386384767862,-2.2619734155004845,1.072113939836325,-0.09924246817901078,-0.09584591823310197,0.5720491953613339,0.1454942439456522,0.05878222747804955,0.1040768739318562,0.017962877798421623,0.010536969552416835,-0.035560429124501663,-0.1120884827574552,0.6328125
-1.0213384230200382,0.22279963009517956,2.9037137883664115,-1.3764492578931207,0.1278522081976421,0.12213119381456974,-0.7332683271545133,-0.18654896240848126,-0.07821786972906068,-0.13272794124228648,-0.02425692578522939,-0.013685612385667359,0.04628540282102065,0.14391557887925915,0.640625
-1.4497349364772687,0.31603894529766763,4.1202132309813,-1.9531399144855153,0.18134629913086872,0.17346092663828871,-1.0407260262086866,-0.2647591486147145,-0.11048435489872739,-0.18851336910186572,-0.03419295598361651,-0.019391039776059507,0.06555394623780568,0.20418956533067703,0.6484375
0.11571869216485099,-0.024972934583076607,-0.3266955568746128,0.1545619058494374,-0.014157750146995945,-0.01417003992771318,0.08295601690721234,0.021071549178276368,0.007460632815030464,0.015334019249435534,0.002159903695505129,0.0014630989439338216,-0.004911320698241463,-0.01619159785208577,0.65625
1.1865578834684998,-0.25816292475674646,-3.368447052036271,1.596251479282532,-0.1478792062069701,-0.14249623762611038,0.851527556416848,0.21656992652372029,0.08813235205984733,0.15476412592623484,0.02701838095360167,0.01572851278896994,-0.0531036704056788,-0.16689070722304922,0.6640625
0.6202278493039866,-0.13477057334530607,-1.7597512563209614,0.83380322644729,-0.07713205643305614,-0.07461822486790186,0.4449510368803035,0.11314970253436983,0.04545199720886678,0.08100193394896613,0.013861651053602046,0.008183145451837029,-0.02760486172282558,-0.08714069633510362,0.671875
-0.006471401313563868,0.0016808301241421416,0.020565046156687524,-0.009854515198045616,0.0011380233870132317,0.00046364988021588635,-0.004877622199935793,-0.0012563242879469107,-0.0017726090310069432,-0.0006021147904300438,-0.0006906728247293021,-0.00016882619220077893,0.0006088720948393255,0.0010361370725151871,0.6796875
0.06935138347624333,-0.01488938860345846,-0.1944071257752031,0.09225757386531712,-0.00835344520833967,-0.008650283626777198,0.04959055385743428,0.01262740984745327,0.003947635835994704,0.009297346284881033,0.0010732551327102657,0.0008386740026469692,-0.0028007492311981647,-0.00969180842805715,0.6875
-0.04326218778782792,0.009666805537672844,0.12586490603808173,-0.05935306823756596,0.005690750036439287,0.004844375886077982,-0.03125850258385345,-0.007918069902424465,-0.0045197527584140305,-0.005347172845928595,-0.001540438074122391,-0.0006609873743486842,0.002267469743700321,0.006162300712877312,0.6953125
-0.1792985630567796,0.03935116804694204,0.5123073329606764,-0.24237865407225243,0.022692236461885073,0.021153197048742977,-0.12899391895996476,-0.032776333659837426,-0.014767726133188056,-0.023066646433980573,-0.004702491903536773,-0.0024722656309315795,0.008386408711853543,0.02533911427022458,0.703125
0.5239843910466837,-0.11382288617102501,-1.4857704200968915,0.704606267511695,-0.065109259646872,-0.06313422241663237,0.3757221252586561,0.09560255105601223,0.03819816516679067,0.0685057937597609,0.011623120002074312,0.006896145433792514,-0.023273787054551534,-0.07365528129988566,0.7109375
1.0806578562759321,-0.2350772515976185,-3.0675548898426896,1.453953898124915,-0.13462698803011836,-0.12984049106127435,0.775297597899378,0.1972304480998295,0.08012640379634381,0.1410083470391851,0.02454849372084016,0.014312843972190247,-0.0483342858353909,-0.15201432342635093,0.71875
0.11570690954075614,-0.02488228079069143,-0.32688678734321563,0.15448743915006183,-0.014146925495804246,-0.014165276501399076,0.082800634106904,0.021050118923491307,0.00744130628618631,0.015364291238551485,0.0021470096616882867,0.0014617117802920607,-0.004903425853212903,-0.016154966331043803,0.7265625
-1.2037026453688886,0.26250744106105667,3.4211536455549045,-1.6220796524720233,0.15060810682256626,0.1439923323963227,-0.8640773903318167,-0.21984902153675306,-0.09194373313555126,-0.15647832784147572,-0.028485032929099725,-0.016111779282754656,0.05448755872996414,0.16959997203108146,0.734375
-1.066299013640364,0.23256024835657205,3.03140661754046,-1.4370335250896071,0.13345877961635597,0.1275344665097438,-0.7653723013793052,-0.1947597015740277,-0.081591651018667,-0.13863294703976042,-0.025295198762657626,-0.01428090668916493,0.04831239210999798,0.15025369168676808,0.7421875
-0.23647600977857589,0.05180163400670034,0.6745164739678371,-0.3196427593510103,0.02984111695225632,0.02806250524611324,-0.1698033060443936,-0.0432391528063013,-0.01908473157386015,-0.03056969867477803,-0.006030655673287639,-0.0032284022388528715,0.010968163824657264,0.03341037390050842,0.75
-0.22929039066546553,0.05023397025686651,0.6537501421112529,-0.30983106033741625,0.02894207641234674,0.02716311826354286,-0.16477079246234758,-0.04192051841181938,-0.018549951804192336,-0.029575134097311023,-0.005865173306896772,-0.003137081410882131,0.010640257938671849,0.032361622177028336,0.7578125
-0.36684566442707817,0.08018499711740007,1.0440669187147118,-0.49495920686194333,0.04612149182680044,0.04362120364359631,-0.2635882390551036,-0.06704586685422044,-0.028913932404666796,-0.04745298924286888,-0.009057567408996619,-0.004974757659120517,0.016821962812600837,0.05171214094850735,0.765625
0.34512698178834444,-0.07489736452744047,-0.9781928519813081,0.4636183726211169,-0.04277619731189367,-0.04170608218264438,0.2474374522962956,0.06293614301269786,0.024726224952738792,0.045227461643700485,0.0074751547008738515,0.004508107634039099,-0.015226526123373729,-0.048483936817464636,0.7734375
0.8174182727296783,-0.17776718941201192,-2.3194067900062065,1.0994975557655138,-0.10174883802083466,-0.09829280675433477,0.5864548799958572,0.14917871335008684,0.06031066144173514,0.10668078794665203,0.01844247304621843,0.010803330423815993,-0.036479786595706894,-0.11493467451831327,0.78125
0.10657359456824059,-0.022958637144065663,-0.3003304885286727,0.1424407071694777,-0.012986688239822294,-0.013083243825590967,0.07624271716919223,0.019407517080707176,0.006758155346544237,0.0141000306974954,0.001941557027756902,0.0013388993429248918,-0.004484563891811996,-0.014866783393724025,0.7890625
-0.545997705785093,0.11915802177574002,1.5529201192563655,-0.7362886961120344,0.06850205957794993,0.06514684889629349,-0.3921354760125465,-0.09975214837358054,-0.042407791364222215,-0.07087673241960736,-0.013206242550004061,-0.007351139818364965,0.024882419671088323,0.07699915346396831,0.796875
-0.17396549067876502,0.038181155671929305,0.4961793817943168,-0.23563205142152527,0.02204780435892597,0.02057803197169303,-0.12506820096332136,-0.0318528020213523,-0.014379726464987377,-0.02242921882191655,-0.004572880543248674,-0.002393258546565708,0.00813958290445833,0.02466652601447653,0.8046875
0.2255711035213199,-0.04873653620451388,-0.6381864729736848,0.3022196749230761,-0.027855624910806315,-0.027315849041917303,0.16171778405946596,0.041099489511136976,0.01572658525462734,0.029629406989830607,0.004690965567755897,0.0029299087694982253,-0.009833116288979092,-0.03155752394448621,0.8125
0.11850121332947687,-0.025403663028764466,-0.33369991778261837,0.158263822756707,-0.014511662480910223,-0.014517528671335744,0.08483116372365997,0.021587750951804065,0.007663971531550406,0.01574076447296774,0.00219937244043547,0.0015013726328376267,-0.005012931056319154,-0.016541611370932706,0.8203125
0.36667194015699833,-0.07957737687824737,-1.038787059496004,0.492592978725373,-0.045511730987470404,-0.04427270309879929,0.2629328917285178,0.0669197637830897,0.026354378148012367,0.04806905566065751,0.007971210676508262,0.004802793653432402,-0.016195370088383433,-0.05155173023539522,0.828125
0.7321744190973336,-0.15928628653877275,-2.0772271813030514,0.9846839006247904,-0.09113101105420544,-0.08805646888685129,0.5253235378686402,0.13363477227342777,0.05388010939990333,0.09561845367758319,0.01646761324040007,0.009668420668764468,-0.03265076475005563,-0.10301832127264442,0.8359375
0.041580410243663095,-0.008839552838947856,-0.11556031764025322,0.05486197322703495,-0.004867550642218161,-0.0052819852981803314,0.029706765999578617,0.007523726955556193,0.0018474985611622986,0.005655966827532617,0.00042828090393513184,0.0004676482599231208,-0.0015535034948218082,-0.00578215042027776,0.84375
-0.7726336087543992,0.16855800850898733,2.1970661077737215,-1.0411803566518698,0.09680548634187908,0.09226908820385309,-0.5547524135418823,-0.14112806511534684,-0.059492614250591096,-0.10035398674416465,-0.018484521966457508,-0.010379803474910665,0.035101915209623254,0.10883492389174453,0.8515625
0.17341225238359953,-0.03753496947712777,-0.4909340241458425,0.23278995603021102,-0.021348040574866726,-0.021141805305966977,0.12411280628278688,0.03161655944119296,0.01178343094446142,0.022856973115116228,0.0034895084130102546,0.0022217431663313436,-0.0074970783031683055,-0.024338578373989783,0.859375
1.682892025389604,-0.36635707970505416,-4.77930027396987,2.2650385979534686,-0.20984972775770885,-0.20203456276143897,1.2074716678233226,0.30720665190787866,0.1255134565849773,0.21940544731334594,0.03855335066130172,0.02233212664916161,-0.07546007400737614,-0.23678523860671885,0.8671875
1.048233862257639,-0.22804977108280255,-2.9760790371071044,1.410138568569906,-0.1305971179706738,-0.12593002476298315,0.7521120611234339,0.19130885395999056,0.07771758375498217,0.13675184431245208,0.023815918971959563,0.013883781811678885,-0.0468887634259489,-0.147397385488357,0.875
-0.9652323416991941,0.21062196805936756,2.744538505274814,-1.301107835798181,0.12082835534387376,0.11540444587097981,-0.6928053849081525,-0.1763085620953037,-0.07396061472464865,-0.1254167368204096,-0.022952623565492797,-0.012932739159121612,0.04376005950920748,0.13603370403913317,0.8828125
-1.4620467057884947,0.31885106809116665,4.156436711820024,-1.9700258325077422,0.18287188592606138,0.17494442038133615,-1.0493717591247977,-0.2670052403113195,-0.11140034862788914,-0.19008963030916395,-0.034498309845843844,-0.01955078638064276,0.06612969890999361,0.20593602948529924,0.890625
-0.7308680791180028,0.15953912397291806,2.078976513906718,-0.9854186943592718,0.09159059673928105,0.08730735939024988,-0.5247728328618925,-0.13351973135039027,-0.056336325094244466,-0.0948841529892266,-0.01751547971613394,-0.009813824040127563,0.03321241020588131,0.10300764036727705,0.8984375
-1.1462003978479487,0.25000973124034287,3.258172556511906,-1.544588175374916,0.14347561436763828,0.13708536894982049,-0.8229781690387536,-0.20937646855914757,-0.08763045861442,-0.14899065760540997,-0.0271557011508239,-0.01534832731461515,0.051911829231431054,0.16151298290207747,0.90625
-1.9368107935267975,0.42225265376483384,5.504204432108026,-2.609105877420723,0.24219451159690042,0.23183533469757117,-1.3903181493818564,-0.3537212182113604,-0.14718323860334917,-0.25196161488658236,-0.0455194575005574,-0.02588077428116822,0.0875141511155867,0.27282322250803737,0.9140625
-0.4907025501032822,0.10720725465208486,1.3968163024894313,-0.6619188466358913,0.06158837590859832,0.05849949318821179,-0.35231770590730643,-0.08965480661156308,-0.03824282797020031,-0.06366499728484568,-0.011942964788108053,-0.0066202068627627016,0.022422720939735206,0.06920856458981196,0.921875
2.045791668862054,-0.4454130143295409,-5.808605630271748,2.753506759640011,-0.25516691747778986,-0.24552438188922837,1.468093903780389,0.37348655865767727,0.15282902778490323,0.2666261398206794,0.046963934750401816,0.02716437544053696,-0.09176810417984259,-0.2879118759522734,0.9296875
2.0449938246922184,-0.4452810659500965,-5.806867111813249,2.7524981788314413,-0.2550616518680721,-0.2454320826453427,1.467418403141161,0.37334001044698734,0.15276606933239253,0.26652282414973666,0.04695427484427035,0.027154757862881098,-0.0917425993110746,-0.28779833877846034,0.9375
-0.17736428831651835,0.03885589016986829,0.5058772571210719,-0.2399052776074624,0.022463165240026638,0.02094241246003968,-0.12755383017327562,-0.032437427343807744,-0.014638435105007534,-0.022859782676281235,-0.004649328224740117,-0.0024430005916387036,0.008295459017981946,0.025082408489736627,0.9453125
-0.7069337280983671,0.154250863789776,2.010289573612633,-0.9530369382161841,0.08859415532315469,0.08442804250121802,-0.5075440751531877,-0.12914167158664622,-0.05452003581978004,-0.09179642970739026,-0.01694749920866898,-0.009494209115184107,0.03213013276340272,0.09963021998071904,0.953125
1.1451219464801092,-0.24917371478933217,-3.2506637291336506,1.5407242559099108,-0.14268551919711286,-0.13756005416577702,0.8216582209412984,0.20901314308775215,0.08500317744457013,0.14940242482498017,0.026058593396729893,0.015172812112889858,-0.051248262392700986,-0.16111034911788555,0.9609375
1.8110404744983835,-0.3941978930226664,-5.142163884415455,2.437445096939322,-0.22584436503345032,-0.21739304233089052,1.2994743570627034,0.330617006297152,0.1351680441984105,0.2361202626327463,0.04151778961490672,0.024038659744809322,-0.08122243568838133,-0.2548243389848486,0.96875
-0.02556400190269258,0.00590674502389428,0.07492231861033513,-0.03542977275247176,0.00350081920842238,0.002738887976359917,-0.018729815668649393,-0.004708594621045665,-0.0031897406889631564,-0.003057874000477216,-0.0011345876133004584,-0.00042573541214454685,0.0014605697854739007,0.0037716887507758087,0.9765625
-1.2404583421569897,0.2705075807817001,3.525406989618203,-1.6712317688190292,0.15519727957845803,0.14837319025670626,-0.8905966264393784,-0.22654407374971444,-0.09471559158562333,-0.16125460444755318,-0.02934195518712425,-0.01660585228103452,0.0561428259663143,0.17476460885231443,0.984375
-0.04092413358642551,0.009142552558171002,0.11756740766194548,-0.056176989030363986,0.005378057922898875,0.0046113654804462905,-0.029483991398306403,-0.007534733192394059,-0.00435108294558075,-0.00501695723465611,-0.0014815835248053622,-0.0006256382663151036,0.002132268457966407,0.005804138759110333,0.9921875
1.0602811179434992,-0.23069816420225603,-3.0097883665262954,1.4263637024934226,-0.13214328038430262,-0.12737303207020717,0.7610660436951056,0.19354284146163495,0.07861574380701607,0.13839124759770727,0.024083350341547575,0.014045093700556448,-0.04743102109952254,-0.14923954017261834,1.0
0.034309304259969114,-0.007089688148562014,-0.09425868308179537,0.044793003734635815,-0.003988278172765667,-0.004389225231025018,0.024697932449573766,0.006205064043395002,0.0013289371002918153,0.0047500124634177335,0.0002459546924238569,0.00038187197962916933,-0.001222468874420678,-0.004721091531138188,1.0078125
-1.4133581181866508,0.30829303152719617,4.017989886415982,-1.904357195693242,0.17684145269883075,0.16912903228007747,-1.0146116212035772,-0.25816844255982396,-0.10774634179378458,-0.1838036858361452,-0.033371547360328664,-0.018902651483043074,0.06395387991799091,0.19915023791892308,1.015625
-1.4797168825401468,0.3226543471976151,4.205766322112792,-1.9935800197700644,0.18514614061901682,0.1770505328828392,-1.0625183786263146,-0.27030711281658365,-0.11276633809399052,-0.19244499579229035,-0.03490081996714464,-0.019793753567045522,0.06693291975562635,0.20847996496820623,1.0234375
-1.0280404207679066,0.22418044347741892,2.9228511166615014,-1.3854782920685198,0.12872679364353348,0.12287405265882485,-0.7383011196841178,-0.1877945710402039,-0.07874199435451743,-0.13362163605787425,-0.02440637111007491,-0.013782967184951646,0.04660096710184685,0.14485643148400473,1.03125
-0.8809719106884282,0.19215867914695936,2.5056902153715903,-1.187570554339234,0.11034785866006498,0.10524819530556119,-0.6325146571289645,-0.16090069484796884,-0.06765402969260188,-0.11449389328207839,-0.020997021836317444,-0.01182181541158395,0.03999159145903261,0.1241539657013715,1.0390625
-0.2430568918811645,0.053243809362610216,0.6931857515997685,-0.32853128095680906,0.030683632030184798,0.028817792966234955,-0.17455572644251388,-0.0444361499829509,-0.019592928918777293,-0.03145189068777279,-0.006188298431010505,-0.0033193536540433817,0.01127407380798313,0.034368727575968115,1.046875
0.8317013986505828,-0.180883985233072,-2.36083109716206,1.118839894495518,-0.10355120006520158,-0.09999679666278866,0.5968168828687688,0.15179667772222608,0.0613836667470177,0.1085182582604199,0.01877392013299035,0.010998029812035943,-0.03712264754529386,-0.11694890100423899,1.0546875
1.0514223054040466,-0.2287918121364662,-2.9849219793236332,1.414782774671065,-0.1310350982743939,-0.1263579283383702,0.7545566023840798,0.191962781464947,0.0779615894519933,0.13718394845634627,0.023883094999840683,0.01392344789567597,-0.047022418309631095,-0.14793496136783027,1.0625
0.580469878302566,-0.1262188548186686,-1.6462071546163746,0.780580254857041,-0.07224479326161175,-0.06992147343719538,0.41655138323453117,0.10600248283490334,0.042496436163855004,0.0758953938777846,0.012947849209094362,0.007650328808063226,-0.02581929372089845,-0.08167200035431307,1.0703125
0.7256168378298883,-0.15780385577802195,-2.058484766749557,0.9759334115684432,-0.09032933035310205,-0.0872935022433843,0.5205446539850971,0.13244908531847746,0.05340902086846344,0.09478430903899597,0.016315415665206574,0.009584233631806691,-0.03235574712436458,-0.10206822077528431,1.078125
1.170567319548874,-0.25468613127983575,-3.3233745594528457,1.575004221870301,-0.14583315234332211,-0.14058886310730317,0.839670936368989,0.21361608435379206,0.08689569842291872,0.15269438608435387,0.02664658038083127,0.01551061060289235,-0.05239944306412151,-0.16462950622990286,1.0859375
0.7332318810749463,-0.15941269923806123,-2.0813940795631147,0.9860833592260551,-0.09121374883290743,-0.08815358214399187,0.5257806493050193,0.13376555384449293,0.05394209223832957,0.09575290337570003,0.016491211703508344,0.009685849285512506,-0.03272259761860602,-0.10304696123090622,1.09375
-0.09883319208137496,0.021817339013571337,0.28285650271114315,-0.13431671079330434,0.012648908514807124,0.011573403262164161,-0.07123966406005158,-0.0181061359353699,-0.008727300892644117,-0.012557805104971355,-0.002832357921656283,-0.001395738090212404,0.004737530089192555,0.01402491025671135,1.1015625
-0.30334141507889123,0.06636079674739588,0.8641077554059432,-0.4096467877331527,0.038169649946348846,0.036077901350897314,-0.21791928883106482,-0.05543635943998911,-0.024127212333435802,-0.03918755024404261,-0.007583168120371702,-0.004120318265457003,0.01395438949562818,0.04278012394532216,1.109375
-0.3815482223445434,0.08341473394742036,1.0858401130824928,-0.514888209734818,0.04796612028112444,0.045448585244352135,-0.2740703118969547,-0.0697577127396624,-0.03002006431253514,-0.04942926413734506,-0.009396642695051336,-0.005163874387052318,0.017484205116193637,0.05383693534479481,1.1171875
-0.8525179499175128,0.18601251785945952,2.423769470283154,-1.1490592054398734,0.10679736428870684,0.1018938789432225,-0.612077342126723,-0.15577146711424666,-0.06549408179822586,-0.11080082816806062,-0.02033059379522158,-0.011436258190701213,0.038696071819430564,0.12017038901814267,1.125
-0.8476690188500614,0.1849471441648884,2.411004374594194,-1.1426095804970302,0.10616854158468987,0.10129546529880493,-0.6084816001301833,-0.15485409717921586,-0.06512158741684003,-0.11014463082585163,-0.02022446630478844,-0.011369118881459153,0.038490542896269096,0.11943554371784271,1.1328125
-0.14320200304602268,0.031503482405345895,0.41039494144036087,-0.19404545524586003,0.018181212428366324,0.016829677174409984,-0.10278851179204497,-0.026188440556745643,-0.01205621773039853,-0.018369995942014345,-0.00387722633278828,-0.001986938490781736,0.006782987080259655,0.020214795171146348,1.140625
-0.00581019766176528,0.0015974940622467486,0.01927649954225911,-0.008917066491486715,0.0010429969456271122,0.0003390603664110631,-0.0042382987700701315,-0.0010982243684879301,-0.0017134019069684,-0.0004888023980897192,-0.0006878859120795055,-0.00016213657394292116,0.0005916998549450083,0.0009153415231927777,1.1484375
-0.6102825319528085,0.13325485168476037,1.7353937618911894,-0.8227717328275314,0.0765374722863797,0.07279102143481857,-0.4382112503255853,-0.11148404395210496,-0.04724603367447509,-0.0792383859925144,-0.014713367602032307,-0.008217293601443843,0.027797712514006402,0.08607980404870132,1.15625
-0.506323758665686,0.11056510221470504,1.4402592323447065,-0.6829201283726458,0.06353092268709969,0.06034965703863165,-0.36365922067981094,-0.09250581515746917,-0.0394063313330188,-0.06570500294841503,-0.012291522349094945,-0.0068319119641060645,0.023119855988363348,0.07144716237095079,1.1640625
0.47034653557820055,-0.10219961101067886,-1.3335290519322318,0.6320448210899472,-0.05845487009917373,-0.056694655418003344,0.33734999476349176,0.08584074024396668,0.034168179475065605,0.06150431675944169,0.010385837095354447,0.0061802315594359,-0.020851904563416117,-0.06608627560763451,1.171875
0.8008125818618753,-0.17416852450095036,-2.2725285178487913,1.0770896933099645,-0.09971705713969226,-0.09629143263020572,0.5745548179618798,0.14619479430985083,0.059058530056823974,0.104561353256604,0.01805916202991333,0.01058556239820326,-0.03574868818551172,-0.1126227523058691,1.1796875
0.2214066275568739,-0.04794640985537909,-0.6272539938444031,0.29698442787154344,-0.027348310555115832,-0.02682943189388603,0.15864466299333238,0.04038177601092443,0.015410089170038804,0.02912258752609653,0.00461049888817484,0.002870814472194812,-0.009680679217474439,-0.03104488178527312,1.1875
-0.00896418564712184,0.0022410503181608254,0.027470430055336503,-0.013337014902552465,0.0014315676718204395,0.0007945517070906603,-0.006775401666182594,-0.0017277490428982295,-0.0019480292045163088,-0.0008654861518086258,-0.000739297360145016,-0.00019757846972101175,0.0006981275033596786,0.0013792440364842696,1.1953125
0.22805367496855447,-0.049370837510406634,-0.6448263931922816,0.30574583755795604,-0.028152506575660877,-0.02761993216962675,0.1633414454532628,0.04153130958588707,0.015896065751453376,0.030002357757547487,0.004754160344954736,0.0029575476436514555,-0.009955227374111416,-0.03201757486124581,1.203125
0.02595032450519385,-0.00535461629650936,-0.07049427372523492,0.03382224644252367,-0.002911548746623912,-0.003410007806290874,0.018380237978736363,0.004662853331730575,0.0006688107722224222,0.0036613668977991468,5.733883813925765e-05,0.00026568347284192773,-0.0008552276412983139,-0.0035852327298575076,1.2109375
-0.24769470383229344,0.05420093017449488,0.7060486725666382,-0.33449481999312114,0.03124510163618693,0.029390328636874432,-0.17793833323268057,-0.04527725472388972,-0.019929487796739066,-0.03201627842887704,-0.006285454466542261,-0.0033766812433128185,0.011456994788578482,0.034959293234525374,1.21875
0.22103804854296644,-0.04792633304875672,-0.6260502730751919,0.29645942586131757,-0.02729480024543164,-0.026781601647863824,0.15846522811728647,0.04027491318226083,0.015396512124996462,0.028993478893587155,0.004608518022085497,0.0028666135864799202,-0.009639485088671434,-0.030975006482776256,1.2265625
0.6039169603104425,-0.13127276682864555,-1.713442254193714,0.8118279093499393,-0.07509121811400436,-0.0726814849043474,0.43318915304202493,0.11014989050690514,0.04423315969063775,0.07886056474277403,0.0134912601853569,0.007962018199629366,-0.02686416120355969,-0.0848411718555391,1.234375
0.08993165270081575,-0.019257350961391213,-0.2531358232311714,0.11995076776523103,-0.010899479582283787,-0.011096037056269428,0.06427537442057794,0.01633703724856437,0.0054942580778566995,0.01195494058348276,0.0015423832371679646,0.001112540947473569,-0.003727299187431699,-0.01250342079108449,1.2421875
-0.13214485870177348,0.029092793099631382,0.3773362402349614,-0.17879739427743213,0.01681539189103364,0.01551751071442387,-0.0950499201407558,-0.024151575431917115,-0.011243255286773045,-0.01694895035311531,-0.0036151101062277704,-0.0018441605530023707,0.006255946307975285,0.01871483055355925,1.25
0.572247031457613,-0.12437866391702632,-1.6238866062418442,0.7695800211575355,-0.07115634110453005,-0.06890348038428654,0.4105255559607712,0.10445972562565299,0.041829232657126215,0.07479066347173897,0.012749140088772858,0.007540085889083773,-0.025460465129450924,-0.08046116802692654,1.2578125
0.4199318171591449,-0.0911604755182406,-1.190673916715321,0.5641990717899327,-0.05212529849348882,-0.0506530560327101,0.3011443984827603,0.07660346737920101,0.03036729458452629,0.05498498192421567,0.009212461041460503,0.005510239138467318,-0.018595110096911022,-0.0589987895315546,1.265625
-1.1809415854390484,0.2576012383588652,3.357586732441137,-1.5914579939536704,0.1477822252431329,0.14121588409892236,-0.8478208993362593,-0.21569896821113219,-0.09022653162796004,-0.15346288061960509,-0.027967688021331448,-0.015814308688166714,0.05348199621694324,0.16636965412668958,1.2734375
-1.7304615795461886,0.37725755801843464,4.918575208742863,-2.3312530468970416,0.21637341799088147,0.207086136999488,-1.2420731034703285,-0.3159904628241028,-0.13162660536608256,-0.22504376641135618,-0.04072921941733559,-0.02313265050705004,0.07822145626540764,0.24369355454276823,1.28125
-0.24340526601311047,0.05326213207325707,0.6939547884025214,-0.3288594113272518,0.030658468563412714,0.028858066637030028,-0.1747059531994387,-0.04445701728107981,-0.019604731817432424,-0.03143538682214552,-0.006192958474980624,-0.0033238855923815344,0.011277208533845232,0.03432613061169048,1.2890625
0.6018976305928447,-0.1308511271907063,-1.7073003109572207,0.8092385736016523,-0.0748709988468916,-0.07245770701043028,0.43184880780341534,0.10984425363358434,0.04407579800097157,0.07862520957270511,0.013440155970329347,0.007935771242446253,-0.026773768072709772,-0.08463050963801622,1.296875
-0.35814134604645514,0.0783447209881616,1.0198625198765212,-0.483601234097786,0.045063240873763476,0.0426249436693448,-0.2573508769008366,-0.06549167970075825,-0.02825091947186665,-0.04640341818261451,-0.008852131614451529,-0.004850723008277373,0.01644458260464462,0.05060293690189212,1.3046875
-0.5205917930201529,0.1137327447510811,1.4809233626840566,-0.7023298229667092,0.06536699465658714,0.0621203830549959,-0.37393401315462993,-0.09515552667096099,-0.040501438394926925,-0.06758091975279926,-0.012624730759679455,-0.007013384021025059,0.02375067602919161,0.07349694864020022,1.3125
1.0915236167524618,-0.23750835312773427,-3.0987473715927925,1.4686051120379164,-0.13597610309203795,-0.13111222779944656,0.7831806583830098,0.1992267837904777,0.08094129713861069,0.14236097719852236,0.024810524952839,0.01445807288158659,-0.04883067617283149,-0.1535278249370607,1.3203125
1.7310756232737734,-0.37687114458639176,-4.9149393549062825,2.3299506968778423,-0.21588071247876858,-0.2078068464740785,1.2421624890860912,0.31602380633665433,0.12913969279103743,0.2257050481459361,0.03966378482063896,0.022974257506379436,-0.07762481780043096,-0.24365174295863115,1.328125
0.3302512359131569,-0.07170516294881638,-0.9352060011894144,0.4436369435975765,-0.040961167324002436,-0.039918103885337355,0.23672043892693365,0.06024460706208066,0.023630434166065247,0.043325823471699144,0.007138349750162957,0.004317220997801989,-0.014563505183076123,-0.04644408416757636,1.3359375
-0.5735103083415416,0.12521345855048688,1.6316587361107526,-0.7735093028883189,0.07191407120935955,0.06843525108917799,-0.41183987152801255,-0.1047858778810105,-0.044457525882537964,-0.07439071379313962,-0.013849455194591047,-0.007716348081927785,0.02612163690260947,0.08085193626487427,1.34375
0.16364946125048604,-0.03533294482624634,-0.46289530385977806,0.21908048446882258,-0.02012733916835714,-0.019906249777067227,0.11733811347505321,0.02981575766169606,0.011056499349677068,0.021574962023476262,0.0032592851188531493,0.0021021595425989937,-0.007059457767270048,-0.022902928159192246,1.3515625
0.5995080528814878,-0.13026983574921305,-1.700801884172173,0.806146663592213,-0.07454937474469793,-0.0721696052515588,0.43011528374196806,0.10940784060273641,0.043879140569067755,0.0783426586510747,0.013371567323132718,0.007902061488638368,-0.02667039046573804,-0.0842895721675649,1.359375
-0.2217997017382703,0.048641768480870755,0.6326394832920383,-0.299720155724209,0.02803438662120366,0.026269617346651425,-0.15949231179958104,-0.040575955575034184,-0.017998508552154655,-0.028621356066287924,-0.005699808430732938,-0.0030404862499204917,0.010311488570676446,0.031349867757252854,1.3671875
-1.0298347660046374,0.22466667693705578,2.92775580141422,-1.3878439637706692,0.12895992447898244,0.12315280665498374,-0.7394990081547237,-0.18815000759223802,-0.07887156201781104,-0.13389286737675649,-0.02445532710501864,-0.013800024679941972,0.046682865084302916,0.14516534457661506,1.375
-1.0794489372153648,0.23547519816206466,3.068282106676293,-1.454613831954796,0.13514057095563198,0.1291038498793953,-0.7750713324329188,-0.1972035085725741,-0.08259597846704321,-0.14035334347752446,-0.0256006893333571,-0.014457957218340749,0.048902311813000365,0.15215762599717744,1.3828125
-0.685375209747304,0.1496138609588505,1.9489066549060037,-0.9239138139799167,0.08589618028357203,0.08182498988423156,-0.4921751586211182,-0.1252059595326547,-0.052890559196658186,-0.08897171478457787,-0.016448876088954168,-0.009211226983724145,0.031155205412956206,0.09662228753022208,1.390625
0.020591540438885187,-0.004213938236057617,-0.05630276961081869,0.026545900349718016,-0.0022744281292782676,-0.0028217963093902228,0.014584255742063922,0.0037270394235498225,0.000291601572003322,0.002991556266183974,-5.667790548686574e-05,0.00018952189376378095,-0.0006207923322324223,-0.002804059177903376,1.3984375
0.6130821125225939,-0.13334371673292064,-1.7393735315817584,0.8241876880004407,-0.07626628009313878,-0.07381451972901418,0.4399331306531552,0.11192098858348912,0.04490984318662447,0.08011109725322264,0.013702803244219757,0.008083481394859982,-0.02729169546639915,-0.08622881247320871,1.40625
0.4637571141564453,-0.10086005048136878,-1.3150057126041796,0.6232405715528688,-0.0576455425701715,-0.05588495275523015,0.33284377833335455,0.08467230644449791,0.033657167154177894,0.060644979607273046,0.010236122278837249,0.006098009757090062,-0.02057507316658438,-0.06524743743105806,1.4140625
0.2643010620702299,-0.05737474084357463,-0.7478579402980767,0.3548486236184321,-0.032759759201324255,-0.031976528428211734,0.1896666093360993,0.04825461465615201,0.018644691458298952,0.034697956304927405,0.00559944227518646,0.0034411527334298852,-0.011589563227779641,-0.037198934332784116,1.421875
0.8881442184906049,-0.19316681895698454,-2.5197298299307342,1.1947662534601446,-0.11064020043161774,-0.10676165712820362,0.6372985252297797,0.16212093793081173,0.06565041187298264,0.11594720733423176,0.020078182228147418,0.011747885088088758,-0.039651270289015945,-0.1249693397013832,1.4296875
1.0185092960437818,-0.2214989463546886,-2.8905781486452256,1.370139966711381,-0.1268727815264449,-0.12239143171131177,0.7307628959047027,0.18587998139348522,0.07546775998196362,0.13289299005998093,0.023104822853964778,0.013482535329831966,-0.045511207292875736,-0.14322394648757264,1.4375
-0.733812771143253,0.16020467033936645,2.0864224294232674,-0.9892950489676512,0.09198521373814883,0.08764212119316016,-0.5269574220151555,-0.1340821777622964,-0.056552101266668015,-0.09532828542514747,-0.017580235476104183,-0.009858321224253948,0.03335610955210497,0.10351525805881016,1.4453125
-2.3689691271101454,0.5163802904731155,6.73113885271344,-3.1908881313230464,0.29619692966424943,0.2836336938812134,-1.7005605237548078,-0.4326380617793115,-0.17974628686745056,-0.30826741439313426,-0.055548428905802895,-0.0316376293103949,0.10695111911746703,0.333705800592639,1.453125
-1.0497841704860882,0.22903279707915336,2.9841467812919413,-1.4146347610166656,0.13146032443833838,0.12551673206424582,-0.7537722225719935,-0.19177667563675047,-0.08036829232055749,-0.13646615257736,-0.02491870943825752,-0.014064404575662335,0.04757103978783337,0.1479679956907296,1.4609375
2.0092845523840825,-0.43734669447907826,-5.705180230356243,2.7043049272042374,-0.2505830449630811,-0.24114473003387724,1.4417748106095696,0.3667733677872259,0.15009635028244708,0.26192474788054526,0.046116703405856545,0.026684448322189153,-0.09013513145667157,-0.28273372786435114,1.46875
3.020313772515667,-0.6576382181420565,-8.576973396508082,4.065636992230539,-0.37688145959899805,-0.3623143998482265,2.1674187992715193,0.5513845660426459,0.2262691377582404,0.3936115253849975,0.06959908914929229,0.04015289508173606,-0.13566227363495356,-0.42512161085748185,1.4765625
1.0276267104394958,-0.22359413980367096,-2.9164751805260587,1.3824391204437867,-0.1280458774745842,-0.12344272786012588,0.7372731581907712,0.18754398121102406,0.07614210585825627,0.13411202921108403,0.0233286164232463,0.013610806894544733,-0.04596620847754792,-0.14459906730321195,1.484375
-1.4245258396835672,0.3105814662552379,4.049120536522733,-1.9194647447189817,0.1781915477672168,0.17047730348367746,-1.0225827079319025,-0.2601795985567657,-0.10859513542435002,-0.1852358067280666,-0.03361561142984431,-0.019053052807706857,0.06443465576768942,0.20064679416584077,1.4921875
-2.233135371551081,0.48671942464745693,6.345971472031118,-3.0081757678734533,0.2791694416075258,0.26735984468964624,-1.6028446879044025,-0.407780243230317,-0.16950004147118866,-0.2905334920580696,-0.052393234933124075,-0.029827039226993368,0.10084720842317929,0.31448818173602033,1.5
-1.6678383819554334,0.3635356010386529,4.739976301547988,-2.246780093277295,0.2085700008841403,0.1995680599585504,-1.1971450074222654,-0.3045317912526552,-0.1269088959268615,-0.21691229468582593,-0.03926404437176746,-0.0223008945194147,0.07539121537657074,0.23488474247254398,1.5078125
-0.8513457813543556,0.18564995924783426,2.4203992377678536,-1.1472799912186245,0.10662765601188634,0.1017019638822155,-0.6112543245917442,-0.15547070111222167,-0.06541329683421378,-0.11060807112679782,-0.020302294286514033,-0.011426651685615859,0.03862600094726627,0.1199462999252085,1.515625
-0.33976739585559196,0.07424101623633082,0.9671692746614369,-0.45851609465511134,0.04276863174069233,0.04038706922828481,-0.2441642281474074,-0.06210152884971462,-0.026880430721350733,-0.04401189025583069,-0.00842374224650353,-0.004612095100589882,0.01560567752628318,0.04795919495455654,1.5234375
-0.07763658447382694,0.017210459038499295,0.22276869430168322,-0.10559086907291192,0.010029473044462521,0.008961365530207363,-0.05600929696133862,-0.014248991947524301,-0.007118029944704837,-0.009867548691698511,-0.002340992311140849,-0.0011198177351245035,0.003820127978552519,0.011074786418023213,1.53125
0.4025122382024466,-0.08731635793176891,-1.1410339355707753,0.5409267753826832,-0.04995594659391316,-0.04857224114016045,0.28865998907775825,0.07342779826282807,0.029064389128919,0.05267455210477317,0.008803012167989321,0.005277890788998789,-0.017795116331010587,-0.05651452619967328,1.5390625
1.4756512222169438,-0.32107296869148105,-4.189591244000285,1.9857336332174425,-0.18398644230387395,-0.17716110255414583,1.0589401608364262,0.26937355300655735,0.10990207684242441,0.19242047760453634,0.03372127310357583,0.019576288767732437,-0.06611503834663994,-0.2075861670305145,1.546875
2.4986269054933397,-0.5439679725741903,-7.095643907680119,3.3629289178023227,-0.3117458054627219,-0.29976361784149574,1.7932252465698721,0.4561692931494146,0.18696222265291043,0.3256389043569914,0.05748053452452299,0.03320559470749698,-0.11217062770210663,-0.35161875583079144,1.5546875
2.1925109661802664,-0.4773426185097168,-6.22596633552434,2.950788883952227,-0.2735242055209368,-0.26308575953016444,1.5735297586400456,0.40029050941880145,0.16390240336268225,0.2857910858037907,0.05037560300018956,0.029128042826742112,-0.09838849794056669,-0.308566390399112,1.5625
0.6078807021815287,-0.13215553875183172,-1.724391585547282,0.8174087532627474,-0.07562330890597832,-0.0731495688652258,0.4361111857381459,0.11093749306194044,0.04451789012304103,0.07943655076993608,0.013576530208098013,0.008018675590890076,-0.027053804002805545,-0.08551104601133636,1.5703125
-0.6326076984193342,0.13809916119140717,1.7995958525065052,-0.8527266384709487,0.07931689442654948,0.07554313640974497,-0.4543094386530472,-0.11560004877402677,-0.04894367580284011,-0.08211401287675585,-0.015232312127288955,-0.008507324784378984,0.02878955839453886,0.08912740408132076,1.578125
-0.9418001123429292,0.2054695178566273,2.678233216431873,-1.2691992965652668,0.11794631948297357,0.11258262979482758,-0.6762209669062018,-0.1720631885110107,-0.07223138269301574,-0.1223685061695099,-0.022413106340083137,-0.012629236949990134,0.04271549319141642,0.132673112633298,1.5859375
-1.6592250489617713,0.3617437576280131,4.716451560558711,-2.235385480345926,0.20753711702007993,0.19854680280161796,-1.1911064706355952,-0.3030311267088389,-0.1262668780567561,-0.2157746746852885,-0.03907238137780624,-0.022187704323904153,0.07501709724634965,0.23369544494276315,1.59375
-2.9229823956411027,0.6370110196718778,8.306104575178752,-3.9370024323339745,0.36535312737919307,0.35002278670072773,-2.0981728825081207,-0.5337654222736001,-0.2214721989972951,-0.38035528595073237,-0.06841493441122651,-0.03901931298353359,0.1319007524263823,0.411632527475972,1.6015625
-2.3453477561549323,0.5111515248455432,6.664635099088717,-3.159156115544325,0.29322194568714094,0.28079907417242334,-1.6836275144186907,-0.42830779222809906,-0.1779594708462869,-0.30517045529379216,-0.05499341067205293,-0.03132090321480237,0.1058852449653827,0.33033025900334845,1.609375
0.7442568524315628,-0.16186663523262584,-2.1122597674245522,1.0009137067442635,-0.09261127820731012,-0.08952253366803921,0.5339020617196725,0.13581293784714962,0.05480518071284243,0.09714339450507307,0.016756183257115444,0.009835454193983413,-0.03320427736251744,-0.10460975478618555,1.6171875
2.7796610106459005,-0.6051891891998211,-7.894246651119239,3.7415275090791558,-0.3468056583565556,-0.3334835000568397,1.9948221626629514,0.5074661013263206,0.2081538261452138,0.36220460160065326,0.06401689461397246,0.036947088136278436,-0.12483179362955342,-0.3911316411314941,1.625
1.0889606657424247,-0.2368566618692999,-3.091667694539335,1.465124274998883,-0.13567989606114592,-0.13082560877934174,0.7813506655963398,0.1987711968387915,0.08078160754944241,0.14205667308869693,0.02475139779061026,0.014425579296801728,-0.04872257659884173,-0.15311225748481813,1.6328125
-1.4714034134050524,0.32083434708453373,4.181495755342807,-1.9822776123226906,0.18405584118739848,0.17605152778369973,-1.056323530264086,-0.26872617569732654,-0.11211584144449374,-0.19133860779589293,-0.034703311388440634,-0.01968075044612551,0.06654289145203672,0.20728353877965963,1.640625
-0.977109640545894,0.21309296811656608,2.77793638933656,-1.3167746129302833,0.12231694271752024,0.1167848968764748,-0.7015102728240797,-0.17847420546410053,-0.07488757348690758,-0.1269532113130706,-0.023227842830212935,-0.013099413657433365,0.044311264798859946,0.13761558911891095,1.6484375
1.417210052672,-0.30847328814158637,-4.02286572046461,1.907057125969403,-0.17670899551589755,-0.1701942948765192,1.0170747693377522,0.25871091436393123,0.10548131446769363,0.18484319139336802,0.03235962398027613,0.018791545943156643,-0.06345346936143627,-0.19950444971595718,1.65625
2.0464188850779093,-0.4455000176420744,-5.810236524730864,2.7543330671204354,-0.2552982686741214,-0.2455869626663549,1.468749968659308,0.37360892403919166,0.15287823065907621,0.26676658987971,0.046962871082391854,0.027172920089137357,-0.09177919615198737,-0.2880761757932277,1.6640625
0.6777073602088808,-0.1473472998170409,-1.922682478593643,0.9115101119620018,-0.08436035053650633,-0.08152582200942163,0.4863253204165681,0.12370971503643818,0.04977249362244025,0.08851382228067474,0.015188538682172747,0.008942613777633918,-0.030185158872817086,-0.09534399124199847,1.671875
-0.3352949194789678,0.07329423681095582,0.954658922616952,-0.4524988985834203,0.04217524525520002,0.03988470077481596,-0.24090175620348206,-0.06124202460664079,-0.026531300218115974,-0.04340960966834254,-0.008318439871456263,-0.004548640391015074,0.015393826707394002,0.04732803484486715,1.6796875
-0.36555046266740393,0.07988305361587655,1.0406576839192578,-0.49345220555311115,0.04598453143769733,0.043518999211554506,-0.26274215504198584,-0.0667742250117955,-0.028812744523063146,-0.047352457700870036,-0.009013984581110959,-0.004947749238251087,0.016742250620715247,0.05164152782513499,1.6875
-0.2811589136585976,0.06152022275673633,0.8008163625630165,-0.3800212299015752,0.03546247654889371,0.033422039806413006,-0.2021549316249341,-0.05140209219352393,-0.022464085145338847,-0.036363592072000725,-0.0070566145665737715,-0.0038200798435164816,0.012938759508431394,0.03977810936500103,1.6953125
-0.12925637700021494,0.028461426248629906,0.36905100816262326,-0.17544463406274427,0.01648984018726421,0.015210749859825358,-0.09303790198291931,-0.023704543056729484,-0.011010086008155022,-0.016574757042697626,-0.003531853735524036,-0.0017972046882966418,0.006104162160631627,0.01837726874500142,1.703125
0.1862945319752649,-0.04023083974525985,-0.527262885997609,0.24965397806519352,-0.022933301518056014,-0.022637636479503863,0.1334899203104539,0.033904516842214176,0.012788351618968703,0.024536192293310877,0.003792930960208537,0.002401919311842867,-0.00808837127690272,-0.026065262862143224,1.7109375
0.02402795803895409,-0.004860633458436443,-0.06589976764809988,0.03127784250821611,-0.0026842341436988347,-0.0032064032639967017,0.017035409273030596,0.004291415880548723,0.0005678300769196435,0.003422033660403426,1.777383872967079e-05,0.00023708721362606684,-0.0007655177401718147,-0.0032481216801670655,1.71875
-0.5787157917365511,0.12638712616609415,1.646686739120072,-0.780336633116545,0.07258084747328979,0.06904003966847691,-0.41552970032724607,-0.105751750631566,-0.04487044878695365,-0.07507408626450648,-0.013986879150058274,-0.00779268895481221,0.026384674554118897,0.08154711486845208,1.7265625
-0.8138064892752531,0.1775208032300565,2.314763639994959,-1.0968190546664576,0.10193334764553742,0.09722438144003114,-0.5842189309587793,-0.14866732777050987,-0.06260728279273674,-0.10571561208434013,-0.019448986266823027,-0.010925070052643978,0.036978190916331005,0.11458441230032464,1.734375
-0.9336472803963045,0.2036211794921359,2.655417736189717,-1.2579805575078364,0.11689320369064538,0.11158852961649454,-0.6702748306328355,-0.17053320663716676,-0.07162872938209755,-0.12134847309092475,-0.02222997154128181,-0.01252267516675002,0.04237587135217903,0.1314629946257132,1.7421875
-1.6498043757403293,0.3596810600881697,4.689736554006421,-2.222221960783189,0.20633257886351491,0.1974204799330692,-1.1843738575860747,-0.30128787583763866,-0.12556079933910316,-0.21461281414170902,-0.03885609442123706,-0.02206145727455463,0.07460921021845392,0.2323501282145003,1.75
-1.869788597383227,0.40762299157661,5.314045012924584,-2.518683907792932,0.23381260186302885,0.22377793707033955,-1.3422858549569885,-0.34145884721843844,-0.14212408212464808,-0.24324192810551726,-0.0439578476188793,-0.024988940390072826,0.08449899682509039,0.26337683459369754,1.7578125
0.10283216910078462,-0.02210573202682055,-0.29035506923433246,0.13706505157946333,-0.012538834554098518,-0.012661054800991348,0.07358551592562457,0.01872360257110232,0.006491250822587252,0.01365951869479124,0.0018570939887518096,0.0012889405657231941,-0.004318592550228566,-0.014300266093785678,1.765625
3.21129649838597,-0.6992404138858481,-9.120942584144094,4.322365077279514,-0.40073961979547096,-0.385220558459855,2.304677112908284,0.5863034354000236,0.24067856472697752,0.4184603108449302,0.0740439541460861,0.042694877394734966,-0.14426764674589618,-0.45188461706791905,1.7734375
4.194846165499141,-0.9134805275408234,-11.914763590943396,5.646694127467149,-0.5235517160011661,-0.5030791224884762,3.010593300981708,0.7658789827377498,0.3147677599733687,0.5465360780952216,0.09688154345540052,0.055797044773982875,-0.18855641352308242,-0.5903437430890007,1.78125
1.8124903959474261,-0.39455103148672266,-5.146801559115184,2.439017368209972,-0.2260119953531834,-0.21751856072908538,1.3006720135205039,0.33087553302220596,0.1352668832927987,0.23629508341608052,0.04155732688030892,0.024066036328997172,-0.0813156783166808,-0.25500040327042495,1.7890625
-1.4200002308507487,0.30955515273918915,4.036119491143526,-1.9132806163213671,0.1776629510995232,0.16992237855694278,-1.0194140557256666,-0.2593235923152544,-0.10826704461834634,-0.18464517015055154,-0.033505728048265127,-0.018989981778066194,0.06420480870898528,0.20001654379876246,1.796875
-2.2964499877158926,0.5004923943615368,6.525967693715394,-3.093208518947471,0.2870819912040771,0.27497444592226217,-1.6485051477527983,-0.4193372431212,-0.1742858486108548,-0.29877512117134225,-0.05385965788800048,-0.03066618888135888,0.10367080775701672,0.3233902552010752,1.8046875
-0.6394790641703604,0.13959333218284406,1.8187871279926993,-0.861969487505099,0.08013660223739388,0.07637308405821823,-0.4592747862820512,-0.11682622478485616,-0.04945462959328305,-0.0830024661885183,-0.01538927797681126,-0.008599080364454215,0.029094504225509785,0.09011151066586444,1.8125
0.9092186737714426,-0.19776484696435584,-2.5807515447484324,1.223403156560605,-0.11325818745613181,-0.10927243577144134,0.6522986143994878,0.1658997156371348,0.06720165943891661,0.11866936932560554,0.02056483679976582,0.012025623697710802,-0.04060356755773056,-0.12796197386613584,1.8203125
0.5183755982199022,-0.11264619476078579,-1.4700640249064203,0.6970534808878085,-0.06442854398143967,-0.06246022118329877,0.37184795394756304,0.0945364907841067,0.03774990730970945,0.06777325149659275,0.011483986969901997,0.006816837858906848,-0.02298994419030317,-0.07296467697414889,1.828125
-0.7911033097218636,0.1726327346036843,2.250526916678113,-1.066342273362005,0.09912343315705965,0.09447359679375035,-0.5679730091232037,-0.14452690637619922,-0.0608826583208677,-0.1027494810922918,-0.018923359940427185,-0.01062600705056279,0.03596636982493238,0.11143793554759433,1.8359375
-1.3180718479555842,0.2874768938506772,3.7477580701855326,-1.7759433659888468,0.16494879225347903,0.15763366060115208,-0.9462265943078249,-0.2407316816885055,-0.10055770698605063,-0.17137675980040257,-0.031155926576731656,-0.017643810702006133,0.059679552116142676,0.18569483531993708,1.84375
-1.1005840917929932,0.24008758018120016,3.1294330374095085,-1.4828713953400843,0.13777984274659533,0.13156617104755516,-0.7901348447449706,-0.2010098764688104,-0.08416261699323606,-0.14306698893507816,-0.02609858610619007,-0.014744553596486307,0.04987071293151932,0.15507978429684657,1.8515625
-0.8344399723434546,0.18203854577646067,2.3726718233425252,-1.124345146643382,0.10451238818965453,0.09967417673346562,-0.5990334745604862,-0.1523770230905442,-0.06411385624129293,-0.1084280329478532,-0.019910154220236793,-0.011196866827526436,0.03787407144674747,0.11758237210298465,1.859375
-0.30003817167558583,0.06558758422896994,0.8542220392468699,-0.4050112534863245,0.0377593733572106,0.03564657675123213,-0.21540655800892955,-0.054780313665498605,-0.023857334855100058,-0.03884832434834788,-0.0074944446977949705,-0.0040757089557390816,0.013807247716950542,0.042367293518927554,1.8671875
0.5558048804517028,-0.12081195310774245,-1.577020107408966,0.7469318256926992,-0.06910841172113644,-0.06690653590524061,0.39879795969274173,0.10144661960675794,0.04061681283442471,0.07261883088320815,0.012380861309964375,0.007326477475485491,-0.02472575936906636,-0.07806558350426343,1.875
0.946727107761277,-0.20592376177852087,-2.687491960808477,1.2730990341163295,-0.11791845943471803,-0.11375363412651109,0.6792380839346759,0.1727675593325548,0.07006468484441289,0.12356337949466412,0.0214560615259876,0.012534005773989826,-0.04232516186664164,-0.13308351297346613,1.8828125
0.7931012013308232,-0.17245366167773696,-2.2510399339069407,1.0663673275881103,-0.09873856175823412,-0.09534830665412486,0.5689023968007784,0.14470392677089183,0.05848411826006236,0.10357737915240744,0.017884639632493874,0.010486132508959788,-0.035405321901827644,-0.11148678437594006,1.890625
0.7910645751873069,-0.17202081610495248,-2.2451230343169724,1.0638142679084779,-0.09848264042683033,-0.0951128987890313,0.5674502521754955,0.144348832143277,0.05832092024245114,0.1033006803489208,0.01783342241442176,0.010457096599083018,-0.035307350178717826,-0.1112278258968153,1.8984375
0.7088399346104244,-0.15410229000815012,-2.01137533230402,0.9531590205054037,-0.08820450829680691,-0.085256307396215,0.5084571310328676,0.12934429796529331,0.05211930160209288,0.09258288503779898,0.0159204068625768,0.009361551547276019,-0.031602878154056484,-0.09965651712063615,1.90625
0.12517142334708745,-0.026949858008126385,-0.35320709226697156,0.16725089500622378,-0.015314916066078073,-0.015289153296647205,0.08955828507331832,0.022776476949977538,0.008141743361241457,0.016582499445886762,0.002363018541276756,0.0015879919076388967,-0.005328164452956004,-0.017495947011134654,1.9140625
0.0577249279923268,-0.012270233428183116,-0.16150528123614916,0.07652093572785591,-0.006893312827939513,-0.007203664378518948,0.04118017048716093,0.010469721842736902,0.003050005172176645,0.007792770273885723,0.000793127416812556,0.0006889604678061394,-0.002288669304783987,-0.008026945717283145,1.921875
0.9671364723462748,-0.21039025492035415,-2.7447676365821554,1.3012140325842363,-0.12045050890098123,-0.11622182861976235,0.6939105098888219,0.17651908510458655,0.07155636887544178,0.12618802135212656,0.021909687961942596,0.012799182501037098,-0.043218232268718425,-0.13607316451960347,1.9296875
0.9325244701955786,-0.20285470263947938,-2.6463270101009475,1.254728305971657,-0.1161270135996416,-0.11209163101146773,0.6690690299263812,0.17019509236639555,0.06896386791484191,0.12166607142975865,0.021109061999349973,0.01233564701408833,-0.04165185270495979,-0.13119869607924606,1.9375
-1.0589717897994497,0.23096003845997792,3.0109989748539814,-1.4268018283727582,0.13254548326154583,0.12660617693459003,-0.7602524720896106,-0.19341716779612864,-0.08104308891059976,-0.13764904317130916,-0.02513165452627693,-0.014190804794329994,0.04800020414037753,0.149162525755254,1.9453125
-2.585808703241527,0.5635419627751195,7.348202281848807,-3.4826635097273857,0.32319368421081696,0.3096117437009287,-1.8560285477694205,-0.4721718519729078,-0.19605874197707568,-0.33645516476231313,-0.060584840372985636,-0.034527823765706324,0.11673044163148366,0.3640913157924493,1.953125
-1.640203787836835,0.3575354422094888,4.6617465259011714,-2.209370119188353,0.205114331674413,0.19625513352926946,-1.1772857503625729,-0.2994970505974448,-0.12482259687100236,-0.21332416601855342,-0.03862456288602345,-0.021933618302154085,0.07415763919215104,0.23096341960614675,1.9609375
0.07430638587820891,-0.015958264060362097,-0.2089522162876598,0.09911092830017801,-0.00897640855566305,-0.009258820434958352,0.05323901032795149,0.013548496402759852,0.004344501897635444,0.009929849851117589,0.0011947231283659433,0.0009036670538215088,-0.0030328243115195688,-0.01037372437719728,1.96875
0.3782428759971015,-0.0821685500837978,-1.0724978960745601,0.5081334965228399,-0.046931147657124556,-0.0456765504237189,0.27128783648506904,0.06902828470368143,0.027242663170953987,0.049519125330503413,0.0082575236745976,0.004955051735188006,-0.016725628540349414,-0.05312504912073868,1.9765625
-0.13575899567080288,0.029823419730309938,0.38758621848670816,-0.18409264616436571,0.01725772519188141,0.015954269141687093,-0.09771939075355641,-0.02483962525611767,-0.011494681541124254,-0.01739638052796442,-0.0036819869332313615,-0.0018886781107329772,0.006409635837599745,0.0192472901203041,1.984375
-0.1213763817620962,0.026753119511965552,0.34683741141483765,-0.16477579622486072,0.015479798339604235,0.014251642827913689,-0.08741942020267071,-0.022239419995013582,-0.010425117676701044,-0.015525437601085972,-0.0033564441208183814,-0.0016956445391153251,0.005768775713544847,0.017238125067023106,1.9921875
0.41818580917421555,-0.09070946663362851,-1.1855843450289143,0.5615398936321973,-0.0518803070351303,-0.05038818446440084,0.2998783101136208,0.07623516843493774,0.030227760666643906,0.054711386751824936,0.009168843575781396,0.005493899885395463,-0.018510534299736085,-0.058670956203317616,2.0
1.142703092894423,-0.248502857912983,-3.2435091208581444,1.5369369688655063,-0.14235508269360111,-0.13720502607524473,0.8198906938020873,0.20848626262751901,0.08481613201026433,0.1490352482883912,0.025992022255083985,0.015146193358555899,-0.05111844885017931,-0.16063203327915007,2.0078125
1.7440388254837624,-0.37952689378679455,-4.951926590907069,2.3469230060115844,-0.2174668701098975,-0.20931393312984772,1.2514485988804733,0.3183040404753057,0.13011110429039444,0.22735147915198325,0.0399522612247484,0.023152149846671882,-0.07818674827855997,-0.24533429648241573,2.015625
1.3250256314152917,-0.2883233147951346,-3.7618063139846925,1.7832150205133235,-0.16517438440491075,-0.1591612460003061,0.9507658981205629,0.24188519104054979,0.09854525788631163,0.17283102621125163,0.030221158733389545,0.017565410194886433,-0.05933184822328539,-0.18644821550019447,2.0234375
-0.2529952470763253,0.0553592597694779,0.7213360408478695,-0.3415318973194953,0.03185817216870812,0.029959897451745824,-0.18166694310181386,-0.04616830247354428,-0.020316335522207147,-0.032626556960269594,-0.0064147273567818465,-0.0034524298599338627,0.011689979164710039,0.03564467918032535,2.03125
-1.3856836824415213,0.3020710529858217,3.939491010459001,-1.866978365530206,0.17331984710022055,0.165772990691512,-0.9946135142854744,-0.25300215168284873,-0.10564384359639518,-0.1801430631024449,-0.03270807184561601,-0.018534530843095497,0.06266924264175404,0.1951247378356395,2.0390625
-0.9889813781877166,0.21566069699452184,2.812192500936646,-1.3328132981770877,0.12383235959319552,0.11826186734372589,-0.7101088079200781,-0.18064362556481367,-0.07578855741164305,-0.12852955918874034,-0.02349675602024986,-0.013252273981760895,0.044816441364962614,0.13932232172006023,2.046875
-0.12751320284316986,0.028021539635769078,0.3642020200538194,-0.17260520734567697,0.016284464087871067,0.014988508361416691,-0.09195891834111587,-0.023382996170119463,-0.010915731200758623,-0.016371558532104185,-0.0035003741564393967,-0.0017857987439529707,0.00605410382391134,0.018063451434704104,2.0546875
-0.04743519993099312,0.010609040707331062,0.13673114845246223,-0.06486282454686887,0.006262803433843598,0.005370411092536543,-0.03434121863574628,-0.008738752724554913,-0.004871458411921048,-0.0059439642180206375,-0.001646376426963276,-0.0007218544687878838,0.0024660831826656677,0.006801019224755323,2.0625
-0.5252074892470383,0.11471928605269768,1.494448862227186,-0.7084883343024646,0.06589700277360616,0.06265135294940477,-0.37706656318287984,-0.09595907695660219,-0.04084033186757967,-0.06817140617879933,-0.012739571092029825,-0.00707985025724097,0.02397698359681558,0.07409307663967095,2.0703125
-0.8253468974870298,0.1800969077795533,2.346733149301463,-1.1125963940725143,0.10337615533364906,0.09863477773353584,-0.5925263448264442,-0.15077132321730727,-0.06344470414171323,-0.10726592037191311,-0.019702103202465723,-0.01107268000494682,0.03747563774650954,0.1163641252630066,2.078125
-0.38964013685258825,0.08513848187042933,1.1082138992777886,-0.5256574641570622,0.048958711254141106,0.04638328248601375,-0.2798993775261474,-0.07121067979574612,-0.030616646303046512,-0.05049026875947938,-0.009576450377737751,-0.005269832203312842,0.01784472766462302,0.05498310497304955,2.0859375
1.094742388551078,-0.23822529236392828,-3.108151992415278,1.4730091976390327,-0.13643921193902225,-0.13156004908393182,0.7855576515788316,0.19984128140523774,0.08122517315132569,0.14287594808605908,0.024892091649480422,0.014500609814407341,-0.04898074173528586,-0.15405435866178105,2.09375
2.4821352361791655,-0.5403836344692751,-7.04800736600207,3.3408223393080996,-0.3097006279940472,-0.2978403693165471,1.7814008410277336,0.45315250442315125,0.18574773010697737,0.3235661143761365,0.057097016150672225,0.03298109715916525,-0.11142252517269381,-0.34937735289882116,2.1015625
1.5194829362275168,-0.33062438290055,-4.312936158049459,2.04454118116405,-0.18944622765501457,-0.1824313669884659,1.0903923389453964,0.27735266294009503,0.11320420142206765,0.198164573708154,0.03473304770847887,0.020157647570069992,-0.06807282000231211,-0.2137969199510753,2.109375
-1.5815380840226505,0.3448511896057429,4.495284813845109,-2.13074216392778,0.1978304110133248,0.18925733220466873,-1.1353436426675698,-0.28884083210322065,-0.12042624306149834,-0.20569475085847755,-0.03727150185414449,-0.02115055881012224,0.07152027745825003,0.22279714347552723,2.1171875
-3.2439369711563133,0.7068939199993363,9.216914663717331,-4.368922512647288,0.40540316625582634,0.38849322281120957,-2.328401328448807,-0.5923169235750848,-0.24564980132836042,-0.42216642572883817,-0.0758611069841858,-0.043294076491794634,0.14633624077877644,0.4567931458027234,2.125
-1.4576447481185364,0.3177399597177359,4.142660428789354,-1.963592151859569,0.18231185700011646,0.17438510065274304,-1.0463647456252312,-0.2661554033948582,-0.111069039969145,-0.1895401219565425,-0.03437434057329386,-0.019498109130808454,0.0659100343115697,0.20528233984133504,2.1328125
1.1513289263796038,-0.2505659418771016,-3.2685022077781407,1.5493249150205826,-0.14346521154567096,-0.13829838641771253,0.8259432673016102,0.2101391530838078,0.08545697061961254,0.1501809302833942,0.02620599884252433,0.015255902876882766,-0.05153299031315082,-0.16198864870762805,2.140625
1.5615756044900098,-0.33990186370134995,-4.433917296406763,2.101491520599198,-0.1946615836072965,-0.1874393854000402,1.1203560211286312,0.28499544945104055,0.11633618447190643,0.20358116267315157,0.03572357656787069,0.020721770750601484,-0.06998847049490804,-0.21971008441371498,2.1484375
0.594952062456045,-0.12929606751441955,-1.6875918333375082,0.7996794728458125,-0.07395773495340413,-0.0715817748872642,0.4268575955804199,0.10854003387296772,0.043521580033905986,0.07772001809549424,0.013267037693431152,0.0078472110506329,-0.02646394282821871,-0.0836239210489581,2.15625
0.33371540310025155,-0.07232375501707633,-0.9447010938124474,0.4478668166620275,-0.04135250268834655,-0.04029642761202592,0.23949282184665585,0.060887979704813196,0.02387096236078579,0.04371384638493459,0.007195671645213243,0.004366916272282473,-0.014695209559879067,-0.046822151327523084,2.1640625
0.4089981807266269,-0.0886786363077888,-1.1584317093313254,0.5493383111885097,-0.050738250109953774,-0.049332880238062406,0.29330484772443066,0.07460956201575865,0.02955777187284766,0.05349349974567431,0.008949498174144732,0.005367293467179323,-0.018080000392390178,-0.057353458538490665,2.171875
-0.25627800557698266,0.05620812841189689,0.7306464363262889,-0.3463689826257581,0.03236287321084459,0.030409351284485187,-0.18433989217360305,-0.04689712451553812,-0.020570085453350147,-0.03315295586977185,-0.006488677046770847,-0.0034959080986804087,0.01185804644142143,0.03631958203713032,2.1796875
-0.7409621462052541,0.16169253113939433,2.1067621796065397,-0.9989004929208422,0.09286985524540049,0.08849190222639775,-0.5320649386212576,-0.13536384096142895,-0.05709540453379369,-0.09622524715816468,-0.01773837338231916,-0.00995160882853165,0.033655264992272754,0.1044541920680439,2.1875
-0.006803233857218539,0.00167833151351332,0.021122017255929177,-0.010170179256243155,0.001140111705992839,0.0004790603437946992,-0.00504681583188383,-0.0012684641512408761,-0.0017862561336980827,-0.0005657416389980211,-0.000688278718103079,-0.00017211165877796273,0.0005928728897732486,0.0009837761248930382,2.1953125
0.7585274658815991,-0.16506131456580164,-2.1528938097148673,1.0204771612800747,-0.09445998373728533,-0.09123884024645176,0.5441028588246026,0.13845692950327915,0.055875660646413555,0.09909921693248686,0.017087126632427604,0.010021550649724492,-0.03385452025369214,-0.10677474725090487,2.203125
0.19336389091297257,-0.04190489424634854,-0.5475460169750941,0.2594127458032502,-0.023874949426189084,-0.023468249553500495,0.13845305576151667,0.03522292136412802,0.013297986358577879,0.025463998964353245,0.00396147267148829,0.0024927459296260846,-0.008397485630819513,-0.027162738565578142,2.2109375
-0.7221366759441504,0.15759044609284975,2.053184267015838,-0.9734531763833633,0.0904633620704775,0.0862605346740254,-0.5183547043621205,-0.13193714428882458,-0.05567624599645862,-0.09378134727146335,-0.017310036877707515,-0.009702950926637892,0.032833602957556676,0.10173945492903096,2.21875
-0.40070142387380253,0.0876097362191721,1.1405887871432814,-0.5407011433107775,0.05032049111470427,0.047705888367721425,-0.2875135404889851,-0.07322367096682787,-0.03146092716633966,-0.05192617739502011,-0.00985709006101635,-0.005423536556700484,0.018380232794373542,0.05648419638155797,2.2265625
0.6290431559505983,-0.1367085109900707,-1.784063383336217,0.8458139945222695,-0.07827607345023417,-0.07572350123017461,0.4513694459562507,0.11480156421421303,0.04612259172749558,0.08217459607946967,0.014057923103845559,0.00829192390566323,-0.027974323261144733,-0.08845651586171023,2.234375
0.6464540380513131,-0.14052921069017574,-1.8334361402736497,0.8692041121618048,-0.08044270125475651,-0.07779622940916489,0.463730480849486,0.11799202993999203,0.04744473366035985,0.08444268734256709,0.014473799165781748,0.008526715910999351,-0.028778000149886584,-0.09087084331816715,2.2421875
-0.6425850943279472,0.14023842739489348,1.8279910592300161,-0.8664342770022931,0.08054542711991261,0.07670242993601886,-0.46132715806164887,-0.11733476692275827,-0.04966185552707858,-0.08343215148632196,-0.015452643570783844,-0.008639256668539147,0.029228692763896464,0.09060818824501232,2.25
-1.8367679646872463,0.400363787297509,5.219901689106915,-2.4742554076739367,0.22969375963028738,0.21982244092475373,-1.3183899583082352,-0.3353664856517367,-0.13963812482700186,-0.2389599556466787,-0.04318413777236363,-0.0245445672030189,0.08298161640503825,0.25872681396708797,2.2578125
-1.631008241356135,0.35557680293507077,4.635216539154339,-2.197216657994884,0.20402936538849228,0.19517169439307913,-1.1709381819063094,-0.297851991250436,-0.1241588073112883,-0.21215701024376846,-0.038410318638200616,-0.021804628808554757,0.07372221493456044,0.22978239903047332,2.265625
-0.0725351229081482,0.016150694121234155,0.20815329474875416,-0.09898509726289967,0.009437852176269008,0.00840134778418238,-0.05256433928250948,-0.013372324839505777,-0.006761792575202194,-0.009172966143199741,-0.0022248353894159466,-0.0010450299966398209,0.003565161946777434,0.010401358498907123,2.2734375
1.6308898720146052,-0.35488214583162997,-4.630463463823698,2.1944866748338105,-0.20328498336410272,-0.1957557011135452,1.1700776076581876,0.29762109807976206,0.12157438336844333,0.21266816808823172,0.03732864980771613,0.021646479929017835,-0.07311404751538757,-0.22941450378498895,2.28125
2.1763661146117776,-0.4737373126153772,-6.179591531196765,2.9290524175254147,-0.27144046707763864,-0.2611300246357852,1.5616899278257494,0.3972472541345202,0.16267968438944053,0.283686617007691,0.0499956144188361,0.028911925767706643,-0.09765871533866022,-0.30624278308715586,2.2890625
1.2502270923955952,-0.27204903837728056,-3.5484054165271743,1.6821875764528662,-0.15582606099187304,-0.1501170504150585,0.897058500217065,0.22819228848352702,0.09290965256852561,0.16307914350389596,0.028489503848184872,0.01657286959435978,-0.055959180250916736,-0.17591780125027204,2.296875
-0.21943327533992585,0.04805780132302913,0.626353138479984,-0.29659775854516907,0.02769016821984493,0.02602290660880734,-0.15762442340261212,-0.040119897357911785,-0.017808321330454926,-0.028286773797568412,-0.005637736280697526,-0.003005707012629739,0.010197453919700063,0.030929961089397637,2.3046875
-0.9072118861330931,0.1978623607708912,2.5795248766299963,-1.2225375957022824,0.11358328195677829,0.10841932183656151,-0.6511845627589469,-0.16568348552117787,-0.06961129115211374,-0.11785676120321145,-0.021603502898341894,-0.012168008534271198,0.04115150007233872,0.1277548239293881,2.3125
-0.39421762669742216,0.08610637025420155,1.1215958700241702,-0.5315791544170996,0.04951323224308264,0.04689368629927216,-0.2831072942330842,-0.07200200917764073,-0.030949438251806356,-0.05108119963719481,-0.009683111303150855,-0.005335171184947054,0.01805338111587094,0.055581976835519145,2.3203125
0.33686769600056793,-0.07313187339557393,-0.9554019242412436,0.45281400157711815,-0.041800401947639426,-0.04074177359242782,0.2415042920446721,0.061486240310842565,0.02412982922079794,0.0441192408884386,0.007293404190271019,0.00440302401227515,-0.014855951011693961,-0.04730588665586558,2.328125
0.1509863846417732,-0.032606288513249995,-0.4272042437770114,0.20220289707651337,-0.018580548197706832,-0.018442915983364783,0.10821156811959283,0.02752148946393468,0.010113728392309795,0.019927205913136115,0.0029679858011318755,0.0019277252824090277,-0.006481306618252494,-0.021136637919398557,2.3359375
-0.5668303401253252,0.12376222277144432,1.611966092076284,-0.7645962977981056,0.0710928558405272,0.06762161717669707,-0.40683072547644084,-0.10356679374685983,-0.04397994635403234,-0.07356302748320936,-0.013704994254789445,-0.007632798671923624,0.025834864811458774,0.07992204269449021,2.34375
-0.5340351017723556,0.11658941356248127,1.5188798065088747,-0.7204007144825515,0.06701478418265408,0.06370998391701668,-0.383368839374513,-0.09756876760740701,-0.04151588822518242,-0.06931350376406975,-0.012938388747098236,-0.007195122932038683,0.024352177689840847,0.07532056364738632,2.3515625
0.18431964161394296,-0.039880359898450665,-0.5211537185634143,0.24691181964896747,-0.02271144772818637,-0.022388256558383696,0.13206208747343637,0.0336156832543723,0.012611832628430903,0.024256788969560465,0.0037443925733393318,0.002374380220357837,-0.007986625046571615,-0.025809881670970022,2.359375
0.25833786598556063,-0.05592214218500543,-0.7305601662956701,0.3464357208061684,-0.031969971058398376,-0.03126457869646742,0.18520093946277652,0.04711895421223637,0.018202264265846514,0.03393284255033573,0.00545382576133147,0.0033602463536977737,-0.01130424521019595,-0.03623084256354543,2.3671875
-0.48181351999074085,0.10536371342301959,1.3721158460969474,-0.6501873286761377,0.060483889250269866,0.05745200750658852,-0.34599628628342227,-0.08806073483030746,-0.03756261664515175,-0.06247067639027953,-0.011741482718065991,-0.006500679664652712,0.022025542466369303,0.06799239350535013,2.375
-0.8061118469876271,0.17594774913640365,2.292629232460921,-1.0865356258661985,0.10101533160342296,0.09633306671889516,-0.5788988503691339,-0.14729010092602612,-0.06201606986834718,-0.10475112633369016,-0.019265608829217643,-0.010821542764284462,0.03661159417175188,0.11365436264592153,2.3828125
-0.3869512251528323,0.08453570600320065,1.1014764392429917,-0.5219216164201284,0.048666361179209854,0.04610029668271897,-0.27815696675612317,-0.07073932063797833,-0.030444294374767856,-0.05016486949230075,-0.00951830281905204,-0.005235082667669401,0.01772132171233981,0.05459536463095031,2.390625
-0.06656345345447195,0.014725931858862173,0.19171039347597918,-0.09073285494808901,0.008628839232161402,0.0076940653794373625,-0.048055674542084814,-0.01221774591962696,-0.006286871515276443,-0.008389183449865778,-0.002074109023621639,-0.0009632212069535791,0.0032938826223316404,0.009440903206056799,2.3984375
0.09565890601832099,-0.02055653369755475,-0.26900350901410963,0.127500296806248,-0.011635783324734814,-0.011768236854234794,0.06850801321770394,0.017406438409537716,0.005946016877242721,0.01277041055306535,0.0016864837877952545,0.0011959386894254366,-0.004002756628306812,-0.013390683583950935,2.40625
0.6669102833408773,-0.14499054613674475,-1.8926657907505764,0.8969314327246081,-0.08296087225196766,-0.08026136520023723,0.47836129087047496,0.12169705966790284,0.04896367192968485,0.08714766549982894,0.014948936505132682,0.008798855335149972,-0.029720672905426022,-0.0937911385490948,2.4140625
1.1157328270031466,-0.2428213198700904,-3.1684692332130515,1.5015357760642627,-0.13901219017847616,-0.13406624546447005,0.8003414659275011,0.2036368547530551,0.08276222362513563,0.14556800981010637,0.0253776891779088,0.014775531180820515,-0.049931359752123886,-0.1569848110933865,2.421875
0.617168614600448,-0.13422717136808834,-1.7516652078586545,0.829983932833492,-0.07677072726339629,-0.07429770242009491,0.4426799320119362,0.11262058463857433,0.045220798537714456,0.08063192038266594,0.013803220095074306,0.008139337987637388,-0.027482111870300523,-0.08679295218815378,2.4296875
-0.08584292895067018,0.018992612223579477,0.24657458736997742,-0.11701686479240841,0.011009729072189068,0.009974048352741812,-0.06163916681500574,-0.01571093651240054,-0.007718550188580358,-0.010909989841964191,-0.002531547514414082,-0.0012220521907553234,0.004180264398714664,0.012214456201440049,2.4375
0.1468388023152737,-0.03162789536960042,-0.4140885362612051,0.19632080034046592,-0.01804569356966638,-0.01792525806377574,0.10532955324674816,0.026777955128504574,0.00980736705196785,0.01940399877423244,0.002860683696890295,0.0018744444536732087,-0.00628412392509276,-0.02052833004511949,2.4453125
0.6697588157224023,-0.1455512254715473,-1.9000342240539758,0.900710285191686,-0.0833410507944487,-0.08061304972334034,0.48049698662910906,0.12223138379340877,0.04919153750038276,0.08749646734264914,0.015005520305197794,0.008838020243695168,-0.02982383812012701,-0.09416958834346803,2.453125
0.09388828887682363,-0.020140247902093532,-0.2642952280275596,0.12531902661138225,-0.01141725217036467,-0.011575713810565585,0.06724922720908061,0.017076432637427405,0.005813350662874824,0.012471479507304827,0.0016417554167502378,0.0011706179382014127,-0.003904549193430094,-0.013099060494888402,2.4609375
-1.2421342295578184,0.2708875044754617,3.5311775266974754,-1.6737852252291463,0.15542996618637478,0.14858787637568185,-0.8915202250261696,-0.2268446764196112,-0.09483328104076588,-0.16153986219699082,-0.02938047191836904,-0.01662272910827501,0.05623261983635942,0.17502180250470065,2.46875
-1.6661523654732553,0.36324970849062993,4.735482306635412,-2.2446884245887895,0.20837657596616077,0.19942624171094955,-1.1959692382542058,-0.3042689504852719,-0.12679340033915446,-0.21674836978256581,-0.03923032263353516,-0.02227300722790726,0.0753150124995909,0.23472406398660814,2.4765625
-0.676492918713912,0.14764873479904472,1.92375595580619,-0.9119947966370063,0.08478950355112025,0.08080274144849171,-0.48586910638829356,-0.12360920518376713,-0.05225447860934403,-0.0878476402795177,-0.01625020603985877,-0.009093856565883266,0.03076381884983975,0.09536943093089278,2.484375
0.42062770030340185,-0.09134664808800318,-1.1925647730251778,0.5652180159980691,-0.05220020710641674,-0.050707496858687064,0.30160639387960575,0.07670105390967896,0.03039829148820565,0.055022095963014495,0.009226247468612036,0.005519716346444907,-0.01861802418597351,-0.05910168477724795,2.4921875
0.5585339652526751,-0.12137598005949696,-1.5836962634347214,0.7508023830442048,-0.06941200838856629,-0.06724440863957568,0.40074223515851215,0.10192149150013347,0.04079521265674296,0.072973670482876,0.01242602704613348,0.007357252513547177,-0.024819192420658047,-0.0785132686723415,2.5
0.390180013440291,-0.08470570337130207,-1.1055502296387327,0.5241586344685323,-0.04840775824554948,-0.0470705848670783,0.27983087880320984,0.07119841172250192,0.028113196160051826,0.05107649408742978,0.008517202175475278,0.005113361168405742,-0.017241132989552745,-0.05482075581840102,2.5078125
0.8300433293379953,-0.18054155392210222,-2.355824073197841,1.116534674920186,-0.10336020500748477,-0.09980044837826586,0.5952965589750968,0.15147001659105808,0.06125118415686643,0.10839454653489106,0.018738297195965217,0.010969967066678535,-0.03704976413837343,-0.116760286939311,2.515625
1.0696002727726999,-0.23273956294413625,-3.03677381343457,1.439170237792667,-0.13327258987700577,-0.12853062289617367,0.7672037939581592,0.19519034896842652,0.07930523853388888,0.1395919520495855,0.024306494229682344,0.014159421050738674,-0.04784228419879014,-0.15048556460222057,2.5234375
-0.15317352575479967,0.033614592854331764,0.43684861961588706,-0.20719523140935953,0.01943830309550131,0.018014508856751023,-0.11020504490583274,-0.02802092061965894,-0.012805996489536686,-0.019662862611585015,-0.0040888251396851835,-0.0021271931523431345,0.007195301062669586,0.021660879367432915,2.53125
-1.780501189340912,0.3881061785342023,5.059699862852967,-2.3984009279748433,0.2226558124233531,0.21307286919126686,-1.2780282302436496,-0.32510671113182893,-0.13539844216392505,-0.23157990115466506,-0.04187844015006255,-0.023798707870186727,0.0804455960948285,0.2507578115137017,2.5390625
-1.4897141944705403,0.324791329045281,4.2337951457732785,-2.0071435149364816,0.1863390313857729,0.17824864399055984,-1.0693422776990427,-0.27204476072313216,-0.11348781718894276,-0.1937014023910085,-0.03512332230283863,-0.01991818682598172,0.06735466556312417,0.2098380190887817,2.546875
0.4627472401263259,-0.10049492235227472,-1.3119971895953038,0.621561672736488,-0.05748036539434144,-0.05575444979470373,0.3319392085904337,0.08440696576941623,0.03360870649891515,0.06054525548338269,0.0102162514910344,0.006092982074051453,-0.020530667292839356,-0.06500806811090536,2.5546875
1.4063655507985882,-0.30606215249531604,-3.9918502861191665,1.8922598259929237,-0.17532604006187072,-0.168862579209537,1.0091956342418265,0.25671847019909766,0.10469873056645083,0.1834035329314377,0.03212423276829435,0.018659456380334283,-0.06299969501975937,-0.19786207332334718,2.5625
0.5170712054259674,-0.11236467164603353,-1.4655188989224786,0.6951439129880449,-0.06428145234908125,-0.062276765812078784,0.3709310714490732,0.09437538591249123,0.03769319860732631,0.06758352433897002,0.011467207817663312,0.006808160168149388,-0.022961250546944804,-0.07269484042639202,2.5703125
-0.21139737285511223,0.046365276176851634,0.603474416102417,-0.28569741425156586,0.026706923558141287,0.025045379803197886,-0.1518885862696773,-0.03865918779177261,-0.01720307193387022,-0.02728811201389163,-0.005456880244110223,-0.0028982301247074036,0.009839046438754868,0.029869683749364374,2.578125
0.3252968287484925,-0.07046471004987817,-0.9213762451107272,0.43679666453511073,-0.04028074483402135,-0.039289135618960754,0.2333553719523024,0.059293136426918,0.023219553891192703,0.04259478424749626,0.006997487843147113,0.004250087390595445,-0.014310053430201999,-0.04564838102559701,2.5859375
0.7325936706707417,-0.15918728467290874,-2.0785898117092088,0.9852774505491909,-0.09113813935491342,-0.08813409552138247,0.5256537624186356,0.13366749156852542,0.05390292211427661,0.09564195811526098,0.016454372931650682,0.009673386773336266,-0.03264257813629385,-0.1029865876514296,2.59375
-0.11856119640654807,0.026124779405330513,0.33871273254588824,-0.16057576725847056,0.015129080731445123,0.013879750072593774,-0.08537271850830444,-0.021714153434943952,-0.010222541376409036,-0.015186064006944392,-0.0033003895167464333,-0.0016671580574082552,0.005661256443202592,0.016808325842787582,2.6015625
-1.2215736168859772,0.266318205694009,3.4713744129571746,-1.6458068953395302,0.15285995111096945,0.1461166320963208,-0.8770944652914394,-0.22310916640912898,-0.09332286639297872,-0.15883741499383888,-0.02890100249676321,-0.01635889955624356,0.055302349807819354,0.17209750070033322,2.609375
-1.0932593675231796,0.2383771233920929,3.1068388921849315,-1.473305897498331,0.1368407160347204,0.130756103272207,-0.7848866735235333,-0.19968471184096387,-0.08364462332288415,-0.14215028926273704,-0.02591588597044927,-0.014645039068320619,0.0495243235095376,0.15407491995874845,2.6171875
0.1428110401951874,-0.030849157836495243,-0.4038318487776455,0.19096216194745616,-0.01753025194329204,-0.017418792972103643,0.10238531955141121,0.02602673719442062,0.009498073420821549,0.018833559314008912,0.0027865164321327126,0.001822851832168138,-0.006119375558437147,-0.01994958906576547,2.625
0.9186555293304509,-0.1998657178440617,-2.607112731291868,1.2357950425133888,-0.11444056131954262,-0.11043266459262063,0.6591643071946729,0.16770065151865896,0.0679522081505989,0.1199176209332485,0.020800967458086805,0.012155977806099777,-0.04105123844156021,-0.1292455605004164,2.6328125
0.21887292602475394,-0.04743202951404319,-0.6189173271636701,0.29359267247675375,-0.027047480661705862,-0.026549397848036015,0.15679482487975707,0.03991158855190919,0.015220603772524705,0.028811212226875278,0.004549064422398514,0.0028330542831966595,-0.009550979327769401,-0.030758947428801822,2.640625
-0.7975096558511722,0.17402687187609717,2.2684358302113483,-1.0751429517080868,0.09990887964948617,0.09528073526271408,-0.5726668487759955,-0.14568421643848325,-0.061350060279136365,-0.10356205360425587,-0.019055952951653295,-0.010704387507438086,0.036211925638066744,0.11238429145669965,2.6484375
-0.21196983838845104,0.04652371191585438,0.6051020243880846,-0.2868025769813404,0.026796075265470422,0.0250793252643534,-0.1523262406217849,-0.03876302653607431,-0.017222150908792255,-0.02731170028854641,-0.005461326198513351,-0.0029045433711931234,0.009858875169050041,0.02998862067892957,2.65625
1.358898930240546,-0.29570408532253484,-3.8574350294434128,1.8285496851564043,-0.1694017899703344,-0.1632154077533241,0.9750882175376298,0.24806735829522777,0.10112288450474667,0.17727896805974502,0.031017341553761082,0.018017691511663447,-0.06086316460076597,-0.19121238656456818,2.6640625
1.2677462511427853,-0.275920547102996,-3.5988273344621895,1.706006286351561,-0.15804344139242965,-0.15226209876107186,0.9095576664391868,0.2314131255687003,0.09423959047756686,0.16540984790274227,0.028904560323414628,0.01680402544081364,-0.056770089106048596,-0.1784322798617806,2.671875
-0.5482728943290197,0.11967018922375437,1.559668210507532,-0.7392721632406495,0.0687544611290977,0.06543892948889882,-0.3938402822252133,-0.10018478499320851,-0.04258023905128513,-0.07112286740263817,-0.01326370460758132,-0.007380730951531338,0.02497989183829201,0.07726619993944041,2.6796875
-1.1060174333293404,0.2412385378390107,3.1440852188343147,-1.490362734545721,0.13844556254364032,0.132284061471861,-0.7940337576740292,-0.20203025518890969,-0.08459569631613571,-0.14379719556039008,-0.02622067183724899,-0.014807744514202673,0.05009732039353311,0.15585247820773537,2.6875
0.12497637335073404,-0.026860018665515156,-0.3525448672286185,0.1671542603810148,-0.01525101105250471,-0.015293377231145606,0.0895616832468775,0.022731803037023726,0.008137292992959224,0.01649816970961774,0.0023542842693682017,0.0015845184198531705,-0.005303849568568541,-0.01743646221011886,2.6953125
0.085725266976228,-0.01832452685204683,-0.2410643134786343,0.11430228146932263,-0.010355996620400747,-0.010597751690755039,0.06140947548498876,0.015581194154465272,0.005173421371503786,0.011390868920643574,0.0014394515308450056,0.0010571438533695196,-0.003529017154487457,-0.011921206755099271,2.703125
-1.6611451519758242,0.3621518470015764,4.720697470887375,-2.2378842821328453,0.20775527109219286,0.19880100349122354,-1.1923558364165618,-0.30334455062338755,-0.12642142251677826,-0.21609330811085956,-0.03911684865673972,-0.022209110351716445,0.07510219131766933,0.23401756239607235,2.7109375
-1.4514944770383136,0.3164427649877709,4.1245641201449645,-1.9555765694441853,0.18154658979138605,0.1736859360239153,-1.041926914550388,-0.26506448558472345,-0.11062281012677866,-0.18878654092233496,-0.034240142897082805,-0.019412797891396723,0.0656499906724526,0.20449769078328517,2.71875
1.354237580313593,-0.2947506228281593,-3.8455158018703046,1.8223593214131422,-0.16881554448829053,-0.16261753888878708,0.9717155653741288,0.24718193145028045,0.10073381860816161,0.17659543712610407,0.030910872589641054,0.017957778791143787,-0.06065673312147481,-0.19053817326820996,2.7265625
2.3296385204694645,-0.5072120107884713,-6.615564817054786,3.1356736578639763,-0.29058748933345113,-0.2795433375056377,1.671762067021679,0.4252546982857285,0.17420800896437164,0.3036139231849399,0.053556328661187896,0.030945457468742762,-0.1045527647046131,-0.3278722401551555,2.734375
-0.10189586830811846,0.022476363799718596,0.2923226207000446,-0.13845564305088817,0.013062129107284836,0.01189454860007016,-0.07330704544598808,-0.0186670415967682,-0.008949881377631733,-0.013028395755986615,-0.002904774026035267,-0.0014436617015269402,0.004914927977770246,0.014470265993619605,2.7421875
-1.554550000754203,0.3389242136646306,4.419116137597065,-2.0944526695514427,0.19443669331698907,0.18600593250558362,-1.1158650368387717,-0.2838559328600412,-0.11836063332021435,-0.2021648347326985,-0.036633651384481686,-0.02079086531600175,0.07030041838682861,0.21898076068630226,2.75
0.4906690987675256,-0.10657494974293297,-1.390537955875239,0.6593852830776858,-0.060983881397483064,-0.05913932660104086,0.3519404855747137,0.08955075047142678,0.03571181301258647,0.06422329848662547,0.010854188480363425,0.006453251460037376,-0.021778235196996926,-0.06898719411679857,2.7578125
2.4445824519436092,-0.5321704850630727,-6.940841486388903,3.290213576398157,-0.3049763979897787,-0.29332978451453273,1.7542489056956159,0.44626599932735767,0.18289477468741,0.31868650434020207,0.05621850504898729,0.03248099277740273,-0.10973586273498447,-0.34407672657658117,2.765625
1.1595787065923677,-0.25225114722652014,-3.2909123825656112,1.560044387941462,-0.14450590134027447,-0.13928848849074138,0.8320327978242507,0.21165640554052556,0.08609173775120664,0.15130997739899785,0.02638164362396965,0.01536684168428622,-0.05188881542516164,-0.16313802667164937,2.7734375
-1.3167318188028834,0.28710668549133084,3.7424219795512896,-1.7739554778280628,0.1647219396649447,0.15753775542142817,-0.945278055346697,-0.24045166248254635,-0.10045487664559032,-0.17121624436990965,-0.031106833011765263,-0.017617332574216694,0.05957483801016991,0.18550544198769273,2.78125
-2.0501084194374948,0.4467860434056719,5.824667150664122,-2.761241932720475,0.2563116284007754,0.2454326116251994,-1.4717739912962924,-0.3743827219985546,-0.15571532491133527,-0.26673176482091854,-0.04812547853696171,-0.027388030332776956,0.09257790817873196,0.2887357539237483,2.7890625
-1.285768298422293,0.2802980469243416,3.6533742842706265,-1.7322442913524336,0.1608753864871619,0.15379914721841983,-0.923212771073053,-0.23487086618390657,-0.09814504838649422,-0.1671726671376163,-0.030381154483782306,-0.01720846308542479,0.058176458528468714,0.18111323821324657,2.796875
-0.4765097959880702,0.1040860831066384,1.355305654770012,-0.6428090605514194,0.059807112078114476,0.05679301505744066,-0.34221209608075015,-0.08709466509931814,-0.037170970122884735,-0.06177662973343298,-0.01160224267391641,-0.006428828596482188,0.02176319937284236,0.06719339756804088,2.8046875
0.0032358966496064887,-0.00040026743822714635,-0.006948104159232054,0.0032189148586981623,-0.00011371653722175552,-0.0007040704593348733,0.0022267077811189296,0.000549705995265528,-0.0010207561525504504,0.0006741477673568049,-0.0004670757690513726,-3.9052970382323505e-05,0.0001736988588754786,-0.00033206903897216246,2.8125
0.31566050191307443,-0.06849777220454609,-0.8943123601849713,0.42400248102627985,-0.03910716193357677,-0.03814610030703318,0.22637371457673533,0.05759639519612515,0.02250490273001383,0.04133515683208328,0.006790808891573725,0.004120854218600279,-0.013893393721309624,-0.04431627650759441,2.8203125
0.6264422346994972,-0.1361838417351947,-1.7766071195395137,0.842324237521106,-0.07788935184314562,-0.07539530212011054,0.44937105439559655,0.11431359565755446,0.04590755653043586,0.08181374000726786,0.014004230527347299,0.00826064542717722,-0.02787937106108092,-0.08807033606710496,2.828125
0.9892927341357362,-0.21514406437458997,-2.8065106318263364,1.3306829859903042,-0.1232057636847036,-0.11888478204845128,0.7099212791979808,0.18056756582491493,0.07325281733018757,0.12908432455307206,0.022419397566894855,0.013096358504647184,-0.04420113394751102,-0.13914518311381466,2.8359375
0.8975378663625448,-0.19513370333183205,-2.5460383239122213,1.2071598499042784,-0.11175855484793878,-0.10788627517836925,0.6441626899813088,0.16382165750222094,0.06635076096716419,0.11713564795121739,0.020287491823394312,0.011875927544390003,-0.040069230106582955,-0.12622456414816377,2.84375
0.04829237917195516,-0.010210653669517266,-0.13497899606369176,0.06383329207308176,-0.0056924001096143465,-0.006096107167163441,0.03452073202515468,0.008727044371940162,0.002364446231794991,0.0065367507053969934,0.0005800971899227005,0.0005633987166022467,-0.0018555163698830473,-0.00667139436730501,2.8515625
-0.612827082689994,0.1337629824752,1.7421018352029545,-0.8263373926359161,0.07687242072460652,0.07315463735958153,-0.44015243846627117,-0.11201596695661295,-0.04745026717054693,-0.07954636900626223,-0.014761648661940045,-0.008243313136011994,0.02789018392023246,0.08641151367023593,2.859375
-0.26088961606630856,0.057143736818054396,0.7428047940532568,-0.3525935093262733,0.03288790608011156,0.03098781638788195,-0.18756034539744887,-0.04772558660256675,-0.020929753290450603,-0.03369563627103878,-0.006592974488562078,-0.003554788903940148,0.01204693484151109,0.03688356599570434,2.8671875
0.3234629185712201,-0.07013480901881444,-0.9162949646514542,0.434224734395688,-0.04012109798453114,-0.03905469922280756,0.231948035473826,0.059029936037979236,0.023099970012207618,0.04241182448158784,0.0069698825861542685,0.004228424784005915,-0.014252929255552577,-0.04540545740966254,2.875
0.25020412381308627,-0.05425999218047469,-0.708000845033638,0.3358043866118997,-0.03096689742158351,-0.030303776895891855,0.17937987484051832,0.04567548642049957,0.017574265300038038,0.03287050964234008,0.0052717185737335736,0.0032495770592606507,-0.010956531077189744,-0.03515794645884997,2.8828125
-0.13261548401181739,0.02906412273543459,0.3790960353640348,-0.1794670058757473,0.016862269601692903,0.015555675609361993,-0.09546204626448107,-0.024241933223190716,-0.011269572176529272,-0.016994685524461546,-0.003610006399082813,-0.0018522955515958561,0.006272542590535902,0.018713476006395686,2.890625
-0.5442034099087767,0.11876785026996844,1.5478165768915035,-0.7337238268536945,0.06826804571918464,0.06489544979452891,-0.39088816018785344,-0.09942007135837869,-0.04226537730365731,-0.07061558728536702,-0.01316539202088132,-0.007333738675497717,0.02480371074997585,0.07672114997871503,2.8984375
-1.1580928504465589,0.25258210478541937,3.2914517689694907,-1.5604881124356507,0.1449334985558039,0.13849651915388833,-0.8314218434711658,-0.2115325299366751,-0.08850424010153439,-0.1505708063922369,-0.02742575255860974,-0.015508126113408743,0.05244666626491242,0.1632091413606115,2.90625
-1.1853604192677123,0.2585508087931755,3.369335735103202,-1.597256119486323,0.1483481766568075,0.1417688894010171,-0.850968138672953,-0.21652029953297874,-0.09056500451091333,-0.154107968574382,-0.028065887951531383,-0.01587103012870591,0.05367909992620641,0.16703330316394155,2.9140625
0.2010178926850755,-0.0434726899392944,-0.5680917397457422,0.2695173422634408,-0.024789738926382344,-0.02441196652100764,0.14401173091567007,0.0366382558203302,0.013873588711310423,0.02645718127079832,0.004124681727727608,0.002594078083792364,-0.008731193374558658,-0.028189331068342673,2.921875
1.677973155003161,-0.365228003427595,-4.763522066877232,2.2582028148423965,-0.2092577042611649,-0.20144451307598915,1.2040439636751508,0.3063414492550868,0.12514880239820025,0.21880867747560878,0.03842479319761778,0.02226789366009019,-0.07522368496045417,-0.23613192557390553,2.9296875
1.4502366730661622,-0.31563361855708844,-4.117405104612622,1.9515307972017266,-0.18082525209271752,-0.17414029050954505,1.0406734718975672,0.2647459646852647,0.10799518497343291,0.18915335928141364,0.033141034042297436,0.019237864851168008,-0.06497881980832745,-0.20407530054751102,2.9375
0.33559362516243435,-0.07283218991579422,-0.9515434651547574,0.45069644641122114,-0.04160582946810042,-0.04052155358218472,0.24074576025771255,0.061182283573777294,0.02400937559968004,0.04398037209424606,0.0072563349516003624,0.004393019295777812,-0.014802148953622378,-0.04716757792446076,2.9453125
0.1310913615432781,-0.028274626017602892,-0.3701278105467899,0.17530601645561653,-0.01605085160611913,-0.01599521222108864,0.09398924161112163,0.023832853849299528,0.008592561928527141,0.017311837306701796,0.002502267965989985,0.0016680967111724013,-0.0055859927911582575,-0.018362225544144954,2.953125
0.24228609935640907,-0.052477157122241276,-0.6855028279594381,0.3249205139177592,-0.02994306905681006,-0.029327804525023954,0.17379663104850565,0.044166838048686645,0.01697847600848583,0.031771331895433595,0.0050831391524887555,0.0031475077659139355,-0.010580405941324547,-0.033970148441552064,2.9609375
-0.746240915104084,0.1628792884233324,2.1224506444213262,-1.00612877927906,0.09350559167705998,0.08914017931626472,-0.5357349308526057,-0.13631204374173267,-0.057480718949735436,-0.09694054694063545,-0.017868874932820127,-0.01002023680975299,0.03391998920247534,0.10522166271150052,2.96875
-1.7251795922896644,0.37614675904871325,4.903198739182133,-2.3240825170206567,0.2157803241360083,0.20647046835367297,-1.2384800061133416,-0.31507297176962235,-0.131235491391474,-0.22439887131754324,-0.04060118752640935,-0.023060897080012435,0.07798101519063125,0.2430312879409434,2.9765625
-0.9113867022656114,0.19886766683383797,2.591701081631357,-1.2281471837426114,0.11416977459766647,0.10893049490208342,-0.6545318584378709,-0.16648447830456417,-0.06994310549364215,-0.11842834009279665,-0.02170615662377408,-0.01222437349040273,0.041341096254902114,0.12845459082857277,2.984375
0.48985676903515024,-0.10642483031921586,-1.3888740979626975,0.6585788832023386,-0.06083426246762679,-0.059034349284850844,0.35121310743061035,0.08939920917652841,0.035616098047337806,0.06403900756266151,0.010834781692240097,0.006438046339933769,-0.02174198629654552,-0.06882668463909748,2.9921875
0.31032571557718847,-0.067361401759705,-0.8793959545853367,0.4166535134877672,-0.038437683417958154,-0.03752187613626467,0.22252511384571594,0.0566324845402982,0.022095590703788557,0.04067269018748929,0.006669968941588551,0.004049079243742796,-0.013664861419551649,-0.04357269322480707,3.0
-0.41665609076408106,0.09101747360682574,1.1854445789167773,-0.5623511784115129,0.05234571542071933,0.04963754287300212,-0.29915364641021874,-0.07613560280227842,-0.03267406610114,-0.05398741712007912,-0.010213251144070283,-0.005629848502648643,0.019058948284768003,0.05876407590142804,3.0078125
0.4383817767836858,-0.09521517207945186,-1.2434367419735486,0.5890050364795616,-0.05443031197657158,-0.05282876505602945,0.31447488518741845,0.0799626483574413,0.03173471114423863,0.05735516510221068,0.009638589323728915,0.005760199350841595,-0.019431292244966942,-0.061609810814070104,3.015625
1.4599490796745604,-0.3177785527766659,-4.14551419058744,1.9646921147885665,-0.1820253105698712,-0.1752963173738022,1.0475856141390627,0.26650763783825526,0.10870301640536177,0.19039786705215128,0.033365629935733235,0.019364783165447333,-0.06541879590957855,-0.20544463230890897,3.0234375
0.1662347842639401,-0.03598288190735947,-0.4705550067722648,0.2227752192153257,-0.020494832986647084,-0.02025515304773843,0.11903664042237597,0.030304600232737323,0.011263064677252205,0.021944614021305542,0.003331371048058955,0.0021314249458863656,-0.007176988033846693,-0.023323373788064154,3.03125
-1.563079007720313,0.34078491281669004,4.442303488734454,-2.1058216396806917,0.19545668165719363,0.18704002598833983,-1.1220607820950084,-0.28547331053688285,-0.11899828064402586,-0.20326921621486785,-0.03682847706521722,-0.020901126343373908,0.07068427257017879,0.22016454551602588,3.0390625
-0.39842447993745983,0.08715299011037148,1.134570354791466,-0.53769575213418,0.05002837081529223,0.04746476291086388,-0.28606731957110354,-0.07283805934047483,-0.03125609511900789,-0.05164155808799324,-0.009793244323692727,-0.005387479592070323,0.0182697205250884,0.056235220028428894,3.046875
1.8827652011841454,-0.40979345973118597,-5.345107804474617,2.533976360458484,-0.23483503894538965,-0.22598651945940249,1.3511985848252612,0.34371997607829313,0.14059546601056952,0.2454305109270113,0.04317747459815564,0.024995451601248737,-0.08442574060377467,-0.26493714072010105,3.0546875
1.289227758148526,-0.28057370309386714,-3.658936050731177,1.7348857918112657,-0.16070128041664622,-0.15487841586004342,0.925085335462252,0.2353958976791338,0.09587588726632253,0.16818867071627028,0.029402161373810524,0.017088628524356105,-0.05772819671536797,-0.1814214984319148,3.0625
-1.0313713863581568,0.22490772910186768,2.9328250996626966,-1.3897934036586665,0.12912147468638593,0.12328662592507954,-0.7405748358540939,-0.18833752167951176,-0.07896487181778335,-0.13399363086052246,-0.02448113659610917,-0.01381880107770702,0.04672163769755713,0.14527481959838934,3.0703125
-1.2473666732426487,0.27198528656565163,3.545642886062022,-1.6807352633566344,0.15612328160900715,0.1492170364980849,-0.8955901812175945,-0.2278493636290708,-0.09526303749497995,-0.162170217128148,-0.029501430484681943,-0.016693519366518278,0.056450831028941106,0.17571914080425732,3.078125
0.03465851554393329,-0.007240652271519372,-0.09672328558261366,0.04542185014458273,-0.003963474691486207,-0.0044356106979550475,0.02461834583864844,0.0061890734730336286,0.0013056312882779955,0.004730154932056766,0.0002607345436441053,0.00038121442963825303,-0.0012433856392812075,-0.004725487142599139,3.0859375
0.04977835551139624,-0.010486051457440401,-0.13948742287941873,0.06580596103093822,-0.005854746655158541,-0.006261822286746461,0.03549442078199465,0.008969418183268523,0.0024534172157373614,0.006694656103484482,0.0006063636738063488,0.0005798670978757508,-0.0019126845908359574,-0.006824080169902554,3.09375
-0.24236583258120342,0.05316482610843036,0.6907785048989663,-0.32746515703644063,0.0306094802380591,0.028744381324223873,-0.17416387585436108,-0.04432916056683504,-0.019538014584105746,-0.03132853477608215,-0.006176250941950894,-0.0033108683272521392,0.011235080535319622,0.034295123978774204,3.1015625
0.7895590852667675,-0.17168299243351445,-2.240622334156515,1.0620473706765696,-0.09829551870905485,-0.09494836965678992,0.566554042536119,0.14411803422190045,0.05821506144689277,0.10307808794434005,0.01779389869363319,0.010436521720284635,-0.03522918011534843,-0.111041131135287,3.109375
0.9147943002374231,-0.19902742110299057,-2.5964563334402992,1.2305603816758974,-0.11396704348903125,-0.10996430915349749,0.6564837216444603,0.1669987611220304,0.0676533328866985,0.11941778126019714,0.020707657855934532,0.012104062002958535,-0.04087297043508939,-0.12871814869130074,3.1171875
-1.3733448904892325,0.2994153293940039,3.9036125141023934,-1.8505304921395171,0.1717883655205418,0.1643004154715911,-0.98586807118078,-0.25079041689393744,-0.10473237763362113,-0.17853921491964989,-0.032426712272170706,-0.018376078434254244,0.062129993730144675,0.19344022853401607,3.125
-2.7714266587268517,0.6039940984122978,7.875136523238279,-3.733020639451713,0.3464211431150835,0.33189629316696506,-1.989440832135687,-0.5060856675677625,-0.21007133870126665,-0.3606386041773902,-0.0648921980584615,-0.036997170295454955,0.125064407333813,0.3903241302921381,3.1328125
-0.7879781614389707,0.17190646810612192,2.2405382512030405,-1.0622585999002232,0.09873383450088302,0.09417563172720858,-0.565849454663986,-0.14395486453857656,-0.06065112755379614,-0.10240209368745298,-0.018829827987167175,-0.01057318281663862,0.03577578200780526,0.11109609601058294,3.140625
1.8530517715052657,-0.40343001233947295,-5.2616613719546494,2.4938392207429767,-0.2311176262871165,-0.22238393864275005,1.3298380738152706,0.3382662521805763,0.13832395286516286,0.24151312434729902,0.04249733897138034,0.024605964606725633,-0.0831045179881735,-0.26075681120835054,3.1484375
2.198823383193571,-0.47872035422215625,-6.243371511233173,2.959449946535446,-0.2743248003747908,-0.2638566692746285,1.5780806109827872,0.401421288381382,0.1643861037120439,0.28658895904483145,0.050517456047551076,0.02920544865619556,-0.09865656564581986,-0.3094742942951612,3.15625
1.1435125836339155,-0.24879870955762107,-3.245539279211877,1.5387461322495881,-0.14252085883621576,-0.1374083339523167,0.8205508665717783,0.20875518625798342,0.08488881085907873,0.14922118952406796,0.026008642075261445,0.01514218572208339,-0.051152024835472605,-0.16092732645977043,3.1640625
