AF3,AF4,F3,F4,F7,F8,FC5,FC6,O1,O2,P7,P8,T7,T8,time
-0.48793776957351725,0.10653487565377184,1.3883053237928613,-0.6581277664419732,0.0612800239598178,0.058210870257159035,-0.3503781516232055,-0.089177112277788,-0.03805547112170529,-0.06336837092959142,-0.011868599563055748,-0.006581338680058428,0.022287374827993426,0.0688356209524024,0.0
0.1488659706997283,-0.03214909416948107,-0.4208247881144589,0.19928650744271234,-0.018246502495961017,-0.018142893623422553,0.1065901074093574,0.027084219143377646,0.00991779549517244,0.01961736112424406,0.002914159411450311,0.001899841519377294,-0.006380564793768084,-0.020829801285856243,0.0078125
0.9635481937508414,-0.20957367603343252,-2.7348043735160967,1.2961282575263364,-0.1200213379411976,-0.1158193780121463,0.6913007688742296,0.17583638933357923,0.07131401158234821,0.12578279961852798,0.021828629779034343,0.012749740617403403,-0.04304811061271862,-0.13554948958467156,0.015625
0.4917949096455268,-0.10678970708868539,-1.394575534108266,0.6609518613457954,-0.06113587532103856,-0.05927129715923943,0.3528050961265953,0.08971766911886582,0.03579887677979338,0.06434501892711794,0.01087775845188209,0.006467422382291502,-0.021811316430840475,-0.06912911781802127,0.0234375
-0.4117382353490648,0.09003362753335858,1.1720469443396007,-0.5555267553504101,0.051694830405981114,0.04904657458590755,-0.2955778482863321,-0.07522554472736792,-0.03225813391270499,-0.05334698013926355,-0.01009813140469432,-0.00556257129019479,0.018846814664892707,0.05808813031519351,0.03125
-0.07930696988706393,0.017604894656930273,0.22794282617372338,-0.10789301457489603,0.010190564169504762,0.009198490287514802,-0.05701872829773707,-0.014509909003648215,-0.007216227807485341,-0.010041218812147448,-0.0023769933068648486,-0.0011317861026814817,0.0038675639846219223,0.011277885835369945,0.0390625
0.6876548517067999,-0.1494978890692658,-1.9503821682784064,0.9247718430884271,-0.08556903697085012,-0.0827514610534855,0.4932734533621437,0.12551276056155442,0.050553652752335254,0.08985092175241409,0.015433724781317978,0.009080858758098933,-0.030653486491287112,-0.09670684184624226,0.046875
0.08039431683083663,-0.01723948786529413,-0.22528905681710693,0.10709833234966595,-0.009712751803048867,-0.00996559558956507,0.05731988748825989,0.014607125021696254,0.0047904068877242375,0.010737515995238837,0.001332242291634077,0.0009873594119540773,-0.0033026831312350595,-0.011197745498789958,0.0546875
-1.2553980731966805,0.27374955423639724,3.5689871207455797,-1.6915538435872737,0.15710501111691402,0.1501666378066064,-0.90131674569446,-0.22929269277634187,-0.0958558840856476,-0.16324149305186753,-0.029691558125858806,-0.016805856363429343,0.05683349583326062,0.17687242981155737,0.0625
-1.3432850007997827,0.29290681109437117,3.818278406018072,-1.8099598863313788,0.16806447145187695,0.16071065149599742,-0.964245252725055,-0.24531192121411055,-0.10247991890557301,-0.1746630417538307,-0.03173719091757424,-0.017973808191409,0.06078218150428819,0.18923232288063957,0.0703125
-0.28306724454798854,0.06193946963866092,0.8061627099629055,-0.3824148678441229,0.03565805239659403,0.03362265934132207,-0.2032961735354775,-0.051717561425304565,-0.02260365967653996,-0.036584877419805616,-0.007113441925023484,-0.0038503528545764196,0.013048523382841976,0.03997059666122842,0.078125
0.19734323424126224,-0.04273540700220368,-0.5588678246181217,0.26447856984402307,-0.024318575708673806,-0.02395516113951794,0.14140511973859182,0.03596753813734497,0.013587470131131435,0.025933170282785873,0.004050992198763548,0.0025481081064730885,-0.008578236175202944,-0.027630121527036745,0.0859375
-0.41718137734756766,0.09112527075623598,1.1866899437893998,-0.5629354447169989,0.05243653440253826,0.049720805822994055,-0.29970050106953233,-0.07627363997528303,-0.03271349188057977,-0.05412476227233587,-0.010216719413867315,-0.0056377345949266315,0.019085432110548306,0.05889942008095135,0.09375
-1.0838262878669127,0.23635009644005264,3.0805095545584757,-1.460476178843002,0.13567603666168349,0.12962078827801896,-0.778158235409814,-0.19798591565014548,-0.08293611137103996,-0.14089974470387548,-0.025700388515505317,-0.014517585262498654,0.04909033738368808,0.1527109232952503,0.1015625
-0.7792842448045699,0.17001435256294356,2.215443586407058,-1.0502865557260657,0.09763075390216087,0.09309022754711296,-0.5596183432813352,-0.1423488065176181,-0.05999183753049427,-0.10118247483278564,-0.018630819912374984,-0.010462818026111693,0.035375166224752834,0.10978987639374757,0.109375
0.6720319741919456,-0.14610859050859867,-1.9072303110734203,0.903920112015959,-0.08360820799225802,-0.08088177913006049,0.48197035040284836,0.12264006298349842,0.04934194271634117,0.08782591758723006,0.015067180125579692,0.008865522778880898,-0.029951561709061793,-0.09453135024806178,0.1171875
2.3135366994756383,-0.503637178700695,-6.569788136454844,3.114114283965856,-0.28860593545624985,-0.27763722923453976,1.6601639877108716,0.4223321514737358,0.17301294997346692,0.30157068805137077,0.0531771825497171,0.030728409536672087,-0.10382354796689884,-0.3256123417114759,0.125
2.5064950751202044,-0.5456477870045869,-7.117170117378862,3.373900616274513,-0.3127348368370033,-0.30077436536272084,1.7988048805336634,0.457574659859544,0.1875740204817623,0.3266883065223379,0.05765309187218073,0.033300343655012936,-0.11248810410765178,-0.352789471476393,0.1328125
0.9946213857726872,-0.21634391157502206,-2.821941416017054,1.338132033295565,-0.12395737850841468,-0.11955158292046729,0.713833301658709,0.18156717118766816,0.07369336217537827,0.12979444215607203,0.022549978885962316,0.013167108607740506,-0.04442824886089042,-0.1399553166262233,0.140625
-0.254570974065463,0.05572414102942705,0.7264676403708547,-0.34409635862635113,0.032054083913431376,0.03022301678011211,-0.18269192002329768,-0.04650646669162699,-0.02042842252871269,-0.03290716689450871,-0.00645128023863856,-0.0034679328510683286,0.011790495484671057,0.035932758590119414,0.1484375
0.10168500774159754,-0.02189236583196688,-0.28609544503044315,0.1354507728958911,-0.012409260641119158,-0.01244716674168205,0.07297250856130964,0.018525465644489182,0.006385933603544616,0.013470450405526245,0.0018215985856586394,0.0012768577421047123,-0.0042586429636110226,-0.01419062663280227,0.15625
0.5808731618801241,-0.12625740468886198,-1.6478995190532064,0.7808700068163152,-0.07223920902119732,-0.06991531600980493,0.41680364303417466,0.10602226095447384,0.04248038916973866,0.07588538184451425,0.012946933137782848,0.007655703735210034,-0.02583543325133977,-0.08164341994076618,0.1640625
-0.5798332254169478,0.12660099470336178,1.6489516203540464,-0.7817088246233147,0.07272759871267041,0.06916429009664393,-0.41640081325570144,-0.10589644164160818,-0.04495524397728567,-0.07525269069869328,-0.01400277400146075,-0.007805842261844054,0.026403851349055586,0.08177587799534289,0.171875
-2.5369131501261597,0.5529328735646521,7.208480824193714,-3.4169558431915696,0.31717172335595023,0.3037628222589733,-1.8211646893627844,-0.46326598584726525,-0.19239534863399887,-0.3301206528751321,-0.0594420379959125,-0.03386952681187948,0.11448897030136988,0.35733930889954163,0.1796875
-3.3132133704296405,0.722055696392927,9.414160787582071,-4.462569715041475,0.41414838970744566,0.39686769039959585,-2.3783768229763225,-0.6050654374587338,-0.25088470658287354,-0.4312247116397812,-0.07746598318709187,-0.0442060294011981,0.14943277297755025,0.46666251631737904,0.1875
-2.243716232543794,0.48909088200274653,6.376441131856718,-3.0226421988300483,0.2805701189531167,0.2686816158483857,-1.61073639997884,-0.4098008227224973,-0.17030884114174955,-0.2919343550345889,-0.05263391575779305,-0.02996352666948938,0.1013018430591174,0.31607539527914463,0.1953125
0.15471208930877722,-0.03338654917201255,-0.4367926223209545,0.20697452511843653,-0.018993267514306134,-0.018849486869224892,0.11074392623699723,0.02815924178182123,0.010387294960082767,0.020433089653341698,0.003055558427941183,0.0019771625548961687,-0.006651906857579266,-0.02164523834308775,0.203125
2.600823381207355,-0.5662601139244517,-7.3857695001204124,3.500808615547269,-0.3244910390141801,-0.31208318591887735,1.8664404841782885,0.47480963202195176,0.19466799476181917,0.33899120062591276,0.05985419477654096,0.03455715694417136,-0.11675949017407712,-0.36606806156883126,0.2109375
3.103394423010096,-0.6757496175011902,-8.813679688131273,4.177584422192983,-0.38725336422873247,-0.3723204072811662,2.227190169690255,0.5665534626881524,0.2325274250124629,0.4044198150330708,0.07152435722126316,0.0412523216001102,-0.13937717107731504,-0.4368362817789061,0.21875
1.038323367797735,-0.22591841512020985,-2.947534574592339,1.3971034124276058,-0.12937193340629086,-0.1247930939794628,0.7450586603667639,0.1894898608896042,0.07695501784853144,0.13548192693011296,0.023572119668341194,0.013744264212567844,-0.04641222615148665,-0.14611920582785348,0.2265625
-1.2736497941351734,0.27766978669440406,3.620083987351186,-1.7157467664816748,0.15932264343061822,0.15231092017452041,-0.9143114769039105,-0.2326015515199037,-0.09721844724056328,-0.16556283727455978,-0.03011330450035979,-0.017053041092902656,0.057652096432983975,0.1793244864796484,0.234375
-1.3977126740151746,0.3046552433046118,3.9725868263368205,-1.88271927314311,0.1747895948142387,0.16717875500688237,-1.0034042491516972,-0.25519557918048047,-0.10656886454358971,-0.18166921419963056,-0.032993024412875785,-0.018702837555079642,0.06321641205040583,0.19675030532014667,0.2421875
0.012331450045818468,-0.002478044302042456,-0.03286984914384201,0.015678795678153588,-0.0012881297984878965,-0.0018034761365687498,0.008557800565553553,0.002256661129308172,-0.00035157115093930555,0.00194198968746369,-0.00025131836792408903,8.362813408653516e-05,-0.0002607074292216465,-0.0017142531676680047,0.25
0.899907190262893,-0.19573688153423385,-2.554339887837342,1.2104242593879342,-0.11207938138857029,-0.1081494740433009,0.6455828340731786,0.1642500439065655,0.06650212027010594,0.11743738132436285,0.020354707744493734,0.011906878411884005,-0.040195484701959536,-0.1265384440620292,0.2578125
0.7780520459211208,-0.16912770652135478,-2.208374700040883,1.046161052562886,-0.09681859023819964,-0.09351648376548655,0.5582012008721232,0.14195831405686923,0.0573194984060761,0.10148424991397449,0.017523019152928105,0.010282711991870851,-0.03469689376766092,-0.1092792329980171,0.265625
0.2359244918346305,-0.05103910658438261,-0.6681722511685261,0.31629262287077026,-0.02911926738535813,-0.028528238690274765,0.16923030161546254,0.04300494058306371,0.016497155860929612,0.030871754539305955,0.004939553617963407,0.0030644231373825825,-0.010302986506560849,-0.032956727195875904,0.2734375
-0.3613298690696782,0.07904295686324929,1.0290875586378607,-0.48779802979494036,0.04544791804373793,0.04305129589172882,-0.2593346309893984,-0.06600502333839826,-0.02847227282898014,-0.04687409636903536,-0.008924146205198935,-0.004886720818901163,0.01657317703800813,0.05107548509040749,0.28125
-0.40915725103729217,0.08948201091952292,1.1655416579919968,-0.5522973342758275,0.05142864790632946,0.04876066338142431,-0.293652636102324,-0.07476247865835091,-0.032070901978695464,-0.053066516617346765,-0.010039512758082968,-0.0055249397942343445,0.018737582327609886,0.05777577511278742,0.2890625
0.5397696724262446,-0.11721057910333839,-1.5300059312276237,0.7253534800501895,-0.0670637628032063,-0.06501134444057348,0.387327367987446,0.09845050571909295,0.0394066152852682,0.07055284323443027,0.011987492606983475,0.00710868287385895,-0.023965613476164792,-0.0758512318942748,0.296875
1.4005580002418963,-0.3047736388237149,-3.9755646590105553,1.8846255031403618,-0.17458937525600965,-0.16821394631362827,1.0050069145696041,0.25562892401515697,0.10425306849557874,0.18270318947872752,0.03197802532289152,0.01856980552760293,-0.06272170189533083,-0.19710359258547472,0.3046875
0.6942924352935987,-0.15101324339057232,-1.9695361239562712,0.9339596632618936,-0.08643319184980185,-0.08357278391738117,0.49800781770596814,0.12672520116777597,0.05105025211821787,0.090762493075302,0.015587133593410993,0.009161882800342544,-0.030945377812074477,-0.09773870874561613,0.3125
-1.0639288952389936,0.23195426854234025,3.0249955273495526,-1.4334333337115612,0.13313135013422311,0.12716832809153045,-0.7639523148567896,-0.19428600689843462,-0.08141393480834766,-0.13819261451374312,-0.02523768656952134,-0.01425614699805,0.04819497376567061,0.14977339279202262,0.3203125
-2.0654159241545655,0.4501527918609151,5.869868901140507,-2.7821186849068478,0.2582281643043865,0.24721359840047877,-1.4827808145671268,-0.3771721258524411,-0.1568760928524193,-0.26860799374587374,-0.04849810483515368,-0.02759437140246703,0.0932778209770095,0.29080055071913363,0.328125
-1.7993989866653368,0.39226288023599465,5.113865708509323,-2.4240754990138123,0.22504276891965452,0.21535104711771297,-1.2919137677222081,-0.32863426559565456,-0.13684918852708075,-0.23400096529630074,-0.04232457291023854,-0.02404997920480338,0.08130385996403237,0.25342776638428277,0.3359375
-1.1971798921770571,0.26110873330223905,3.402500940794038,-1.6132460263916226,0.14987761568223915,0.14321237679382876,-0.8597181540328113,-0.21870533735377728,-0.09150130865836033,-0.1556832090379234,-0.028340432014863158,-0.016028304418597313,0.054199710734324995,0.1687559514584321,0.34375
-0.7545668694028639,0.16468880596410856,2.1445598004329636,-1.0172986271159559,0.09463403265405866,0.09019756151050659,-0.5419764943412212,-0.1379082359397526,-0.058172455857991155,-0.09814734875799495,-0.0180609358789217,-0.010132754097876031,0.03428119571947924,0.10652023853126097,0.3515625
-0.0977441257401445,0.021581870075287585,0.2785973105263508,-0.1328458758302476,0.01257842217279905,0.011462617092785262,-0.07038462880312171,-0.017955916943676854,-0.008666260274908471,-0.012601941918371428,-0.0028037558215099068,-0.0013830463130117317,0.004709124956811813,0.014017295660569968,0.359375
0.8653359512235869,-0.18824423572671273,-2.4568419414352047,1.16403591055831,-0.10778165997844243,-0.10401573287790992,0.6210500879240128,0.1579566607076357,0.0639433930633445,0.11292046621692654,0.019567324486918294,0.011446383650898376,-0.0386562949952655,-0.12168326165966006,0.3671875
1.6606614463854021,-0.361505887312556,-4.715615702166061,2.234952527281179,-0.20716952574026484,-0.19937102601040654,1.1919996625139897,0.3032175168154872,0.12388791111569088,0.21656888622507456,0.03803645229510494,0.02204075760140307,-0.07445973980218723,-0.2337422728091059,0.375
2.0948226607498937,-0.45606427997252147,-5.9484271382500795,2.819513397928888,-0.26138426774894935,-0.25140519157492375,1.5035623404374137,0.38247840844823994,0.15657488406093534,0.2731109882534111,0.04810903127416369,0.02782348902051989,-0.09399076707822054,-0.2948906950709706,0.3828125
2.255564608949478,-0.4910518442569663,-6.404319122682978,3.0360367160305293,-0.2814260324655372,-0.2706746960541112,1.618765617627594,0.4118042013411,0.16866006175668857,0.2940353536861494,0.051830973148654244,0.02996248569689227,-0.10121047823189837,-0.31752609441511875,0.390625
1.6656498239953166,-0.36252335934946145,-4.727815594256629,2.2418373471184116,-0.20774182440020666,-0.1999959688182539,1.195257731594062,0.30409744039400255,0.12422450971810856,0.21723037716376084,0.03812823887143234,0.02210134770076485,-0.07464304994118126,-0.23447814849520135,0.3984375
-0.060688098317176184,0.01355234795398331,0.17625909775118076,-0.08275748337875409,0.007855470704196864,0.006908312752490703,-0.04374775875256858,-0.011100593485599233,-0.005817207371404959,-0.007573393909052213,-0.001957943226172222,-0.000894586726855899,0.0030739025342735884,0.008591989580812684,0.40625
-1.6809803171684516,0.3665108682366618,4.77834090257211,-2.2646880623873775,0.21022586195444942,0.2011435959536219,-1.2066305373134198,-0.30696332598414106,-0.12789324399580332,-0.21859803369885852,-0.03957963380948817,-0.022473437925861015,0.07600351779363558,0.23675715994455404,0.4140625
-1.6272295878690504,0.35477948082106925,4.624952740037534,-2.1923704186893636,0.2035538132693238,0.19474164002541008,-1.1681586965901736,-0.29718763798441455,-0.12387142440467894,-0.21163711404899108,-0.03832720069708754,-0.021753452277343533,0.073562613055713,0.22923340719714427,0.421875
-0.7666831444646698,0.16729721942598966,2.180121568794786,-1.03357315206823,0.09613824166914532,0.09162138848978611,-0.5507112633067908,-0.14010170833292418,-0.05906576592972042,-0.09962236862640769,-0.01833990271818763,-0.01029053351789491,0.0348066163540902,0.10812616249014488,0.4296875
-0.9544287076877173,0.20819135730420152,2.71329481120471,-1.2863863841615213,0.11962670891049744,0.11413923520173876,-0.6855206107893799,-0.1744088393868867,-0.07322133147926192,-0.12412738949228298,-0.022697492717531572,-0.012792710938063959,0.043256820975020184,0.13461435268721197,0.4375
-1.4006252275363738,0.3053898184955533,3.980599024967645,-1.8872465995446102,0.17533427017609657,0.16762334031250561,-1.0056309151495855,-0.25587549983440633,-0.10683184773243402,-0.18225387880943542,-0.03306076725648244,-0.018736866318717717,0.06335450986767908,0.19743840141588181,0.4453125
-0.3599980637596298,0.07868599777603727,1.0245162686876255,-0.4859783901333689,0.045294415898736264,0.04286813872197321,-0.2585580019800476,-0.0658270309845193,-0.028414167406291036,-0.04669000112243932,-0.008899734720271339,-0.004877191578819879,0.01652209699977474,0.05084868579995661,0.453125
0.7985801387507563,-0.17370712265442473,-2.266369521251589,1.0741156519435804,-0.09947370585656076,-0.09603384502773059,0.5730731431280632,0.14576377706634797,0.05889872919928691,0.10426458050054609,0.018004796935282265,0.010553551251304605,-0.03562960833617155,-0.11234948350743548,0.4609375
0.030774188451453733,-0.006425021457532564,-0.08507811254037619,0.040168823382920986,-0.0035970303436155676,-0.004007001174719846,0.02198527691697116,0.005580735736142079,0.0010782093965101779,0.0043192469395462695,0.0001814581470393438,0.00032816113331550153,-0.0010740458702859267,-0.004247716202328841,0.46875
-0.8603218922712648,0.18772860796764873,2.4462111359055876,-1.1597538810761137,0.10771957604910212,0.10281663773826437,-0.6176180292422414,-0.1571436615732741,-0.06604904566451929,-0.11172450070760746,-0.020507837493513675,-0.011538395348165784,0.03903175625363993,0.12124602244602013,0.4765625
0.4963131656663205,-0.10779631664990211,-1.4077415280436645,0.6672004096600783,-0.061701349370186925,-0.05980505492010112,0.35604322241966885,0.09056233491837651,0.03614572942920207,0.06494356008594067,0.01099069391397883,0.00652969147450535,-0.022034773268739555,-0.06978178436904182,0.484375
2.0832857830030727,-0.4535340041212082,-5.916121336391429,2.8044151090826688,-0.2599221282657615,-0.2500619229033499,1.4950154123564314,0.38035614870859324,0.15569224366792733,0.27162352508813237,0.047837662000536234,0.027662549137511563,-0.09346450371400011,-0.2932773952340407,0.4921875
1.3177469768115093,-0.2867854325221671,-3.7416656971731657,1.7736536939531373,-0.16431962473628317,-0.15831792743002196,0.9455152656136504,0.24059080137296482,0.09801023306187957,0.17193903379663408,0.03006063200716614,0.017464601353950133,-0.05900218358209758,-0.18550540566951113,0.5
-0.00393472722734312,0.001151777302242373,0.01312382102806959,-0.00627858969744202,0.0007883500534595976,0.0001229414280353683,-0.0031230507694789897,-0.0007600700637766444,-0.0015724746330258975,-0.00019212920704258948,-0.000631964613714259,-0.0001362611277878062,0.0004882969222837366,0.0006276575575636336,0.5078125
0.1907302167064408,-0.04124137056671439,-0.5391225752702857,0.2556071298591676,-0.023477707199404407,-0.023188389079567162,0.1366078111051818,0.03476171944833002,0.013085559301980106,0.025125872663291565,0.003885209657936739,0.0024591406128610174,-0.008275914616396289,-0.026734995808019763,0.515625
0.06272121576598137,-0.013390396047153778,-0.17503397494666348,0.08319797571546036,-0.00749243286070392,-0.00783055462392192,0.0447862401052627,0.011403439630403639,0.00344730097584306,0.00840931965000219,0.0009162938113846553,0.0007550522299464781,-0.0025102167547324016,-0.008693634593588248,0.5234375
-1.5391425128146747,0.33552428093957865,4.3752065069940045,-2.0738180831429247,0.192542923282189,0.18420742082378153,-1.1048415030993044,-0.2810711885761999,-0.11722680432271163,-0.2002433897412054,-0.03627274758367925,-0.020577833896904763,0.06959768015144277,0.216860264861943,0.53125
-1.959118675323631,0.42703250861931735,5.56794451135501,-2.6395464352947715,0.24500255094430942,0.23459273567588038,-1.406201695336771,-0.35779275699295604,-0.148878812134016,-0.2549566109304752,-0.04602612699331218,-0.026167991810384553,0.08850061261480575,0.27601271387522086,0.5390625
-0.09457265875432727,0.020904838725398948,0.2713338712450699,-0.12897801209166773,0.012161327902660283,0.011111545250403592,-0.06794033072284857,-0.01738686064139728,-0.008426167871417822,-0.012125684063244586,-0.002739626798907247,-0.0013346879372563988,0.004571676943049977,0.01348367979339388,0.546875
1.2050333260192525,-0.2621921523982705,-3.420396394341141,1.6212330852524899,-0.1501535594938184,-0.14470421264037403,0.8647772667972438,0.2199209713389676,0.08948720678703832,0.15714995271244503,0.027433814519049755,0.015969454064005625,-0.05392306136936635,-0.16953171263622918,0.5546875
0.7467636506902761,-0.1623712172927879,-2.11873031481488,1.0045098914536896,-0.09294233212989436,-0.08982398196054772,0.5357541066905438,0.13627939997190594,0.05498537209508339,0.09749506821270501,0.01679697784364519,0.009861215839614959,-0.03329312690036823,-0.1050238971007506,0.5625
0.6466737342677736,-0.1405486864803739,-1.8346532780712907,0.8698814583231186,-0.08044846876250741,-0.07785439101513414,0.4637832388090848,0.11800154461820193,0.04746297255296867,0.08448644773374543,0.014476996804567679,0.008526814719906557,-0.028792448932711046,-0.09091596837768899,0.5703125
1.08897019496983,-0.23688272222164997,-3.0913218603041788,1.4654944873324043,-0.1356961102481596,-0.1308855647365069,0.7811528821322516,0.19875077559325596,0.08079164049895164,0.14212421684982096,0.02474810046261227,0.014417189547447272,-0.048705925566260744,-0.15319842593477345,0.578125
0.019202483233100746,-0.0038783658402782224,-0.05262297286451323,0.025087808756676395,-0.002120766602314432,-0.0026719873227920195,0.013391976562769204,0.0034535820916579796,0.00019905916356450804,0.0028399808115073958,-9.123916076390663e-05,0.00016835899417885482,-0.0005514783178503153,-0.0026277945867318837,0.5859375
-1.711241309049412,0.37304011559327155,4.862948317473433,-2.3051384430956476,0.2139890087794747,0.20475386220715555,-1.228485637580288,-0.3124791114774364,-0.13017858984144295,-0.222524752683923,-0.040271793113493146,-0.022878272306353174,0.07734286652804488,0.2409994092753966,0.59375
-1.3318224052949046,0.29039862758109114,3.785097579760796,-1.7946225818719626,0.16664339847225781,0.15931212816536305,-0.9561087420709358,-0.24323191038348896,-0.10161353807482845,-0.17316306621009092,-0.03146211039973342,-0.017822061606248083,0.06026164252882878,0.18764525891619002,0.6015625
0.38799933036611023,-0.08421991300261766,-1.1003304322517646,0.5209389357981351,-0.04811584799046738,-0.046794159830939694,0.2782733704513232,0.0707519843445559,0.027946318454748553,0.05076442187164279,0.008473640986765004,0.005087395849481216,-0.01715807446910843,-0.05444100353997514,0.609375
0.5839077586731436,-0.1269170397350666,-1.6564794452757883,0.7848593246865306,-0.07260749072094148,-0.07026433392789874,0.4189804667256183,0.10654944585136927,0.042716603981838984,0.07627648940692829,0.013025291733416412,0.00770023579726051,-0.025980752639105955,-0.08206695312264983,0.6171875
-0.3625888269024317,0.07922568102202851,1.0327454941594252,-0.4894957674798156,0.04556864882163757,0.043179724766889416,-0.26023170445350413,-0.06622673047275549,-0.02858552233545943,-0.04695733490209584,-0.008953392338968606,-0.0049040592658147145,0.016623100311478824,0.05111229649414655,0.625
-0.2952994701017876,0.06456636721860061,0.8416993260790969,-0.39895745376987035,0.03717374814248305,0.035109242821521024,-0.21199881639075488,-0.05395347067523297,-0.023529763727985757,-0.03817651045952077,-0.00739540177767973,-0.004010102583652144,0.013597740411604107,0.04162833929013647,0.6328125
0.18765090525236666,-0.040607823099219245,-0.5304978499239511,0.25137076688580534,-0.023127784656213683,-0.022782570611606275,0.13446211300390934,0.03419796722480052,0.012848892359776699,0.024713588725739737,0.0038157056621105326,0.0024180775225863893,-0.008134035856013093,-0.02632300662955672,0.640625
-0.3812042456177083,0.08333304843121633,1.0854622371204175,-0.5143704611070388,0.04789803534902589,0.045391495279951656,-0.27382640548849047,-0.06965190409196162,-0.0299872727307892,-0.049378590298712534,-0.009393652112855392,-0.00515887723731953,0.017479130613185855,0.05378038891887993,0.6484375
-0.6387198357150079,0.13944437515765065,1.8172166332547504,-0.8609941440303118,0.08004913447072072,0.07624911249636886,-0.45856040782069196,-0.11665833217504651,-0.0493698868051198,-0.08292662213018873,-0.015372590450760516,-0.008586127810807358,0.029072708977321667,0.09002974207972272,0.65625
0.8426767375658899,-0.18323833010883409,-2.3913963872725423,1.133638374080874,-0.10492333991208018,-0.10131464267469345,0.6045679442931153,0.15377356943626896,0.062222698187844414,0.10997303057842682,0.019028066955081854,0.01114325629463508,-0.037612984087835165,-0.11849661392333613,0.6640625
2.0182129792832244,-0.439300745635029,-5.731582694535478,2.7164851445906253,-0.2516913835171917,-0.24222119574862627,1.4480483318235877,0.36835565399375825,0.15076270995401084,0.2630423262951057,0.04632701627415859,0.026794325494094037,-0.0905296848317414,-0.2839423429578861,0.671875
0.8228088186709024,-0.17890681406760475,-2.335795250388795,1.1069519173824882,-0.10240316449452878,-0.09895107705704888,0.5900870895534888,0.1501139393355223,0.060705528783295326,0.10737436994858794,0.01856836427585753,0.010869861518738033,-0.0367185102392693,-0.115650203017935,0.6796875
-0.8828131020821256,0.19261439284584764,2.510253573599914,-1.1897322007373416,0.11057451110322057,0.10548713780254364,-0.6338494030615992,-0.1612474067983471,-0.06777572057765165,-0.11470701587135192,-0.02103969573066077,-0.011843582628923058,0.04005472794144857,0.12441597379419023,0.6875
-0.7371130200139419,0.16083718976755837,2.0967915783255333,-0.9937393313203079,0.0923542638060786,0.08803924412123296,-0.5291890834165379,-0.134620061367521,-0.05679613289325696,-0.09568525887100983,-0.01765447895188496,-0.00989814355208435,0.03348294710272279,0.10385068919229005,0.6953125
-0.017923800370582586,0.004131142738947288,0.053500401533677154,-0.025419325875318872,0.0025277586507288013,0.0018349642361847618,-0.013098944587048597,-0.003305493268637065,-0.002619095937404692,-0.0019962782529265666,-0.0009488088430723881,-0.00031850699820202503,0.0010988716769391807,0.002579050475240312,0.703125
-0.5321553687190638,0.11614631139715927,1.5143673841480982,-0.7177944501569861,0.06675246704892179,0.0634489898278976,-0.38216110640920226,-0.09718436306537206,-0.041356045694652295,-0.06897026723950958,-0.012889918621428858,-0.007169100269860399,0.024255113037942998,0.07497929541395745,0.7109375
-0.7916932463460062,0.17273754158303056,2.2521340203531355,-1.067337298891853,0.09919024352113437,0.09456399525034635,-0.568308537827435,-0.14458082138427647,-0.06091194520050802,-0.10281918153840856,-0.0189260655100737,-0.010625928554144284,0.03595846967759433,0.11155617788690739,0.71875
0.7251240017757344,-0.15762623046997992,-2.056978359385595,0.9749424859444998,-0.09021300640791136,-0.08719763717505191,0.5203610750182897,0.13231641733279312,0.053336555949566024,0.09465119979151522,0.016287374573442637,0.009577747576325516,-0.03231098778951923,-0.10193756173348698,0.7265625
1.9491281735702979,-0.4242772043131194,-5.535018740127578,2.623148899882797,-0.24308722334008234,-0.2338902421907333,1.3987705483031472,0.355769506577824,0.14553611812535447,0.2540314720256925,0.04471365204874733,0.025880336651883783,-0.08741668890822492,-0.2742557212526034,0.734375
0.831809460873394,-0.18094155619360813,-2.3613717706484474,1.118875667384673,-0.10359877885270471,-0.10000607080992142,0.5968471935513961,0.1517994438111124,0.061388969964216014,0.1085578059726872,0.018780132106791823,0.010997895938067876,-0.037128839942700526,-0.11699474300374636,0.7421875
-0.9516694951854097,0.20757453432406398,2.7054945852139425,-1.2825295437695015,0.11910387194997568,0.11373836328161815,-0.6831471558775475,-0.17379156419399705,-0.07293563781926043,-0.12366881937698376,-0.022629432718335396,-0.012756170654094182,0.0431555000868545,0.13409431885556947,0.75
-1.4368409030412836,0.31334404427665563,4.083807972581004,-1.9358525720917,0.17971999433912023,0.1719259562255961,-1.0314490055366314,-0.2623982523182686,-0.10949039084285131,-0.18685575324906353,-0.033902101020357366,-0.01921739156584015,0.064995954024244,0.20246170972567956,0.7578125
-1.5079387112811335,0.32886372196564684,4.285177697099341,-2.031493367399398,0.18864568761782885,0.1804803494031005,-1.082644090785548,-0.27544046286854545,-0.11487776898451182,-0.1961275580418222,-0.03555715662918307,-0.020165105716282,0.06818793870687241,0.21249541226319824,0.765625
-1.6267290053728942,0.3546647117549049,4.622613571467482,-2.1912891430951555,0.20349856022124718,0.19469154407839057,-1.1679428105869396,-0.29713608485073645,-0.12383783886444198,-0.21158767051667687,-0.03830921734328542,-0.021749497681297955,0.0735269929086446,0.22915305720976162,0.7734375
-0.2322324406742897,0.050814723125532764,0.662202200303952,-0.31359454096214995,0.02932898447284916,0.0275004488180538,-0.16697483924184442,-0.04245784180935554,-0.018767832987548777,-0.029969857504769125,-0.005922557656706238,-0.0031771958837425816,0.010756416711967302,0.03275624076805636,0.78125
1.9879219419300067,-0.4327951760592405,-5.643960633647485,2.675729224653156,-0.24795166428029164,-0.238615790350898,1.426546935070008,0.362954103363719,0.14849606976898747,0.25915587517653715,0.04562553059991997,0.026393819183291714,-0.0891751770476608,-0.2798042331196209,0.7890625
1.7867202886676123,-0.3889092349846068,-5.072762515534014,2.4047193142993546,-0.22281647442799493,-0.21448219862777845,1.2820912255468642,0.3261866843441639,0.1333293636274869,0.2329558524190473,0.04094691985610293,0.023714355431898156,-0.08011555362901192,-0.25143706860689413,0.796875
-0.561131823672711,0.12252655420810106,1.5963791182485354,-0.7567646826965605,0.07040274469120109,0.06693902034409467,-0.4030218176328,-0.10253568268388151,-0.04355087267996553,-0.07277837486229366,-0.013568835472298972,-0.007556645861243508,0.025567993069359973,0.07910315023854492,0.8046875
-1.014959662718434,0.2213353536635204,2.8858972134373966,-1.3679986667969757,0.12705669905277656,0.1213359264901015,-0.7285966556299699,-0.185369559859435,-0.07773144926106618,-0.13186479475064042,-0.024102949424429965,-0.013598789013926508,0.045993787543547784,0.14295837971469785,0.8125
1.0277596009501175,-0.2236376134479363,-2.9164573184479328,1.382436433139893,-0.12807438425900144,-0.12349393210864375,0.7376364885050531,0.1876430579052802,0.07616256150475996,0.1341310144043227,0.023326051833342465,0.013611834615498425,-0.04595471417675639,-0.14462303229724893,0.8203125
1.9042499197818266,-0.41451317649280955,-5.406599880600764,2.5626900091971074,-0.2375189699231566,-0.22854024266280454,1.3666108674759874,0.3476417663418894,0.14218754780030318,0.24823242395839756,0.04367436054374975,0.025285865688137524,-0.08540143171202864,-0.26796064390165636,0.828125
0.5978854386262916,-0.12991988835864474,-1.6961238446515225,0.8037776802751487,-0.07433654805284738,-0.07196602917141139,0.42880622875317775,0.10905084066540408,0.0437669308697487,0.07809142430273915,0.013343283268189043,0.007882123669649669,-0.026589731338993547,-0.08400379415529988,0.8359375
-0.3134094305862038,0.06856216467401396,0.8925376707692103,-0.423198499483205,0.03946662344048924,0.03724779239771349,-0.22524759785459234,-0.05732834655571047,-0.02488370929758973,-0.040568381830398896,-0.007814571621922752,-0.004259090478167389,0.014432608881330864,0.04426548182832528,0.84375
-0.26544208396915864,0.0581021954246985,0.7562433631726408,-0.3585319251536831,0.03343781195872121,0.03150074927394652,-0.1906544604185691,-0.04850955823063612,-0.021267387033176016,-0.034312957190692106,-0.006704733056196027,-0.0036202967451371966,0.012269872814181054,0.03748251162884024,0.8515625
-0.7935720693886332,0.1731865580461164,2.25595243942918,-1.0696140842055142,0.09938979214293879,0.09482361487667491,-0.5696714546380474,-0.14494218086337554,-0.061056606306279515,-0.1031091356417079,-0.018970855594923345,-0.010653111634006222,0.036039029876937315,0.1118734067532132,0.859375
-1.314117353786439,0.286612273774321,3.7343614599103616,-1.770563784396952,0.16443956874732624,0.1572268588504054,-0.9434077945472903,-0.24004214561195977,-0.10027565277708989,-0.17090898955420455,-0.03105516053643515,-0.01758572466396174,0.05946874194199405,0.1852036352012984,0.8671875
-0.4916731319136441,0.10743398097448202,1.3988097096345307,-0.6631976310512634,0.06174945726614917,0.058628696144897456,-0.35316318257442003,-0.08987324657563955,-0.03831614030648924,-0.06377248614508517,-0.011956928189188192,-0.00663125995142841,0.022446537981481923,0.0693747218001984,0.875
0.41576643914134587,-0.09028288686886929,-1.1780499133922853,0.5586714173292723,-0.05159956366362728,-0.05016043075598452,0.2982214911050048,0.07586971171397562,0.030048474930093206,0.05443881723918012,0.009111251036258736,0.005455910706351219,-0.018402802505273284,-0.058456538289955125,0.8828125
0.011611141485861294,-0.002266290102321344,-0.030284545079052618,0.014537801508547428,-0.0011451225946148885,-0.0017116097033723686,0.00816447008738343,0.0020895139501908872,-0.0003998927871007891,0.001799465397527554,-0.0002704368898862282,7.39329032014437e-05,-0.00021580426494591048,-0.00156338675944587,0.890625
-0.6214708653138357,0.13563523414457568,1.7671989665938272,-0.8377871467965166,0.07792540284437759,0.07418615148590792,-0.44634414590053534,-0.1135348174817304,-0.04809681789533176,-0.08067027028106326,-0.01496208679473989,-0.008358204272098586,0.028273945971630302,0.08760033742985697,0.8984375
-0.6194106918983057,0.1351773291869464,1.7614259890933897,-0.8349026516376914,0.07766920326950752,0.07392958510979851,-0.4449537992782671,-0.11315676911187862,-0.04794019833026087,-0.08038842882126397,-0.014911572396764562,-0.00833209630515431,0.02817849345129092,0.08729523440625508,0.90625
-0.6331237072236323,0.1381640119488251,1.8012201272195871,-0.8534652648763407,0.0793701615944225,0.07555830833115669,-0.45473443043611944,-0.11563693661013176,-0.048966557700001655,-0.08215005642087682,-0.015234728012786495,-0.00851555822418808,0.028802364360884646,0.08919978288223765,0.9140625
-0.2410635229093745,0.052777811785472674,0.6876220500245612,-0.3258923481547826,0.030413941414122615,0.028584671524328954,-0.17323272547775234,-0.0440754466214515,-0.01942606753979274,-0.031123652729578396,-0.006131926533241492,-0.0032914338172594106,0.011163189609349587,0.034050151175084774,0.921875
1.2907656194674721,-0.2808879641827121,-3.664394934516833,1.736466004962408,-0.1608767660037733,-0.15498958576333016,0.9262682093078857,0.23557776128557653,0.09597663253553816,0.16830924213411733,0.0294414504524341,0.017115739190801844,-0.0577881142895911,-0.18154520975484548,0.9296875
2.165545938136508,-0.47142849907915535,-6.149323773299459,2.9144239946428834,-0.2701468978532478,-0.2598415918064776,1.554166251936852,0.3953227487866034,0.16188425176624185,0.28223967668769523,0.0497510130827641,0.028769080492554982,-0.09716616225097953,-0.30471693485500645,0.9375
0.8899655012977167,-0.19353791009839036,-2.525118362264874,1.1970325691619776,-0.11088183029898568,-0.10697184699854773,0.6386695297124095,0.16246164510868882,0.0657918916371051,0.11618097997952896,0.02012002156113748,0.011775723099002914,-0.039741430827190234,-0.12518767660461705,0.9453125
-0.2590887720598499,0.05677925233062258,0.7390330740304544,-0.35008872848952216,0.032630731451075985,0.030744100969724672,-0.18609483308445435,-0.04735920517096955,-0.02078475903513675,-0.033446294180903294,-0.00656837820724093,-0.0035353344533760158,0.011991676386972887,0.036575129479976175,0.953125
0.47011672056820997,-0.10209003844761656,-1.3331698110276728,0.6318903492300355,-0.05838402913772609,-0.05666479105584765,0.33716611268805946,0.08573567292722865,0.03412875717292658,0.06147634117945039,0.010367764584633173,0.006172672546186852,-0.020831168005734632,-0.06606830307213074,0.9609375
0.4741162954978128,-0.1029915409508425,-1.3449483090754122,0.6374449778974969,-0.05886205553087919,-0.05716035065405268,0.3399878458582676,0.08647186671927509,0.0344259106169391,0.06198717849877878,0.010466560766970568,0.006225710310855297,-0.02101904945809057,-0.06663640182037109,0.96875
-1.7519751946808384,0.3819282486920797,4.979014943474255,-2.3599921689550354,0.21911934668249822,0.2096537444861649,-1.257697067838909,-0.31993806703589295,-0.13326071225844238,-0.2278722553408479,-0.04122230730265511,-0.023421195561665133,0.07917753279867677,0.24675977473793745,0.9765625
-2.597697873271627,0.5661605543504562,7.3816799689324935,-3.498946962170898,0.32472193854161496,0.31103652617976024,-1.864667369108827,-0.47434205270546775,-0.19696423103512867,-0.33798563112641544,-0.06085868596007147,-0.03468163499569606,0.11723930929962291,0.3658387019373586,0.984375
0.06516603591741124,-0.013930134927466498,-0.18305857151715102,0.08656738188854529,-0.00781369915692803,-0.008126973576721616,0.046492859820043135,0.011846014995281293,0.003632184872429109,0.008768775257724423,0.0009786459640761687,0.0007881630002447577,-0.002636243572503501,-0.009053531890618218,0.9921875
2.169770480608844,-0.47241799391053546,-6.1619255524134395,2.9205974138408544,-0.2706395403510483,-0.26039230623799364,1.5569883526536872,0.39612014248672184,0.16217637690847858,0.28281741699091173,0.04985263285076101,0.028819800837061826,-0.09737803595896317,-0.30536898018001596,1.0
0.48175625706834246,-0.10470401278694881,-1.3664611154003024,0.647703916332354,-0.0598564454242427,-0.058062557562156614,0.3455322119092877,0.08792471703512186,0.03502546379856372,0.06299364342310414,0.010656476634548178,0.00633609061649845,-0.021386281557753947,-0.06772373631395469,1.0078125
-1.6603242056036782,0.3619607941848914,4.719151497236828,-2.2368706034716865,0.2076377662183427,0.19870942136990905,-1.1917708362871438,-0.3032028506721024,-0.12633335656599132,-0.21595112708297792,-0.03908859569159861,-0.02219377660181864,0.07505216422664172,0.23386876893192562,1.015625
-0.5783328055845103,0.12632125238334038,1.6456017357415584,-0.780170538901604,0.07253373094274342,0.06903763806563487,-0.41516267549081537,-0.1056821469257136,-0.044833907303726266,-0.07506152281042211,-0.013972980237969763,-0.0077813404726151825,0.02635714447485419,0.08156758623829061,1.0234375
1.4587515818700034,-0.31740773695317953,-4.1416618977837345,1.9628147044265651,-0.18183838601813287,-0.1751257746070226,1.0468435337174167,0.2662407740787873,0.10860742105220648,0.19018178455037485,0.03332524495636976,0.01934997875644985,-0.06534007198742525,-0.2051958715176402,1.03125
0.9052300440627385,-0.1968864637063915,-2.5695636409873845,1.217619098141278,-0.11272628638757604,-0.10878003054708471,0.6495129503274781,0.16518998920420438,0.06691006869830278,0.11808282794851498,0.02048112013645365,0.011975924301226409,-0.04043090353351569,-0.12727146927018623,1.0390625
-1.0298327228530206,0.2245619251296485,2.9276457660922333,-1.3878581486205588,0.1288904567471188,0.12315691545351086,-0.739352937103392,-0.18809783371745256,-0.07884693738369629,-0.13387797700003562,-0.024439552085064774,-0.013797017289609923,0.04666517538923346,0.14510412389002803,1.046875
-1.2921094522502905,0.28170623838138537,3.6729473531743566,-1.7408997293532835,0.1616363689137008,0.15458457537803852,-0.9276490406305498,-0.2359777048482343,-0.0986011266528599,-0.16799114911098595,-0.030531313842565917,-0.01728933911383771,0.05846982496879883,0.18199187189336685,1.0546875
0.025952314523195998,-0.005327330141735524,-0.07131261925707032,0.033918726764892604,-0.002933705152509102,-0.0034137946017925554,0.01829659071596567,0.0046724572263677185,0.0006803733562041422,0.0036590863254356634,6.146867850847067e-05,0.0002648855129831335,-0.0008528997408972436,-0.0035403922484252503,1.0625
1.0505979527802152,-0.22850414569288421,-2.981822989235844,1.4134688274349112,-0.13087570605997403,-0.12624623967923193,0.7537394758939978,0.1917610470811554,0.07786957221734109,0.13709756841297063,0.023848398221314796,0.013910293403590516,-0.04697102217975138,-0.14777370898187647,1.0703125
1.3284575399351501,-0.28909977711816853,-3.7706891221702215,1.7875218047444301,-0.1655944868915496,-0.15957357693472668,0.9532507281662044,0.2425120723699032,0.09881574773993548,0.17332355946694575,0.030305764978963534,0.01761034089747895,-0.0594865787685859,-0.18695703632477814,1.078125
1.111453191590609,-0.24187777512883857,-3.154357840621952,1.4955388815488997,-0.1385032411000328,-0.1335794826119429,0.7975013926896067,0.20289219212197684,0.08246674155164765,0.14508831824633733,0.025268966172324273,0.014718526738924714,-0.049727212286333984,-0.1564710565306196,1.0859375
0.09382697163499087,-0.02017703777531394,-0.26423133329586895,0.12554312839263368,-0.011393788742036384,-0.011596744437764638,0.06704405763701224,0.01706823029504061,0.005784955720090928,0.012519678476974692,0.0016347273608167466,0.001161925978554173,-0.003915198158606515,-0.013162005299689994,1.09375
-1.3400330750570895,0.29220073618894704,3.8087692153283395,-1.8052789043375663,0.16768494363259673,0.16029350251604504,-0.9620864335295777,-0.24474538501526522,-0.10223658065733525,-0.17426255558780682,-0.03165987717031862,-0.017935429771546336,0.06063799528131324,0.18879250758694108,1.1015625
-1.8162263376451002,0.3959321175045634,5.161780596117945,-2.446789940337874,0.2271281043774285,0.21738600458196627,-1.3037640541053555,-0.3316822315272067,-0.1380862936475636,-0.23627021527135253,-0.042710041729173115,-0.024272778333263675,0.08207347393795379,0.25585790931454944,1.109375
-0.9747445819680158,0.21262679223767667,2.7710760898521056,-1.313836834285724,0.12201564942223972,0.11652652965865999,-0.6997022462796724,-0.1780282157877339,-0.07467919670649441,-0.12667172754195272,-0.023165992240492,-0.013060167194606686,0.044190676427447936,0.1373762033813633,1.1171875
0.086967400722693,-0.018644221259326684,-0.2455854390250484,0.1157824688695567,-0.010568515250443633,-0.01072096743387487,0.06238999328294808,0.015832577817548,0.005290680717352957,0.011553860711174743,0.0014853417413949032,0.0010819163118239929,-0.0035996751242857,-0.012078818033341088,1.125
0.6734002602436437,-0.1463855770584203,-1.911121501460376,0.9052972045790112,-0.08378892901871388,-0.08099092804557934,0.48333873455523757,0.12291215022794735,0.049454289315082264,0.08788668908882655,0.015097837819076773,0.00889219218597417,-0.029993654959087002,-0.09461953770173502,1.1328125
0.9921813993153878,-0.21581425195493584,-2.8156121525058286,1.334460955761287,-0.1235955656593954,-0.11919808295883987,0.7120849796926089,0.18110458699776966,0.07347225819516112,0.12942944820964897,0.02249575680511572,0.013137235154279687,-0.04434504357763684,-0.13952494581853742,1.140625
0.9524192605342808,-0.20714700801453653,-2.7025470376016996,1.2811416106639544,-0.11862528798952139,-0.11445390984762441,0.6833387479437285,0.17381236214795429,0.07047937135737606,0.12429915768346857,0.021572694833643744,0.012604538208304653,-0.04256129545310906,-0.1339626780330551,1.1484375
0.2584269264099645,-0.05600972270534364,-0.7320307217142069,0.3469407243670915,-0.03194468745197023,-0.031286469305831024,0.18503861405494101,0.04708268478281259,0.01818643602370042,0.03392863712394208,0.005465314651206258,0.003357451437999864,-0.011328781431550746,-0.03626376155872923,1.15625
-0.5082719486605425,0.110959863300206,1.4455943685595856,-0.6854230872985474,0.06381177800482174,0.060615623647677495,-0.3652528676521367,-0.09288907046618314,-0.03958280569017408,-0.06592392205233916,-0.01233179795105536,-0.006854530574239007,0.0231780274975857,0.07167476560475686,1.1640625
-0.43824512800082577,0.09572217395371568,1.2471823997437765,-0.5911822120546311,0.0550678679891231,0.052222548814383825,-0.31489784361143985,-0.08008692613062543,-0.0343053159042629,-0.05679018981871901,-0.010710780724401438,-0.005919998209820069,0.020026283953582677,0.06179680443825403,1.171875
0.27067759862297724,-0.058668785794976905,-0.7665457693310203,0.36353175193186615,-0.03346747767764272,-0.03276389580402027,0.193918306347141,0.049345452502543956,0.019106052902049957,0.03553666612028374,0.00574304793757691,0.003521715807871056,-0.011878462919282238,-0.038017643363714736,1.1796875
0.5943595631797701,-0.12919653061384526,-1.68646836427052,0.7994605432886074,-0.07390609237858739,-0.07156311147113527,0.4262034920589501,0.10844202132914527,0.04349480745353227,0.07766607413382826,0.013262165815098665,0.007831853290108671,-0.026442723916988257,-0.08357557613192046,1.1875
0.15251042224822378,-0.032976756856165336,-0.43112350148623335,0.20428417158346418,-0.018760554539123293,-0.01858050565137805,0.10922035142961037,0.027786966132644426,0.01022229417983309,0.020111869931342445,0.0030093038339210703,0.0019501854580754618,-0.00655042494050551,-0.021369903463243946,1.1953125
-0.5039935342389693,0.11007118650804691,1.4347222395440749,-0.679974007207654,0.06319719849243653,0.06012749858142851,-0.3617135529570531,-0.09206398708058484,-0.03921568582241592,-0.06536698358800108,-0.012239148437961105,-0.006788743628387277,0.023007458948556353,0.07103778232720798,1.203125
-0.8185444208362682,0.17865165421196436,2.328708271920954,-1.1034929873781687,0.10248318837778046,0.09782040196197507,-0.5874037145049371,-0.1495050239991136,-0.06290951531763941,-0.10631712750972619,-0.01955435046697123,-0.010978898389213463,0.03717552574855219,0.11531659550939204,1.2109375
-0.6772904468969141,0.14787042542607381,1.9270015329815646,-0.9130856939622076,0.0848710632320889,0.08085972421672263,-0.4861979343083138,-0.12372462132380783,-0.052284657590986,-0.08792637422933307,-0.01627667197491237,-0.009103665485921208,0.03081922909568264,0.09544225587673712,1.21875
-0.15999708594306572,0.035129587483053386,0.45703494893583363,-0.21647425500304265,0.02028614439550563,0.018826684222638265,-0.11506135848182834,-0.02925599427365728,-0.013322069363826676,-0.020558146145433873,-0.004256924553484844,-0.0022170029308474955,0.007526914632297154,0.022619171309873898,1.2265625
0.4314735445006876,-0.09372555624873198,-1.2231991412674155,0.5798294877926069,-0.05358794694428502,-0.05207878946386349,0.3095216736485218,0.07876780220657661,0.03125095528706448,0.0564763917098812,0.009483678902056678,0.005664267840065714,-0.01910448085587079,-0.06064662843036024,1.234375
0.5049786004771174,-0.10970192853392799,-1.4320645835950778,0.6786808219473083,-0.06276787327368595,-0.06086747210622284,0.3623441511020766,0.09218113779342985,0.03679552610719136,0.06603153909077349,0.011189846014570308,0.006646751696687078,-0.022415988945458813,-0.07095517348605791,1.2421875
-0.10942735895123284,0.02415758429186623,0.31282028847031024,-0.1486336719126056,0.014005731876966998,0.01281971563170266,-0.07878420298719313,-0.020057384511142366,-0.009519675488362082,-0.014021213150038266,-0.0030800265977621337,-0.001539403213556371,0.00523658408089564,0.015605807000026133,1.25
-0.672223065885549,0.14673721173858048,1.9110354883078864,-0.9063936913868478,0.08434809223925817,0.08030439305324795,-0.4829348202493334,-0.12286936130549936,-0.05195754396114598,-0.08732729101114622,-0.016148738609070977,-0.009040675617416491,0.030560960985547087,0.09486101776031475,1.2578125
-0.4563702411775333,0.09969227564732071,1.297814169351346,-0.6157397230237734,0.05738918356656401,0.0544216671947322,-0.32801444548323283,-0.08345019099180712,-0.03569804955771101,-0.05918207900006791,-0.011133676507473931,-0.006165830573558643,0.02083593838876297,0.06442924038126004,1.265625
0.3114004577174657,-0.06756286699908892,-0.8827266418947314,0.41803389063404306,-0.03856801150158851,-0.037630632838581805,0.2232190321970995,0.056790399827788635,0.022177651599595866,0.04085322201416668,0.00669649883724841,0.004065305717500706,-0.01372500727664714,-0.04372734205367838,1.2734375
0.9983739834561505,-0.21720137152397428,-2.833716122846525,1.3430543718191763,-0.1244244276153803,-0.11998451680174467,0.7163976341941158,0.18225739541812985,0.07395722170528357,0.130331563448112,0.022646856525143134,0.013219332461069166,-0.04464116976068681,-0.14047780637680474,1.28125
1.267293197871126,-0.2757659030165947,-3.597549897794588,1.7052143308396808,-0.15799557937042966,-0.1522103718353901,0.9093752357184584,0.23133501134618997,0.09421371590636646,0.16531957136432046,0.02889017237074821,0.016802214561604155,-0.056739358203183286,-0.17832141833214046,1.2890625
0.8946625891736203,-0.19458051533566117,-2.539200503506646,1.2035207605411324,-0.111413768166218,-0.10753183139236709,0.6418815705174713,0.16326031694401807,0.06613803727264801,0.11674498410525308,0.020241824652113473,0.011839840666230646,-0.039964363332480095,-0.12581724380738335,1.296875
0.03465081908801482,-0.00724088829430075,-0.09611657981027565,0.04557425646910011,-0.004011631321910665,-0.004443790591250813,0.024672150141156667,0.006242716023602849,0.0013589632023795297,0.004730667567536473,0.0002754620108769621,0.0003851742999060023,-0.001249714348176562,-0.00472837331651971,1.3046875
-0.4763595928231926,0.10405286835727619,1.3558818903946328,-0.6424000201834027,0.0597672593625536,0.05679561546416748,-0.34201380854055863,-0.08701834358820361,-0.037141559541685416,-0.0617954055047121,-0.011598222161593324,-0.00642476065498644,0.02176429185718192,0.06716034342844976,1.3125
-0.43396506665139345,0.09478906548712489,1.2357295693928334,-0.5852423588747238,0.0544663394196919,0.051700655989611495,-0.3115635303024106,-0.07926464987254732,-0.03397912065508354,-0.056254990968594445,-0.01062807045525521,-0.005865458418209594,0.019871630657798105,0.06112309581358696,1.3203125
-0.8266700076786235,0.18032234284622653,2.3512696258710597,-1.1140616658106521,0.10354682171376019,0.0987758154723612,-0.5934578791828563,-0.15099571466160597,-0.06358998287881788,-0.10740830790142497,-0.019751366059339522,-0.011097674658149473,0.037554144108504446,0.11640592431793517,1.328125
-1.5685606303506336,0.34193987415144866,4.458701874579497,-2.11315495694055,0.1962215598949288,0.18771401163478352,-1.125968917221863,-0.2864713383217775,-0.11946989311703923,-0.20403786175007657,-0.03696956055121081,-0.020976509184915778,0.07093998401243755,0.2209064470285562,1.3359375
-0.9886841670761539,0.2156363533801436,2.811403157926401,-1.3325142816774072,0.1237898392546992,0.1182050230693606,-0.7097876300287305,-0.1805762485867016,-0.0757530847245091,-0.12850024198090904,-0.02349459018209371,-0.013250141897210079,0.04482253292607179,0.13931196915055297,1.34375
0.722519418374912,-0.15710288017883317,-2.0499993644323036,0.9715143328377495,-0.08992593348676159,-0.08692289131399626,0.5183375339192001,0.131874503535427,0.05317924401165676,0.0943872227007977,0.016244049234424397,0.00954259188191181,-0.032217480706009584,-0.10157967612723495,1.3515625
1.0825408356933497,-0.23549874085730674,-3.0734112574784995,1.4563202837404141,-0.13487865836982632,-0.1300874622645932,0.7766227667237271,0.19758833431146244,0.08030163666653939,0.14129238442353975,0.02460534631850312,0.014336929899010534,-0.04843197310502387,-0.1522407956718905,1.359375
-0.052785154657385265,0.011831259318348825,0.15139619435954255,-0.07228188101734184,0.006905647134473658,0.005994760237827334,-0.038278207864859,-0.009717200265264878,-0.005229401292924432,-0.006559765866154704,-0.0017563803940759332,-0.0007862151842034103,0.002670137565928172,0.00760724880893358,1.3671875
-0.0676437335073691,0.015058973671123299,0.19403925778857298,-0.092313238420167,0.00874430558723254,0.00777545074793838,-0.04882466351580979,-0.01241270439352856,-0.006345743723816928,-0.00850015076362715,-0.0021040949690440047,-0.0009840728589453512,0.003344366587275833,0.009672958140899414,1.375
1.0238902418133697,-0.2227249871165843,-2.906107874109414,1.3772923048766468,-0.1275679103524645,-0.12305241019029241,0.7347567549074222,0.1868933660101973,0.07588164036754372,0.1336266406675259,0.023236838758921862,0.013557110394641908,-0.04577989433764508,-0.14402043709187073,1.3828125
0.46089129308353033,-0.10008098487622966,-1.3067577271441153,0.6192548356592857,-0.05722703301929922,-0.05554901388754391,0.3306840400776144,0.08407936465975724,0.033452717578707776,0.06026342221969686,0.01016190103790121,0.006060718513655428,-0.020432260074873032,-0.06474016850769126,1.390625
-1.3595333272164825,0.2964627300294545,3.8642136525653146,-1.8316752415741682,0.17012924683641148,0.16267096510157145,-0.9759955677375766,-0.24831221730601988,-0.10370720881638248,-0.17683815511169543,-0.03210874450051137,-0.018188082104527003,0.06151114088532608,0.19156121696805536,1.3984375
-1.2221526983605933,0.266512947230349,3.4738518227987596,-1.646543181327235,0.15294959185196433,0.1462011672101924,-0.8774440149997236,-0.22321239585729513,-0.093365810714419,-0.15893261144148133,-0.02892101327810779,-0.0163627806740375,0.05532835753211066,0.17218635802242402,1.40625
0.7015049341422344,-0.15253080879861478,-1.9905130563939881,0.9435595621447602,-0.0873064007011623,-0.08438974382999061,0.5032571593608413,0.12802896882284487,0.05155736443000397,0.09161414267894152,0.01574353795086918,0.009257661521680036,-0.03125866131569199,-0.09867358429319889,1.4140625
1.362907402423339,-0.29659370342600533,-3.8691993788286414,1.8340664655088723,-0.1699000515152872,-0.16367255099251954,0.977980316809341,0.24878331465603085,0.1013933070157301,0.1777534668377723,0.031103041067721635,0.018070097114223888,-0.06103236363457064,-0.19178849964719857,1.421875
0.6297498464280481,-0.13690380696149543,-1.7864745191024676,0.8469096877492505,-0.07833497354908968,-0.07578592210520298,0.45176051260553185,0.11491941637520839,0.04616838291286112,0.08226205592038707,0.014086022660535286,0.00830854432772031,-0.028038167408644385,-0.08856189868828397,1.4296875
0.6176496717728488,-0.13431694304728117,-1.7520646392747659,0.8305106066211982,-0.07683821118669046,-0.07433014741074183,0.4431299780465234,0.11272575857510872,0.04526268407732366,0.08068469197175619,0.013811465859364649,0.008149295751513906,-0.027497538770863975,-0.08687013081113441,1.4375
0.9441501179112483,-0.2054556078503703,-2.6794719643701637,1.2699112396112815,-0.11762114712404743,-0.11346599121092095,0.6775483358695984,0.1723455942442842,0.06986129476265204,0.12321088554474319,0.02139324371326046,0.012498825944686216,-0.042190564748810354,-0.13283798764740118,1.4453125
-0.111985812482681,0.02464918656397952,0.3206847256512452,-0.1521783824409736,0.014295456630513613,0.013132995787335204,-0.08052653034364,-0.020513242334907814,-0.009712185021584798,-0.014335672398978037,-0.003135084481703224,-0.0015690731990599754,0.005353467358970675,0.015882875785231974,1.453125
-1.755155334078653,0.38262811280204845,4.988197415163192,-2.3644545962131103,0.21952902578289865,0.21009808440478756,-1.260056599839207,-0.32056963035463054,-0.13351536917172052,-0.22832941649437383,-0.041294057423242915,-0.023458843396802317,0.07931708422948101,0.24724384990476175,1.4609375
-2.010861530865797,0.4383229183301729,5.714345985555453,-2.708623976469038,0.2514558958835076,0.2407299961432976,-1.4436580560522254,-0.36726735209517736,-0.15277800851026763,-0.26160087420081307,-0.04723240557836998,-0.026869771426469884,0.09082831692746049,0.2832210911223479,1.46875
-0.8835397312974407,0.19274042386642123,2.5121761941592036,-1.1907695786302561,0.11063448592756564,0.10556206608212979,-0.6344132728510159,-0.16139651542125585,-0.06782743908028557,-0.11474696451421244,-0.02105586457048744,-0.011856614097373399,0.040091339551740844,0.12446635393701641,1.4765625
0.31600799032561383,-0.06852566332062965,-0.8948487675747913,0.4243398955842066,-0.03919059099907805,-0.038236437191928284,0.22668200191520838,0.05766665921218711,0.022562629432945312,0.04147084420578122,0.006794773997420726,0.004123218120710091,-0.01389688100439004,-0.04440846140219526,1.484375
0.8160777439564173,-0.17739483061187616,-2.3152520978260323,1.0976468738862333,-0.10162411428266047,-0.09814303810921277,0.5855922106804247,0.1489695008237692,0.06023522008856465,0.1065549181964978,0.018402653699165716,0.010787953975998998,-0.03640697385881361,-0.11474666507753567,1.4921875
0.48071258036652775,-0.10432735975896347,-1.362961169319457,0.6459590814622715,-0.059719547865811996,-0.0579141912871515,0.3448507174883809,0.08771384601205989,0.03496060545873297,0.06286290350942017,0.010616721803570966,0.0063231044132183575,-0.021318625557345778,-0.06748420238258133,1.5
-0.20365077738685197,0.044689500935101226,0.580795921756034,-0.27558612996408355,0.02574586808039927,0.024100403253416093,-0.14630462457314708,-0.03723269409920259,-0.016599871550546635,-0.026242387026074274,-0.005267472627538343,-0.0027923398968791448,0.009477524950786189,0.028832337634226754,1.5078125
-0.21012075750224632,0.04602160445741574,0.5990322693550075,-0.2840440824935714,0.026549985825431357,0.024850215874861407,-0.15096521556729497,-0.038399722567276376,-0.01709654981063701,-0.027088097442871047,-0.00541160026429143,-0.0028791786172262935,0.009762891524896587,0.029673503847535053,1.515625
0.6802750537741931,-0.14796814851749418,-1.9307423712977392,0.9152118530492523,-0.08463222975765089,-0.08186874750543055,0.4879712371026445,0.12415073935632277,0.04995995783507542,0.08882772376821282,0.015264472509643846,0.008979263736970944,-0.030318166049540407,-0.09570668716561057,1.5234375
1.293601193446857,-0.281552417522287,-3.6734405443337126,1.741046584510587,-0.16122011362632047,-0.15536739597535573,0.9281238379291513,0.23611613510569676,0.09615521956653651,0.16868714276234906,0.029503353978207154,0.017146906133516437,-0.0579266817954694,-0.18202672130356318,1.53125
0.7404409748453663,-0.16101557086019425,-2.1017278651063855,0.995903367180544,-0.09215811185788701,-0.08906350660403313,0.5312115923849277,0.13514049226941138,0.0544985213778289,0.09668045461286254,0.01665565300470977,0.009779116868489044,-0.033027878922526635,-0.10411643856183025,1.5390625
-0.2719830164020044,0.05955869644867925,0.7750505898696987,-0.3675336315929894,0.03426915903595326,0.0322977581565006,-0.19538570631951543,-0.04971153865702688,-0.021760077130957987,-0.035155929767988134,-0.006855593977690383,-0.003703780204465445,0.01254949708080173,0.03843865069988398,1.546875
-0.5512460866125425,0.12039856748955004,1.5685973527649804,-0.7435653871102564,0.06917142506573444,0.06580081835801381,-0.39592806939735536,-0.10075925432687166,-0.0428104605660048,-0.07155603305919962,-0.013341040234783186,-0.007421995829295463,0.025129968542035485,0.07776772250926955,1.5546875
-0.12813143233559418,0.02821064386163658,0.3665552330124451,-0.17388350799089816,0.016348976491157997,0.015099503486445679,-0.09228437229345494,-0.023531899603145723,-0.010943996789878004,-0.016465992272733047,-0.003514911169930336,-0.0017864148180666381,0.006087682566130224,0.018196793504391462,1.5625
-0.09404167635546397,0.02077499907949381,0.2700922619175647,-0.12809760813157905,0.01206401831857865,0.010998184019700475,-0.0676786568552793,-0.017250070947913133,-0.008355561277237373,-0.011989473733989805,-0.0027216420006686438,-0.001331384289259417,0.004547257152570274,0.013378925863602219,1.5703125
-0.8417960271738185,0.18367752923669012,2.394693467370361,-1.1349105120547989,0.10541643024405029,0.10061029353416262,-0.6042969490581761,-0.15373926854832642,-0.06466520743268372,-0.10933170726071911,-0.020084416740825405,-0.011289900550069632,0.03820340282999803,0.11863317331570486,1.578125
-1.3294896389742519,0.2899156232523398,3.779693410674982,-1.7913637538806761,0.16633558064421375,0.15905563046240007,-0.9544846640105553,-0.2428282467161563,-0.10141451848404648,-0.17283158814680682,-0.031408605252162956,-0.01778908071730256,0.06016008977636162,0.1872726609916413,1.5859375
-0.6936738065941188,0.15137440861665363,1.9727048412159307,-0.9350658890087911,0.08695337705244244,0.08281916984610838,-0.49826631422953016,-0.126759056884328,-0.05353603746091303,-0.09001749990934246,-0.016643096720881156,-0.009326259811854625,0.03153707574505551,0.09772798152604643,1.59375
0.37235040200179803,-0.08087713366905157,-1.055778696053209,0.5003253921795363,-0.046201642385357074,-0.04497965595018751,0.2669974485642286,0.06795386482111948,0.026776043431172812,0.04881358876581245,0.008111545673344515,0.004873111549695334,-0.016458895159619485,-0.0523704688035068,1.6015625
0.8822487412246893,-0.19194294099965456,-2.5040543344596973,1.1868560179231082,-0.1099204996634599,-0.10608471661510133,0.6332028081890082,0.16111302397788752,0.06520428466541409,0.11517359029959845,0.019949993760311327,0.011671806574100546,-0.03941051376582708,-0.12413890877822382,1.609375
0.9908822046390641,-0.21558942837348877,-2.812834417628233,1.3332115691210618,-0.12347665927364689,-0.11908379376969097,0.7111736161784221,0.18090287674738953,0.07338100448454818,0.1292556754114618,0.022469721044323047,0.013121115039888297,-0.044285061032136516,-0.13940568131659165,1.6171875
1.0213257698939178,-0.22222210818937163,-2.899675941078724,1.3743704069344538,-0.12723184555616382,-0.12274306109222977,0.7328228675865536,0.1863980893229927,0.07565320830709764,0.1332042654487818,0.023174981222060888,0.013520106459272591,-0.04564660387361963,-0.14368540081896386,1.625
0.6157375273017224,-0.13385400214695267,-1.74732278527951,0.8282961674896725,-0.07657030132694338,-0.07414971971822555,0.44163723259727383,0.11235908667447385,0.04509949496490375,0.08042154497763757,0.013754804996209803,0.008112693104188648,-0.027394111672995842,-0.08658131982251202,1.6328125
-0.1345920428479222,0.029652171952834715,0.3847766362885644,-0.1822146016054585,0.01709897321660662,0.01579529497365787,-0.09675406733040993,-0.024598941096521564,-0.01140243576952242,-0.017265736894202303,-0.0036732654286694313,-0.0018787414968229822,0.0063825261656199695,0.01907964200512476,1.640625
-0.4605081830205485,0.10069593183382197,1.3110133471248158,-0.621360805096947,0.05779136543474268,0.05488571130724562,-0.33056569211672265,-0.08412372200187675,-0.03594481172053764,-0.059715038184053146,-0.011245045318918349,-0.006216020301779324,0.021064640138532122,0.06499709801995814,1.6484375
-0.3570941921436175,0.07815792430514519,1.0172864490565299,-0.48226913297936697,0.04492622415280651,0.04250212019631099,-0.25648178806516836,-0.06529356871615588,-0.028169584296816947,-0.04625316450646038,-0.00883927817999859,-0.004838387199671618,0.016406060549335334,0.050455023713931686,1.65625
-0.4889448194303354,0.10683796484673513,1.391761454683287,-0.6597771895710699,0.06144442024356216,0.05831838484789351,-0.35134585514719646,-0.08939631253558449,-0.03811646922990418,-0.06341384713390953,-0.011888921089701935,-0.006592970552447696,0.022314657273870244,0.06902098732070673,1.6640625
-0.8037428573333314,0.1753854331450582,2.285790500940681,-1.0836093927027444,0.10075419925528906,0.09607949410293079,-0.5773410016785137,-0.14688159353553437,-0.061825769465165,-0.10440305924586187,-0.019188668860744593,-0.010781149082706524,0.03646356533385963,0.11333606330166264,1.671875
-0.8752805062733078,0.1909531748142665,2.488603387846715,-1.1799253809742936,0.10964511701344175,0.10466836097425938,-0.628564020907229,-0.15993847317868057,-0.06720365050990781,-0.11371953752914078,-0.020848153222134094,-0.011732556367097193,0.03968721894036818,0.12338728677816971,1.6796875
-0.7937236967853067,0.1731635872450276,2.2566950219536976,-1.070032630075271,0.0994246029910293,0.0948650742058279,-0.569909344734418,-0.1450070625021978,-0.061057305566993465,-0.10308425842281847,-0.01895783357995176,-0.010650403614520564,0.036027554732397826,0.11186521271096107,1.6875
-0.41854992482111153,0.091420030319569,1.191087968580761,-0.564755522229492,0.05255678691792463,0.04985286973439463,-0.3005900075246972,-0.07644512394434418,-0.03279518118779453,-0.05419704436687734,-0.010249477055799469,-0.005656890139980829,0.0191404859471831,0.05900581992616047,1.6953125
0.7366350515411683,-0.1602163426225167,-2.090334955640798,0.9907013000073576,-0.09171183924464776,-0.08863144090244043,0.5285376521708431,0.13449563956270139,0.05422860820538729,0.09625177615456279,0.016571297455375746,0.009729678992832749,-0.032859721306938976,-0.10364476171245375,1.703125
2.00037640796385,-0.43549890786890566,-5.680456732210699,2.6922992248976345,-0.24953056990095782,-0.2401085247830719,1.4355701161358199,0.365210844685743,0.149422778377202,0.26079828880746136,0.045911287190476775,0.026562313543651943,-0.08973575323661365,-0.28155668675977114,1.7109375
1.924539621302488,-0.4189898140355907,-5.46508878318877,2.5903004439139,-0.2400536350117291,-0.23101777035223547,1.3811416574167292,0.3513471664851789,0.14369454636501564,0.2508765639222288,0.044144875418167306,0.02555062111040777,-0.08630935069960623,-0.2708773588833822,1.71875
0.5959745402267376,-0.12958448443737017,-1.6905798748155416,0.8015695560456894,-0.07413581908868763,-0.07176335170697758,0.42759716346839993,0.10877024363215729,0.04359978198085927,0.07783705685440848,0.013290093997940835,0.007853406665629366,-0.026501564017652728,-0.08384530195579108,1.7265625
-0.48861796301113386,0.10670706856187595,1.390869557108228,-0.6587988743009451,0.06131163150175012,0.058260290895046536,-0.35086609222709747,-0.08928736967673699,-0.03810407495738581,-0.06339745032424327,-0.011897797630759705,-0.006593209527529386,0.022318702989504398,0.06884658118813183,1.734375
-0.7565064815003479,0.16510344146523967,2.151816455676135,-1.0196106346812097,0.09477454938178081,0.0903801786015397,-0.5431945093980018,-0.13823561948035729,-0.05827382135232826,-0.09826544995699667,-0.01811688205394143,-0.010161533188559103,0.03437781506155415,0.10658935706634783,1.7421875
-0.8443335433206514,0.184256826697217,2.401188618554564,-1.1379660874487991,0.10575633658132337,0.10088818361530567,-0.6062480531973838,-0.1542491886850024,-0.0648690285288987,-0.10969465849494002,-0.020149219907039186,-0.011330894417264115,0.03833218254861707,0.11900450818829741,1.75
-0.9818099442438397,0.21421253701143386,2.79186928237071,-1.3231804768280002,0.12293234332810739,0.11734334023051597,-0.7048492351933764,-0.17928754010207174,-0.07520115235247991,-0.1275969230800211,-0.023333915668319757,-0.013160290682844097,0.04451910870217743,0.13840537983416543,1.7578125
-0.7804024852576367,0.17034958075830542,2.219599401126185,-1.0521138555748304,0.09778161070898597,0.09321016778207847,-0.5602268607745983,-0.1425013436065513,-0.06002177581765773,-0.10137362497856514,-0.018654666351954053,-0.010475181296477742,0.03544997772685312,0.11007517158938654,1.765625
-0.24793106261384426,0.05435208259959909,0.7063127955864849,-0.3351560990006959,0.03129028772368209,0.029417212764516365,-0.17808853294667293,-0.045330538985861514,-0.019928777068753917,-0.032048176555444556,-0.00629137766425711,-0.003380450016249733,0.011476313444340172,0.03510527947006131,1.7734375
0.20745190299040012,-0.044888819983698244,-0.5877206724015968,0.27814061190505146,-0.02556887537509103,-0.025148213088074918,0.1486554160740709,0.03777982673918944,0.014348906620787538,0.027241504512087542,0.004282714224639484,0.002686300550268929,-0.009029261267368915,-0.029042496445654393,1.78125
0.4914002726592773,-0.10679003464385035,-1.3939744630378705,0.6605022653190691,-0.06102380259218527,-0.05918167210903307,0.3523691883036808,0.08963171988887982,0.035723607637298545,0.06423088219874927,0.010876236594362963,0.006466957012715553,-0.021815056983773267,-0.06905730315443424,1.7890625
0.7300222685155582,-0.15878178517377245,-2.0715014101527633,0.9816566392041569,-0.09083569740224881,-0.0877793515121971,0.5236025133967868,0.13320782706174106,0.0536991154931489,0.0953318382379234,0.016416837693410465,0.009642496822548374,-0.03255642778998,-0.1026614477675312,1.796875
0.7169359672572667,-0.15592059624513419,-2.0346482401598838,0.9640005709772759,-0.08923161423519106,-0.08621213221444712,0.5142463904264197,0.13081738396889508,0.052727052481178496,0.09364360732362438,0.016115651521475864,0.009467296516450254,-0.03197015724918757,-0.100818181875474,1.8046875
0.17755622325962625,-0.038423652380373166,-0.5025780376941985,0.23793055294636117,-0.02189917037042588,-0.021589469788882296,0.12720147587123135,0.03235425179513569,0.012114531168886306,0.02341766534779969,0.0035945341722206587,0.0022839107134313146,-0.007696853985625827,-0.024911825285586692,1.8125
-0.5212945625108483,0.11382386083249477,1.4834222047219485,-0.7029704501414517,0.06537870121747781,0.06214251417145518,-0.3743336047900564,-0.09522334996943256,-0.04052576604521219,-0.06756003509158286,-0.01263872707430752,-0.007024919596824562,0.023763054722521774,0.07343645556451361,1.8203125
-0.7234598791995209,0.1579174209404708,2.058570274268868,-0.9753872374957929,0.09065532831385241,0.08637760367398985,-0.5194544310548304,-0.1321507692699519,-0.05577106121947222,-0.09386962027306998,-0.01734738050934932,-0.009719511696346548,0.032877116907437845,0.10191209668579175,1.828125
-0.49737146990317427,0.10870951832847178,1.4161175059016775,-0.6710844373383243,0.06243909223592133,0.05930497483302037,-0.35721094863124503,-0.09089611193255213,-0.03875172617560955,-0.0644536041564816,-0.012103150019480669,-0.006708269039431049,0.022709283584281575,0.07013280046283094,1.8359375
-0.2114349299141342,0.04637487825695832,0.6029196600878711,-0.2858157185698205,0.02671397957003459,0.025034766985046756,-0.15196444590506494,-0.03867132877885709,-0.017202746642123002,-0.027260706329066853,-0.005452162830191238,-0.0028979318992884175,0.00983024503897876,0.02988229554446548,1.84375
0.5190879511088652,-0.11284659714873028,-1.47280600506877,0.6981077545652244,-0.06454143300753222,-0.06254465015431177,0.3723815789783876,0.09474875786842392,0.037840355376313965,0.06784774494183293,0.011522563420763712,0.006833188042879284,-0.02306445288015305,-0.0729996221405077,1.8515625
1.6941600494631606,-0.36881538753451865,-4.810639632903858,2.2802286216444947,-0.211279175297179,-0.20338717478191365,1.2157517917458494,0.30929076733048483,0.12635518762025658,0.22084991353776212,0.03880332644557077,0.022483239410932,-0.07595141011862189,-0.23841064513021723,1.859375
1.617798704147275,-0.3520892841134816,-4.593366482005189,2.1771716028111325,-0.20170213684014596,-0.19421385554438467,1.1609149418704663,0.2952991552054443,0.12059103283572817,0.2108701698243128,0.03701809164462993,0.021463703378783738,-0.072492516415857,-0.227578300750256,1.8671875
-0.5875392936323411,0.1283408436646907,1.671435733131804,-0.7922675697596738,0.07372810893792658,0.07012304024226829,-0.42191674839432547,-0.10737970494128171,-0.04554265685442212,-0.07633205203756949,-0.01419068818623523,-0.00791150819979743,0.026787704497437247,0.08292439220481791,1.875
-2.4294319660411325,0.5294895177306306,6.903627522777878,-3.272256700563611,0.3037228001135944,0.29088742975501175,-1.7438523569497613,-0.4436460177296534,-0.18428833841681208,-0.3161587636734288,-0.05694816635731676,-0.03244203765598462,0.10968535326616831,0.34217229173592745,1.8828125
-1.4262687050192442,0.3109105722296763,4.053927895454189,-1.9216734990362816,0.1784120816055498,0.17065967774779942,-1.023810994295859,-0.2604537722234742,-0.1087078850510354,-0.18548482665111413,-0.03364606012103324,-0.019075000195456493,0.06451185983045667,0.20090439225516435,1.890625
0.6483383149715446,-0.14096439464408403,-1.8392680247895548,0.871563917107666,-0.08066672597952583,-0.07799581572075279,0.4651868139972171,0.11832952394072539,0.047584526185243704,0.08469316796078927,0.014524696629200659,0.008560104901139075,-0.028877786650080943,-0.09114375942865043,1.8984375
0.7174001545952203,-0.1559639333636423,-2.035266712562305,0.9646976943284088,-0.08927824595778978,-0.08630170487100207,0.5147126182942724,0.13093494938511696,0.05278583468346683,0.09370709341007012,0.016121838532829162,0.009476045693150635,-0.031981781852310855,-0.10087860488407532,1.90625
-0.5425814281683708,0.11847582143033501,1.5439839132434603,-0.7316079054541861,0.06804984395292221,0.06469048003472011,-0.38961762798312705,-0.09909364942492935,-0.04214117851558862,-0.07033723203553184,-0.013139698927543743,-0.007311153941638954,0.02473586223546464,0.07643966134941577,1.9140625
-0.5828662587624253,0.12723486430887243,1.6581982553147405,-0.785939030878399,0.07305436448189274,0.06953807070818464,-0.4184927886675459,-0.10644664478328812,-0.04518408299989164,-0.07558164036880939,-0.014077323371884498,-0.00784729818807594,0.02654766948282086,0.08210331052484249,1.921875
0.4850922529696934,-0.10536149687177587,-1.3759033885719831,0.6518220858133463,-0.060288840105146686,-0.05842664969569618,0.3479894193425457,0.08849202391219815,0.0352613010836889,0.06344610200716762,0.01072023120138314,0.0063805990509757035,-0.021525401970377698,-0.06817377607259568,1.9296875
0.9601671988935903,-0.20882903343248987,-2.725726309296266,1.2916047999896398,-0.11956217991005787,-0.11536753553374503,0.6888169516073779,0.1751805098952607,0.07103943905254247,0.12527834320287684,0.02175338322641044,0.012707967714304793,-0.042913086816256205,-0.1350172117694809,1.9375
0.7135093124561611,-0.1551220051781018,-2.025006331975905,0.9597953281514506,-0.0887457960596252,-0.08583537455748302,0.5116258966662872,0.13015406701146678,0.05245753199635954,0.093172543130378,0.0160296412093508,0.009418991974173587,-0.03181454148370012,-0.1003188491245871,1.9453125
0.4251020991885072,-0.0922857086466616,-1.205300837008011,0.571448335476529,-0.05276273975858207,-0.05127963054825945,0.30464943365054986,0.07753871310137057,0.03075556848247054,0.0556425844639105,0.009335742639850882,0.005577259646277464,-0.018829983507950114,-0.05971806865967762,1.953125
0.10817818311898711,-0.023216087554791497,-0.30459925277657174,0.14433835315169427,-0.013211313822214136,-0.013275093189496894,0.07740985576474234,0.019694855609921645,0.006908214512645117,0.014376418985939768,0.0019780614832503713,0.0013617906725560678,-0.004558350629441602,-0.015071303930051374,1.9609375
-0.05988354253631948,0.013350934217589972,0.1727429317310175,-0.08217121440358263,0.007779649656832407,0.00688263563241026,-0.043002115449287226,-0.01098948776150146,-0.005756995296068455,-0.007517954124070313,-0.0019238489180129976,-0.0008710364673539398,0.0030041632073184773,0.008565542576513341,1.96875
0.03311713577388658,-0.006990660267664721,-0.09178192756866797,0.04329420697909309,-0.0038197597006803387,-0.004271809039770918,0.023702949590963748,0.005992677917626261,0.0012196804302393456,0.004579921929341544,0.00023424895492321773,0.0003646896095894479,-0.0011869755066356207,-0.004581996542807583,1.9765625
-0.5455155891711092,0.11905443694417484,1.5518819621693387,-0.7354354068186874,0.06845353002347157,0.06507014319308707,-0.39183666802717665,-0.09966255212034451,-0.042387688824367505,-0.07079249744230036,-0.013205643737522142,-0.007352666119678729,0.024867274490690136,0.07688842191204508,1.984375
-1.773049835503588,0.3865105151618123,5.039027114258137,-2.388198825663775,0.22174895237285805,0.2121973425431808,-1.2729747750822065,-0.32380457895139647,-0.13485534038953714,-0.23065876297011423,-0.041711770642870453,-0.02370815102195971,0.08013549977686557,0.2497497248885007,1.9921875
-1.445957994008996,0.31526344564964776,4.1097214867678895,-1.9480169844264796,0.18087497782393624,0.17299267395505966,-1.0380272022336279,-0.26407696366774497,-0.11020214246645511,-0.18805163514815448,-0.03411544460633378,-0.019345578189494658,0.0654113835489711,0.20369074210389274,2.0
0.8943761318334961,-0.19456379864175813,-2.5383864087682197,1.2029713977049543,-0.1114172344170185,-0.10751858312840397,0.6419069754629487,0.16325872662102206,0.0661097426561617,0.11672857834782507,0.020227184265574898,0.01183389114639241,-0.03994107062945275,-0.12582549323406744,2.0078125
1.9384886547752356,-0.42197579438692695,-5.503729107175016,2.608872280144388,-0.2417998512795304,-0.23266377829268614,1.3912675306085736,0.353914092643122,0.14476842961598355,0.25268971185970956,0.04446712411997762,0.02574003948665443,-0.0869371336618102,-0.27280475070311594,2.015625
0.04708834171333521,-0.009932956244677956,-0.1304992689654257,0.06225176315302677,-0.005573065661339875,-0.005953838484280109,0.033616727169404566,0.008565703845057305,0.002280360829385635,0.0063822061484224354,0.0005482085572648779,0.000544323255474166,-0.0017992137528982381,-0.0064973905410465275,2.0234375
-1.4402683133689704,0.3140263745053591,4.093876810433439,-1.9405125337767641,0.18016977972777098,0.17233298439515363,-1.0339049415408403,-0.26302114928561915,-0.1097723621397577,-0.18728784545995827,-0.03398067881652288,-0.019263385646450245,0.06513887965682603,0.20288419591720486,2.03125
-0.11596955899369894,0.025525745176702887,0.33121254132459965,-0.1575410432135306,0.014775397444027966,0.013613792094616772,-0.08333365118132924,-0.021242753426341913,-0.010010174846624729,-0.014832988562903993,-0.003227063869320298,-0.0016204914831339295,0.005526771197499532,0.016437644929753335,2.0390625
1.2385132544520028,-0.2694660224474655,-3.5161005332531157,1.6662959455298745,-0.15435821585787252,-0.14873311764846564,0.8888028653324046,0.22605207642807995,0.09202775985384125,0.16151174280033245,0.02821583770372278,0.016417453845723465,-0.055422836338187995,-0.17420911839865624,2.046875
0.28623979018748474,-0.061989504822653495,-0.8106231849729926,0.38438199091942576,-0.03540473849748232,-0.03460376470934401,0.20521069917218998,0.052178629305520544,0.020287142256180356,0.03748404495883552,0.006100145355311169,0.0037294314281630025,-0.012554517278933924,-0.04012571326975397,2.0546875
-0.4514717607887177,0.09864441343831461,1.2842444141829112,-0.6087394609708517,0.05672371851947303,0.05380137340448059,-0.32439557918659273,-0.08251792359298842,-0.03528632043227156,-0.05852905079900007,-0.011016398782436031,-0.006094872243567751,0.020620446911522653,0.06368057184876072,2.0625
1.0008649898548214,-0.21778474684771665,-2.841937020918277,1.3466891915433525,-0.12466741161803373,-0.1202927584743636,0.7178798037729572,0.1826477347722338,0.07413315865425658,0.13066893290551454,0.022720074148979058,0.01325106431755909,-0.04477571690047911,-0.1408288327445197,2.0703125
1.8385287265686912,-0.40022534642263896,-5.220498528115667,2.4744108342286966,-0.229284395868934,-0.22070284386795805,1.3190746037956993,0.3355969491377462,0.13724402603417257,0.23975534114776312,0.04216406644691974,0.024404009270423205,-0.08245999385733663,-0.2587435632642968,2.078125
-0.1413132370169241,0.03107815973065785,0.4047425834809734,-0.1914217484348185,0.017959416159901615,0.0166090439841306,-0.10176517027582954,-0.02585691524592571,-0.011913566842938927,-0.01810964831827745,-0.0038230947420145765,-0.00196992410602108,0.006686778443351472,0.019995413088663844,2.0859375
-2.1957019054506395,0.47854324050052727,6.2402433558730275,-2.9576344547912052,0.27449986509178065,0.26286508913380807,-1.5760448146240693,-0.4009258239217433,-0.16669217945510753,-0.28566033779499594,-0.05152860933058671,-0.029330072462041615,0.0991560024994831,0.30919626391577515,2.09375
-1.538571104364525,0.3353753112731985,4.372631864937628,-2.073023971174834,0.19242991213111202,0.18411375927388526,-1.1043293305437136,-0.2809599860069897,-0.11718898923896529,-0.20008850321724903,-0.03626384400832287,-0.020573029585018974,0.06956105289540776,0.2167007173274889,2.1015625
0.12573053195486694,-0.02708608794078458,-0.3550703205242803,0.16776412674069113,-0.015392387947731729,-0.015365970184147905,0.09012041902277314,0.022874250139169463,0.008199215994881364,0.016621731923639062,0.00238042929807898,0.0015951114494581313,-0.005348761666677772,-0.01753380399029411,2.109375
0.19283097885208123,-0.04162900029229803,-0.5452174323908379,0.25828129836615915,-0.023760976838811128,-0.02340853889538196,0.13822585766106496,0.035114990019803824,0.013260462291103777,0.025337283081434115,0.0039327790362384575,0.0024884871698342003,-0.008357837225144825,-0.02695316686013529,2.1171875
-0.7463047410903244,0.16292171792624285,2.1225258333906427,-1.005936491790854,0.09350508786517596,0.08915694367083181,-0.5358288787904931,-0.13633347639406845,-0.057489397970332964,-0.09695340318785578,-0.01787372280223304,-0.010020074278885061,0.033913391889913894,0.10521514373884522,2.125
-0.8143666407314687,0.17769933983408548,2.3158168735965368,-1.0975238135231697,0.10200054589828374,0.09731449718376906,-0.5847090603293841,-0.14874879614620873,-0.06261947045586641,-0.10580263101413726,-0.019450392108942442,-0.010928501928778674,0.036974576300953646,0.11476667655562323,2.1328125
0.20857110266342826,-0.04513060765240397,-0.5897848362567356,0.2796935449233994,-0.02572298443745983,-0.02530136514679385,0.14945484782474242,0.03801286334317639,0.014439057658356274,0.02740975521068516,0.004302300248027163,0.002694190172788011,-0.00906732583516736,-0.02923449252498227,2.140625
1.2804044441793003,-0.2786195928926263,-3.634761681898567,1.7229121170110662,-0.15957032218438122,-0.15378706740765416,0.9187628569476916,0.23371628255832358,0.09517946748429884,0.16700601701307244,0.029189991948996605,0.016971771348214867,-0.057320734257271556,-0.18015629577609954,2.1484375
1.5190016129064827,-0.330647778628971,-4.313164950916269,2.0443545987993326,-0.189399106132824,-0.1824007561762343,1.0900470349651195,0.2773095711832406,0.11315290745663377,0.19811119781026806,0.03473359329880643,0.02015215863909967,-0.06807477450593429,-0.21380973283830718,2.15625
0.9063331884591413,-0.1972150009615982,-2.5726047662928346,1.2193795008191899,-0.11290744664312613,-0.10896398362067654,0.6503338002224519,0.1654615492002669,0.06700483647375964,0.11832000763265184,0.020509691768628498,0.011990851750060968,-0.040493135633165804,-0.12755441278858132,2.1640625
0.3169267480278278,-0.06878404607655488,-0.8974484973025907,0.4255004540730745,-0.039277810282102525,-0.038297454023891196,0.22731244013782165,0.05782284983686387,0.02260961133068976,0.041510924286390194,0.00682231739270678,0.0041388199915052375,-0.013945921315710284,-0.044500264203878474,2.171875
0.16719715976634844,-0.036130816223034046,-0.47201055795334335,0.2238023154453034,-0.02055599729810357,-0.0203361806520398,0.11983771278082099,0.0304557579359662,0.011329961161049194,0.0219874649781843,0.003345564537428611,0.002145987049785364,-0.007205353471626954,-0.023380697306338617,2.1796875
-0.42793184761692227,0.0935045998419912,1.2178061468044394,-0.5773584072220413,0.05375448821515304,0.050987980403446265,-0.307348680508931,-0.0782040529481941,-0.033504966094375026,-0.05547670085432128,-0.010470848721999744,-0.005780027274748671,0.019572012546498246,0.06037645712796543,2.1875
-1.5903271092678901,0.3467099395881885,4.519454824504913,-2.142415916587788,0.19890359381485068,0.1902940979830965,-1.1416514562277644,-0.29041950964960367,-0.12106670582980374,-0.20681352641170545,-0.037460538041365433,-0.021265362041366035,0.0718962059371492,0.22400914845198847,2.1953125
-1.5299738969638332,0.33357744294658276,4.348335903358173,-2.0612769009844087,0.19137994502166658,0.18305662236069578,-1.0983183349659624,-0.27940035370478405,-0.11651265505969938,-0.19896272718337016,-0.03605896953332438,-0.02046299269078981,0.06918651665934615,0.215541064767543,2.203125
0.2964914109949638,-0.06428186651728295,-0.8399790951722933,0.3979464617393201,-0.03669313449061876,-0.0358420269099469,0.21253045267086404,0.054051499933864766,0.02107335971567578,0.03886751190002114,0.006351816814654883,0.0038681686638400276,-0.013036278211911575,-0.04158054139332476,2.2109375
1.5235389636857972,-0.33157029652528713,-4.325894322240012,2.0501998223787004,-0.18992850972303038,-0.18288691971170315,1.093094933110688,0.27805604119200134,0.11348688312798387,0.19865795347679044,0.03483964909254243,0.020215365831345228,-0.06827940530997123,-0.2143439530957248,2.21875
0.7309270377770337,-0.158893162385527,-2.074250113729774,0.9829504917293052,-0.09096029837819815,-0.08787815747757298,0.5242141162823644,0.13333639267242128,0.05376251851364391,0.09544814598261858,0.01642656024970934,0.009656463413002973,-0.03259154892445867,-0.10276820388513634,2.2265625
-0.4056289617034462,0.08869715338012069,1.1547698625565121,-0.5474815754922465,0.0509574707142649,0.048323499311032546,-0.29136728567453857,-0.07414638861218166,-0.03184465823001988,-0.05254773877955739,-0.009968068048294709,-0.0054858402365078355,0.018583015548440704,0.057231784427208714,2.234375
-0.7162770159534139,0.15634876227786437,2.0373740918865226,-0.9656789286899787,0.08974622582474073,0.08552515132976102,-0.5142328313967637,-0.13083544112637446,-0.05522763195799975,-0.09298164422499677,-0.017177720145479636,-0.009624857596176106,0.03256196354633262,0.10094018587035591,2.2421875
-1.1545610529370618,0.2518010406152491,3.282263815874714,-1.5556009165838038,0.14449674773822413,0.13804671637956853,-0.8288656510970758,-0.210860498389707,-0.08824781990036382,-0.1500456355678905,-0.02735195117618985,-0.01546208919688444,0.05227808381146135,0.1626187730326071,2.25
-1.5193594826076242,0.3312481928784313,4.318502846348642,-2.04672296503495,0.1900699045665936,0.18177992647579105,-1.09073584825188,-0.2774749577118327,-0.11574180991716977,-0.19756473498146776,-0.03582211350004403,-0.020321135219288244,0.0686976584961808,0.21397014972798886,2.2578125
-0.2548769740838335,0.055763321941493305,0.7264936447813615,-0.34422354560468776,0.03214139584701869,0.03023251919285506,-0.18311252718553442,-0.04658475723193722,-0.02048062970302562,-0.0329229845960984,-0.006456020649554733,-0.0034786709357198567,0.0117831538422247,0.03595035640336307,2.265625
1.7921211227375966,-0.390172778280068,-5.088590878052022,2.411968913975339,-0.2235237570955742,-0.2151048885285354,1.2861035023191922,0.3271843311412582,0.13373761334711987,0.23362250929593728,0.041081558503043035,0.023788138024561672,-0.08036009035326405,-0.2522226860634113,2.2734375
2.1305520281379895,-0.4638693450458654,-6.0501094148384915,2.8676599262142375,-0.2657865227659619,-0.2556555272171668,1.5289385629101298,0.38897088919567774,0.15923404455908996,0.2776707952755113,0.04893963044402814,0.02829827468731575,-0.09559385701062215,-0.29982137325207103,2.28125
0.9580278381428703,-0.20839811918989148,-2.719100416982598,1.288719696220223,-0.11933447380892406,-0.11511992890939016,0.6874057531207035,0.17487345573385002,0.07091022010897415,0.1249715770706644,0.02171089980263084,0.012682808304682634,-0.04280938696788957,-0.13469535965330146,2.2890625
0.31519795242258714,-0.06834228512998329,-0.8926213969192038,0.42291183731509935,-0.03905367322630155,-0.03809010439536184,0.22618508862721584,0.05750658963101539,0.02250610285170312,0.04128271867729279,0.006785916802729195,0.004121741920893174,-0.013869775238201614,-0.044190138316468106,2.296875
0.13855836960255885,-0.029864418534847358,-0.3906879405541178,0.18507435146679843,-0.01700527605789145,-0.016933663205353586,0.09946539038530972,0.025256103291289703,0.009207492906176335,0.01830668050834923,0.0026833589391830883,0.001767568291870657,-0.005916917215517196,-0.019354914759500567,2.3046875
-0.6929928585781266,0.15128417789132517,1.9713305021114906,-0.9342930165310839,0.08685751814530925,0.0827357258411038,-0.49752543709057656,-0.1265940033581277,-0.053462937393978685,-0.08998359655859572,-0.016633740361869105,-0.009312581636146983,0.031516894482997916,0.09769732695760298,2.3125
-1.3582135964826334,0.2961943659714323,3.860723654772702,-1.8297880893809664,0.16996268575901285,0.1624755404497513,-0.9751558161895909,-0.24807538015428696,-0.10360689258484951,-0.17662083868950534,-0.03208521616279706,-0.018176405788726174,0.061459150185380645,0.19135210893504723,2.3203125
-0.8128376508005516,0.17736195424531484,2.3111722995017834,-1.0955195520830234,0.10185257814386507,0.09711162851327915,-0.5837278271077585,-0.14849571303489315,-0.06252650621753601,-0.10558495589138323,-0.019416475251881008,-0.010911985428319953,0.03690287200743899,0.11455335262150515,2.328125
-0.15718347295065727,0.034492981038108474,0.4483643251952618,-0.2127582592722319,0.019938943154924522,0.01852689435379446,-0.11306058070342463,-0.028765576058369765,-0.013130154167757521,-0.020184178464964578,-0.004187446818709703,-0.0021779219929273534,0.007388228391787909,0.02220462585051212,2.3359375
-0.45578671471188975,0.0995146833238565,1.296365789848778,-0.6146878976987321,0.05720566762794549,0.05431951710703627,-0.3273757098472709,-0.0832760823536064,-0.035631944575103255,-0.05907315855328623,-0.011122688745204695,-0.006156044454880511,0.020833125066523406,0.06421700753381553,2.34375
-0.7541159905568389,0.1645109530213954,2.1437697533514397,-1.016334930624432,0.09446812403175558,0.09008824580644965,-0.5415748180755371,-0.13775957583522316,-0.058107347896203594,-0.09792682169935434,-0.018048894232655294,-0.01012906935763733,0.03425448014749889,0.10623529550594633,2.3515625
-0.18411502543503852,0.04039044436800714,0.5248388857501453,-0.24909599218803716,0.02330806648082896,0.021789480563012657,-0.13252144171026645,-0.03372127245853806,-0.015150241694316186,-0.023681049668353826,-0.004807035610218108,-0.0025317236580614296,0.008578480874647895,0.02603433427671218,2.359375
0.5615863139006251,-0.12198978640642727,-1.592933808191377,0.7547268502417475,-0.06979889643212694,-0.0675771058075698,0.4027034234020239,0.10240579184444479,0.041043478518987264,0.07344010992981045,0.012509585812352914,0.007406211241072366,-0.024995073471848255,-0.07891353758514391,2.3671875
0.922524529401507,-0.20059439644747265,-2.6178522923431076,1.2408058192161637,-0.11487634579748465,-0.11084986034702728,0.6618104190975822,0.16832334251258452,0.06823596128756608,0.12042314677192792,0.020884278048408273,0.0122135940975565,-0.04123069879929086,-0.12972659432544162,2.375
1.1546446535388852,-0.25120120671681384,-3.277344250542295,1.5535687905104858,-0.14388199415273983,-0.1386953671930023,0.8284682545583576,0.21074681054446925,0.08571332897050196,0.15061969052267968,0.02626928382318679,0.015300217079986793,-0.051666072838054945,-0.16242587390859556,2.3828125
1.0416429279290627,-0.2266404827563218,-2.95665585325426,1.4014533374241378,-0.12978169702518147,-0.12517361331584564,0.7474215214273323,0.19014173568892076,0.07719229955216962,0.13589270587250724,0.02364452381608462,0.013789954040000387,-0.046571982554231194,-0.14653290661903184,2.390625
0.2005366389308347,-0.04342514158014804,-0.5671457207198438,0.2688629570584938,-0.024744996731052512,-0.02438085016516143,0.14381607923919068,0.036586957800357076,0.013831637367110652,0.0263584154079353,0.0041112595884808725,0.0025841362113748997,-0.008698592323471139,-0.02811947801790594,2.3984375
-0.6153832790192713,0.13433806579694688,1.7513245563531454,-0.8297232792277656,0.07713909743925292,0.07340240596290698,-0.44168365123986764,-0.11235443660119122,-0.04761791430487591,-0.07991187729899123,-0.014837650126580549,-0.0082838587550928,0.028045414858211732,0.0867571301880659,2.40625
-0.5257208747753092,0.11481695525431494,1.4969353121244127,-0.7089601599132023,0.06593218154294277,0.06266764053793905,-0.3772734686316774,-0.09596521623733989,-0.04084803570429286,-0.06825614204117568,-0.012752119237988998,-0.007087889199415137,0.02401276793414927,0.0741441449866334,2.4140625
-0.15166853597285407,0.033327179383761854,0.4338402400883854,-0.20539734928089248,0.019233947140301844,0.01785710278546336,-0.10887534901913547,-0.02770080031556672,-0.012670664666315952,-0.01952893974334864,-0.00405825018691927,-0.0021028705061827842,0.007159198716793834,0.021489469287808673,2.421875
-0.4779163089641656,0.10440396262067202,1.3599337269387288,-0.6448081145340832,0.060004006796830975,0.05697014944257622,-0.34314859351045485,-0.08731354910607318,-0.037257785931241634,-0.06196197283813526,-0.011629937441509171,-0.006445771012919512,0.02182441960408724,0.06741926397847048,2.4296875
-0.9482871911216799,0.2068837261139965,2.6959210118586596,-1.2781960015311145,0.11875398749358945,0.11335393265062155,-0.6807949449315369,-0.17320819906051296,-0.07269875962897523,-0.12318250173408421,-0.022553689591712053,-0.012708948079135526,0.042985795560567926,0.133637748774112,2.4375
-0.42578096520782993,0.09304011386239272,1.2114709752092745,-0.5745991237541024,0.053494099487066606,0.05074505833566267,-0.30582553637838017,-0.0778141740602475,-0.03334704730497525,-0.055153193147463,-0.010419912899370895,-0.0057484544425736115,0.019458523165846068,0.060069659333638434,2.4453125
0.6074971024917011,-0.1321014037209742,-1.7243575413384022,0.8168571180200448,-0.07554704950697158,-0.07309596896367114,0.4356321443744524,0.11080965113310655,0.04447564542962019,0.07938830200315847,0.01357875091388162,0.008012858206478901,-0.027060272148026705,-0.08542760217523204,2.453125
0.6301667192406256,-0.1370586026049603,-1.7890827422822224,0.8476059464441771,-0.0783759742286429,-0.07583426038614882,0.45176411309870335,0.11492044173635689,0.046174536303452314,0.08235379128826005,0.0141057187025937,0.008311113957488887,-0.028078011444865037,-0.08865548748228758,2.4609375
-0.31672790588756083,0.06925752915361694,0.9013887684546928,-0.42731600696994393,0.03987234428343634,0.037652226931207365,-0.2277841795216351,-0.057951026831162204,-0.02515530021080461,-0.040954818896625396,-0.007891744257250215,-0.004303262374372586,0.014562935621948455,0.04465292103464938,2.46875
-0.5503227658356088,0.12019815258502792,1.5658249265392727,-0.7420662664168293,0.06904159398431384,0.06568375929973437,-0.3952585341145277,-0.1005728778446328,-0.04275305210903744,-0.07141673498634801,-0.013326894111542932,-0.007412465613681126,0.025094119010772048,0.07758514562141391,2.4765625
0.3859083694828054,-0.08374172645828966,-1.0936286756002966,0.5183003421134698,-0.0478813569999075,-0.04651044892297667,0.27678136655202634,0.0703766592644848,0.02777652315946533,0.0504779474456214,0.00841312293051216,0.005061062730255661,-0.017050681855464874,-0.054185413355411896,2.484375
0.9211505292851163,-0.20035833452962168,-2.6143936904477227,1.2389566225004527,-0.11473420557480057,-0.11069799316858989,0.6609125546374838,0.16811244841733233,0.0681138629336051,0.12021266926842594,0.020848768351786198,0.012189249470644977,-0.041151988291641545,-0.1295458841311897,2.4921875
0.280878430901752,-0.06088521393137854,-0.7953928318710366,0.37694762116926145,-0.034777593701495496,-0.03399882347361663,0.2013828310965832,0.05123241486224802,0.019898727864042693,0.03686163419582413,0.00598249396708579,0.003656469030555296,-0.012326231987353624,-0.039417204112494025,2.5
-0.28514364040682777,0.06242966773790249,0.8129816565360204,-0.3851112024590523,0.035924497909931706,0.03384460742562549,-0.2048023372735005,-0.05209760837383315,-0.022740027121962877,-0.03687735047848785,-0.007164988685270002,-0.00388422329950966,0.013162481675583884,0.040283951690692425,2.5078125
-0.016828539612944032,0.003984585336126872,0.050868437681118546,-0.023780963350960832,0.00242452935145432,0.001697755227148835,-0.01219238683925205,-0.003100586949614592,-0.002528139881275729,-0.0019602174384475727,-0.0009338116376361867,-0.00030625129358897155,0.0010800136521407501,0.002515945532042991,2.515625
0.2553351204799562,-0.05530678860273476,-0.7224686157231294,0.3427239799956914,-0.03158150268682491,-0.030941937819556068,0.18313913699543796,0.04660358840591277,0.017988581136988244,0.033520272511313634,0.005391413735837354,0.003323042008942434,-0.011184563007564376,-0.03582660696751622,2.5234375
0.20942848210547838,-0.045305878195552984,-0.5921679867140831,0.28086621175906995,-0.02586306482153871,-0.025457898445527722,0.15017514511923646,0.038218999769591706,0.014538009105488787,0.02758295765747146,0.0043267873927390794,0.0027113882498809453,-0.009120162312649841,-0.029385611702368326,2.53125
0.29794466945847126,-0.064599899806612,-0.843811195107685,0.39991884222882845,-0.03690846349720975,-0.03604180317520228,0.21368835524819335,0.05434865065046685,0.021188067833571342,0.03908745818852063,0.006380124007482648,0.003888505727363154,-0.013097168806687948,-0.041835989566944794,2.5390625
-0.0594207524268227,0.01320638749932277,0.1709446879098157,-0.08131806825903569,0.0077265814954214015,0.006829449028838733,-0.042795054724272565,-0.010920236398572862,-0.0057536743062460175,-0.007494853964713203,-0.0019164164367173658,-0.0008723803130539209,0.0029906179480726595,0.00848904468686502,2.546875
-1.2452607018777306,0.27149874212821345,3.5394157052761566,-1.6779153808699665,0.15580979903613543,0.1489619707642792,-0.8938716074143299,-0.22741721825028052,-0.09508360725702784,-0.16192556722441817,-0.02944977621381497,-0.016669272610906064,0.056368485457032415,0.17543098949673444,2.5546875
-1.441302812999869,0.3142459822501505,4.096589857533863,-1.9417652916498278,0.18030221515470052,0.17243833855685947,-1.0346237760820691,-0.26321094557430946,-0.10984247644117395,-0.18743957778365608,-0.03400587546615144,-0.019283392495445344,0.06519931781821182,0.20303883752444313,2.5625
0.34873777659118604,-0.07562767678944796,-0.9883667200148698,0.4684688909760519,-0.04321090155041196,-0.04210844148463638,0.24996050915607426,0.0635692901325249,0.024997736446251872,0.045666432273604146,0.007555319392382734,0.004559226101963052,-0.015374412804633213,-0.04894001722203568,2.5703125
1.472863483162438,-0.3205365800738877,-4.18222053526591,1.9820442269702259,-0.18358969548259346,-0.1768257691476185,1.0566458498351485,0.26878669805109906,0.10966316499562093,0.19205280544530395,0.033663349919695204,0.019534125030789603,-0.06598867566646019,-0.2072061895978755,2.578125
0.008287160587087247,-0.0016162921662985885,-0.022088373342607586,0.010105522154247398,-0.0007288628779264086,-0.0012922016838744473,0.005564565802389568,0.0014326452055104402,-0.000671462915857253,0.0013476737106637997,-0.0003355239131948632,2.599621221090182e-05,-7.623842948495487e-05,-0.0010872876828162755,2.5859375
-1.3927789477137826,0.30354751297101956,3.958498304260948,-1.8763474911428395,0.1742075218654331,0.1666168482464388,-0.9998379516115548,-0.25431772837556876,-0.10620576226681572,-0.1810851843999623,-0.03286979690746687,-0.018636254767162644,0.06299487475418068,0.19610646630608303,2.59375
-0.3465879088748831,0.07575227794806426,0.9873463867244868,-0.46785639696008663,0.04357088432354479,0.0412375912441372,-0.24889878971528917,-0.06332218373682925,-0.027384846888167242,-0.04484792139651878,-0.00858698352407766,-0.004696056016766356,0.01591103175416854,0.048852956891733655,2.6015625
1.0137031226855526,-0.22046878672613723,-2.876744665685749,1.3634697933710178,-0.1262716535975501,-0.12176228465959703,0.7273751873137528,0.18498647273219096,0.07508320875653976,0.13227773430322579,0.02299342328308426,0.013430062317639001,-0.0453244991223,-0.14258418020227884,2.609375
0.7132880107064321,-0.15504095760641595,-2.023703337342999,0.9589281240833034,-0.08874307895978878,-0.08574615237491215,0.5117570054946692,0.13013415562540684,0.052444468848203314,0.09314482134062727,0.01601956827734115,0.009429410752193959,-0.03180857690841953,-0.1002713824195947,2.6171875
0.4735055833486865,-0.10283650198438737,-1.342708715283687,0.6363129867616718,-0.058806931061040416,-0.05704692152524782,0.33967637303786696,0.08639201516079678,0.034391102156046,0.061920432630754745,0.010453391961474462,0.006229938836924497,-0.021008307036276264,-0.06653167560188061,2.625
1.1033241535064868,-0.2399819604102097,-3.1318711196425904,1.484631060261302,-0.13746592255965157,-0.13257745581493763,0.791645630298426,0.20139367556593304,0.0818584606413937,0.1439424194393797,0.025075866115078397,0.014613788857270183,-0.04934545516678204,-0.1551865253301273,2.6328125
0.4911201556898534,-0.10658030834442338,-1.39296604894596,0.6604223868284508,-0.06101570118326643,-0.059209131810003965,0.352165666932603,0.08959941465568409,0.035750783580473976,0.0642175315484079,0.010860612292203461,0.006456561262840092,-0.021783360027792627,-0.06896583899585203,2.640625
-1.269520838654787,0.2768821568469677,3.608444123871724,-1.7103215140176122,0.1588416227288174,0.15182130359379314,-0.9114406774118482,-0.2318546441802187,-0.09688290309860613,-0.1650607379269729,-0.03001546928607736,-0.016996557656398122,0.05746627257583495,0.1788863807356509,2.6484375
-1.3339412484913158,0.29081772174264836,3.7917623902393074,-1.797233602815264,0.1668689405629266,0.15953891078623444,-0.9575369160773177,-0.24359232070952935,-0.10173506245750136,-0.1734422020499513,-0.03150492282993299,-0.017853849337817772,0.06036299068753069,0.18789812945044207,2.65625
0.05921443952478765,-0.01266413214117192,-0.16549895479940435,0.07850798411073086,-0.0071034725109335945,-0.007439196627002667,0.04239866367176756,0.010774174405098492,0.003209234969225646,0.007983021324266796,0.0008421033501730357,0.000705560776671765,-0.002348527977773369,-0.008250247655589134,2.6640625
0.049925222763925345,-0.01057565753513784,-0.139176460988211,0.06600561613231108,-0.005917222379607493,-0.0063054011790100225,0.03563554705525824,0.009060316307519446,0.002487535746177759,0.006759469915546207,0.0006162878928340225,0.0005820805065594324,-0.0019262609571108404,-0.006899312606516646,2.671875
-0.7861009739544439,0.17156232962621426,2.235632121888166,-1.0596866686486024,0.09849021155356731,0.09392062491620141,-0.5644408045544507,-0.14358991882118105,-0.06051015792283828,-0.10212471840200449,-0.018802866595304852,-0.010556256735001686,0.03571456125902485,0.11081965951777124,2.6796875
0.11418283806048997,-0.024596973293131298,-0.32169938463888237,0.1524353033812497,-0.013963160246254274,-0.013979405414694729,0.0818008983866853,0.02079024604889293,0.007316837946818856,0.01511877449741439,0.0021065084302592505,0.0014354323615319027,-0.004808855641163297,-0.015966584132469746,2.6875
1.393740700769935,-0.3033718235329774,-3.956541711542446,1.8752823510908703,-0.1737579803891992,-0.16734712631849072,1.0002224760865237,0.25441253879045245,0.10371992108347496,0.18175747985383747,0.03182682730533459,0.018482888288329953,-0.062419289505480965,-0.19614086384393115,2.6953125
0.3123184798239036,-0.06779574544613177,-0.8848784549608528,0.41926817446624576,-0.03867296363847121,-0.037727166235201094,0.2239703469113702,0.0569566700441679,0.022245511512738524,0.04093047204809823,0.006719081168140475,0.004081440851855921,-0.013758902172688152,-0.043870216494765635,2.703125
-1.3937127519295902,0.30384271385399064,3.9609941534624555,-1.8777225814722558,0.17439425663808086,0.1667619553092554,-1.0006057364632155,-0.25453357723424347,-0.10628721550125785,-0.1812316219845889,-0.032895380233166405,-0.018642843157495457,0.06302444447977217,0.19633362560982867,2.7109375
-0.7082980992947346,0.15449869960339227,2.0136611330631764,-0.9547548887913666,0.08876907503054264,0.08461144825050798,-0.5086881739639327,-0.12938161428723666,-0.05465268223714272,-0.09196152857532691,-0.016976824352606865,-0.009513827018441357,0.03216850239654344,0.0998046301181417,2.71875
0.8793481158728674,-0.19136149397613805,-2.4963042595402603,1.1829604374453706,-0.1095177608026663,-0.1056866418555424,0.6308387590159305,0.16049021966582386,0.06495510962239608,0.11478970235895516,0.01988988985611818,0.011634030372235116,-0.03929254001103676,-0.12373931002618653,2.7265625
0.5278756359227542,-0.11470941552096997,-1.4974422018710964,0.7096067913183008,-0.0656056509719643,-0.0635670179740332,0.37860255224342937,0.09629348413710395,0.03848690101122645,0.06901314501484422,0.011721144096166777,0.006953236409314777,-0.023457149983621053,-0.07421331872563626,2.734375
-0.6258159037587729,0.13673383686023508,1.780418734314271,-0.8439195213416918,0.07847374307894035,0.07470201659644393,-0.44940313817654126,-0.11436869053481016,-0.04839915685851464,-0.08121205672967677,-0.015076400009605043,-0.008414347493338001,0.028491492231950313,0.08826750597494297,2.7421875
-0.16144284447395674,0.03560018489063833,0.4615893532484926,-0.21857719502531311,0.02044580921453682,0.0190224765790141,-0.11608376900378199,-0.029563846916125573,-0.013388739068032342,-0.020718565414401043,-0.0042924786546042005,-0.0022313774754562535,0.007594331406723862,0.02288008098984487,2.75
1.0622689852591805,-0.23104625838944093,-3.0147022163033173,1.4293379648929763,-0.13238973799024067,-0.12766705750925858,0.7621907829670327,0.19390153445958497,0.07879453077013254,0.13862063835135502,0.024127977817587295,0.014065823663104214,-0.04749447445446259,-0.14943771816144494,2.7578125
0.9364782771081831,-0.2036910459399071,-2.657817075769233,1.2600159214565996,-0.1166434018334831,-0.11257894883512598,0.6718781233034277,0.1709395357102626,0.06928666979706236,0.12218781490869922,0.02120665684263012,0.012390485041677331,-0.04183709351164119,-0.13170579444041686,2.765625
-0.20618054178594278,0.04523506938340923,0.587470826368362,-0.27873880160522635,0.02608724526875412,0.02440899935265671,-0.1482150283688109,-0.037716859345273204,-0.01681734713899747,-0.02663926383863316,-0.005329654631109622,-0.0028281657458266865,0.00959800359042887,0.029213753852874606,2.7734375
-0.7314351448953719,0.1596435409116848,2.079192777683254,-0.9861603054298617,0.09166933965385689,0.087376785038163,-0.5251407047897112,-0.13362727621793644,-0.05638753400144185,-0.09501800894200844,-0.0175256340685209,-0.009825819302447088,0.033243819217816335,0.10315452134409699,2.78125
-0.3770662670913889,0.0824132294755603,1.0730709377053973,-0.5090455773087448,0.04739889385260668,0.044890069216179954,-0.2707522857167013,-0.06890339839679951,-0.029687970169460252,-0.048850199528146614,-0.009296816476013344,-0.0051081147115374205,0.017296335962920833,0.05321886049344104,2.7890625
-0.017138669664055153,0.004013639369516724,0.051725845346147555,-0.024384495877497112,0.0024651069907676198,0.0017453642728349169,-0.012400594608760994,-0.003173329302790103,-0.0025756266320566337,-0.001990629655364943,-0.0009440167622633941,-0.000312404412275022,0.001097223253117371,0.0025275110889357365,2.796875
-0.08621856215292523,0.019071039614869015,0.2484505887545341,-0.11729684267627354,0.011099841013947245,0.010032391743146045,-0.06199652454874047,-0.01579002918381966,-0.007779905942441814,-0.010992791640245312,-0.0025498744219607183,-0.0012291100978028303,0.004200842383268402,0.012240212065588436,2.8046875
-0.20065598525054107,0.04394073197308662,0.5730131217391081,-0.2712141500775344,0.025363655295652914,0.0237388804606403,-0.14420915203962906,-0.03667900895284656,-0.016394696419881075,-0.025862542821993174,-0.005198625821828432,-0.0027541536693540722,0.009339959541506798,0.028305635720260916,2.8125
0.059117777420808364,-0.012710013215027112,-0.16556962847677054,0.0785821883846694,-0.007100234573213672,-0.007417911152894998,0.04214982754556147,0.0107575505049643,0.0031823106465524876,0.008006516627711156,0.0008440582767965953,0.0007031122998336524,-0.002360275081369173,-0.008296831688594812,2.8203125
0.3489462077598858,-0.07581535090308966,-0.988997969925308,0.4686542480002759,-0.04327734305198347,-0.04215262553143816,0.2501551771484842,0.0636537760103532,0.02501931377074229,0.04575289866813282,0.007575574506332381,0.0045648642401753484,-0.015405530280327793,-0.049068949775834945,2.828125
0.058751885109424806,-0.01252464109737478,-0.16463291482648854,0.07785982296679865,-0.007012649694403367,-0.0073468665157012435,0.04190570677980508,0.01064063317434282,0.003156552628312139,0.007942231284248357,0.0008317362238920258,0.0007029529571513199,-0.002341784219005335,-0.008168367099143061,2.8359375
-0.35858817620287814,0.07842098222494708,1.0206559801288981,-0.483948254733718,0.04509354330915397,0.0426821856258555,-0.2576379714692847,-0.06555277492039498,-0.028282428161540238,-0.046411416219734755,-0.008862695657913772,-0.004856121171669121,0.016443985208215436,0.05060261488499848,2.84375
0.06945288946694357,-0.014813326702563995,-0.19541164382815443,0.09237878986651901,-0.008391211370107388,-0.008632598569533256,0.04957104709933822,0.01262500155715789,0.003972440125170342,0.009335092028316986,0.0010767052630982611,0.0008435617121149905,-0.0028192240901330334,-0.009643198612556757,2.8515625
0.7221719906871369,-0.15697745767439286,-2.049302528631904,0.9710598233347512,-0.0899010226148222,-0.08686691673138257,0.5181046807495212,0.13179846673699142,0.05315018026099481,0.09431663715057871,0.016232335211438943,0.009538901006072123,-0.03219195117274956,-0.10150713959538905,2.859375
-0.004050005820496611,0.0012265884596464546,0.013993158294899541,-0.006752666463625295,0.0008287006286246238,0.00019090329774313567,-0.00305996562323981,-0.0008215333436958868,-0.0015719408654428053,-0.00029848811760996264,-0.0006350275947903895,-0.00013223874739906488,0.0005034887985414653,0.0007381509521788362,2.8671875
-1.5325399079303617,0.3341626470200383,4.3558889028824614,-2.0645800920152495,0.19172897762423827,0.18340348627854078,-1.1001052649605252,-0.2799020550322003,-0.11673847179914017,-0.1993732088051463,-0.036130788940939976,-0.02049180500936941,0.06930573155595697,0.2159059238007471,2.875
-1.4100703514177209,0.30746214284528034,4.007651970066377,-1.8996260439342862,0.17641103874195696,0.16872306075328958,-1.0122412480983636,-0.25751992435354387,-0.10751113567381751,-0.18341261284940488,-0.033284265282832036,-0.018861186252000287,0.0637874751761246,0.19865862729876435,2.8828125
0.5304848812333366,-0.11526903775097569,-1.5050822515704874,0.7131059671712223,-0.06595362524806046,-0.06387654937727057,0.38052352877244633,0.09680156993534324,0.038693693488192196,0.06932503830388899,0.011782994034548029,0.006986512150283079,-0.023570630518615045,-0.07453533053868182,2.890625
1.5823548523257152,-0.34440448734779516,-4.493062699347961,2.1293554032206545,-0.19730063124937558,-0.18996086429585204,1.135438345821441,0.2888365319448238,0.11793607595080322,0.20632195130444703,0.036209022818180336,0.020994850784124785,-0.07092086662725411,-0.22262906969794102,2.8984375
0.6761616761017342,-0.14698067500899434,-1.918592506714038,0.9092720162474123,-0.0841141719879906,-0.08135739310447813,0.48500918781492375,0.12336844016716735,0.04966109390061622,0.08832576828800659,0.015160212777879562,0.008921007630935266,-0.03012477656721252,-0.09506261109191552,2.90625
-0.021067310940958425,0.004928308504926794,0.062355293124264126,-0.029470702853304026,0.0029458474598277663,0.00218978485213002,-0.015378746910190038,-0.003914206603344087,-0.002855945231965629,-0.0024442133553528957,-0.0010345148662678331,-0.0003667845053618258,0.0012648644260372902,0.0030792603452029403,2.9140625
0.8116839170077196,-0.17650027592671882,-2.3029795787959815,1.0918919898247703,-0.10106525672645711,-0.09764812600689098,0.5823396273370588,0.1481547570967703,0.059888592291791776,0.10602105590199006,0.018304523896179398,0.010725730114466345,-0.03621968720516392,-0.11420447464500344,2.921875
1.4497843225361757,-0.3155689875327299,-4.115573182277076,1.9511805910523525,-0.1807385651680295,-0.17412861653411618,1.0403006000383355,0.2646519333523108,0.10794419142752673,0.1890966483195643,0.033123823584307495,0.01922398367234984,-0.064940499053228,-0.2040803187813739,2.9296875
0.3843317689255103,-0.08349786189017246,-1.0889693293542986,0.5164217785341686,-0.0476691436244808,-0.04638430547546142,0.2756307537687093,0.07010023391897116,0.027660880641768,0.05030487231074185,0.008382335446670917,0.005033287492699543,-0.016975565655555965,-0.05405552113946916,2.9375
-1.3048123280859156,0.28450217385357857,3.7094862893346456,-1.7583344671672767,0.16325442078880179,0.15611452076983975,-0.9365886839982912,-0.23829741839894017,-0.09957569369199747,-0.16967444987284,-0.030839443294966268,-0.017459778090134947,0.05905623738321618,0.1838169139383135,2.9453125
-2.0713263803829944,0.4515129011107185,5.887018348369094,-2.7905198583684245,0.25895621591064755,0.2479899079753729,-1.4866889690270353,-0.3782269353727668,-0.15729588192917088,-0.26947297639754675,-0.048634330026411154,-0.027664406238645977,0.09354860347285736,0.2917572011159448,2.953125
-1.7619296085978873,0.3841009235800322,5.007865112625031,-2.373666805396131,0.22032898978726742,0.21088985137375457,-1.2647108593674725,-0.32173833396161,-0.1339917885586068,-0.22918657760900613,-0.041449103557843585,-0.023544681328957196,0.07961668586598228,0.24818596816709165,2.9609375
-0.651619166176519,0.14220446245356017,1.8533051539279608,-0.8785429465559438,0.08168988819444949,0.07780890699621382,-0.4678509392142844,-0.11902715784493478,-0.05036551667013059,-0.0846354745033755,-0.01566789667612057,-0.008759176305903227,0.02964270007410294,0.09187832147771659,2.96875
0.9142419399551533,-0.19890931821296734,-2.595187997823592,1.2297147856141513,-0.11385727909609979,-0.10986908273002084,0.6560415373877371,0.16687550030732387,0.0675989568532719,0.11926452273916227,0.020696650577165184,0.012097904452024449,-0.04084354253712881,-0.12854920008577628,2.9765625
1.726234193284501,-0.37578585460985225,-4.901991520945029,2.3231093803786678,-0.21525839372436337,-0.2072087475737992,1.2387353746362157,0.31513182833508563,0.12877945765767682,0.22504272402382774,0.039557707551490115,0.022914451295283675,-0.07740678736215958,-0.2428774484032048,2.984375
0.9416529849921733,-0.20486061566726232,-2.673445224174077,1.267041934582905,-0.11726682539915088,-0.11319497529460817,0.6754098905911653,0.1718599855022764,0.06966709345593854,0.12291269225621393,0.02133781606354658,0.012460463713551247,-0.04209502742940442,-0.13245691555253367,2.9921875
-0.2173965215825305,0.047646456309025594,0.6190028091470018,-0.2934462461611143,0.027473380478910642,0.025716174933298187,-0.15653815990862863,-0.03978202993173541,-0.017658979617197132,-0.02801265113384818,-0.0055837065974620355,-0.0029835032123240886,0.01009096033386444,0.03070413149863803,3.0
-0.2744329708458181,0.060105608822755584,0.7814159061545412,-0.37049284432671886,0.03457706548667376,0.032562725806367536,-0.19735301166800817,-0.0501995114071231,-0.021950774690714176,-0.03544082079557914,-0.006913954959541235,-0.003744269826614505,0.012673336572154631,0.038744160857258604,3.0078125
-0.006405274191749561,0.0017613974163317272,0.020656071411524778,-0.009880266079360434,0.0010981727623392914,0.0004608471891551919,-0.004862812507998098,-0.0012630291411796079,-0.0017500687273386804,-0.0005311116079144306,-0.0006934687705621616,-0.00016916280689598573,0.0006108706254477234,0.0010220348043519594,3.015625
-0.6446713673314056,0.14081972462489806,1.8342028009760465,-0.8693842511702453,0.0808064114485763,0.07698186258924179,-0.46287390188437094,-0.11779152781797389,-0.049832219284015905,-0.08365217449377527,-0.015518309722734219,-0.008665178512093662,0.029339864263826478,0.09088382596724741,3.0234375
-1.0636122364705511,0.23204577193376746,3.0243769212880185,-1.433492757050932,0.13311494870224905,0.12719520345733576,-0.763420892232495,-0.1942560789424404,-0.08139516072087875,-0.13823622369997451,-0.025248097335835804,-0.014244951269414746,0.048201705219964024,0.14985768856139195,3.03125
0.2395357932687137,-0.05189280629735027,-0.6777116529706602,0.3212139248412369,-0.0296235276144235,-0.029008265455886223,0.17193780341388623,0.04368787408943877,0.0167694917954215,0.03142886163050849,0.005015680050566366,0.003109184272404285,-0.010456910241864525,-0.033618704962200915,3.0390625
1.806067342242079,-0.3931718848984478,-5.128206789765615,2.4306614979462524,-0.22522750903887875,-0.21676932032351826,1.2961261253679501,0.32968135445865854,0.13477039180651287,0.23541417031077477,0.04139767234126384,0.02397377149958959,-0.08098195473272349,-0.2541650879315508,3.046875
1.200469722152245,-0.2612445907388612,-3.408091911369443,1.6153139540293722,-0.14958263628961688,-0.1441794231794148,0.8613208922628373,0.21909178140881425,0.08914899625774228,0.15656559964970798,0.02734007044404573,0.015910297546836948,-0.05373194233267856,-0.16889293972585484,3.0546875
-0.750746928797405,0.1637885740544322,2.135058848610409,-1.012059043848135,0.09407059687126992,0.0896747585064018,-0.5390607499461066,-0.13713145023209625,-0.05782090776866289,-0.09750979963361657,-0.01796382354905521,-0.010077509034288584,0.03409907494415143,0.10581919723297395,3.0625
-1.173533183963112,0.2558589126178522,3.3364968449100134,-1.5813921897071561,0.146855851694122,0.1403239775513073,-0.8424106625218051,-0.21428725892615225,-0.08965079104909958,-0.15256611004770054,-0.027777300637880573,-0.015711417854493162,0.05313391327500246,0.1653414473014106,3.0703125
0.12785498821224883,-0.027604276802481512,-0.36029536612116164,0.17103158255000356,-0.01564172454520372,-0.015667306086800066,0.09155486123552962,0.02330760998565277,0.008384778177687012,0.016898181083559474,0.0024396771701484183,0.0016195557651964847,-0.005445044229693177,-0.017868726050688493,3.078125
0.7188181506007362,-0.15626387940629605,-2.039173906755581,0.9668751231125959,-0.08942219776722024,-0.08649313349586447,0.5156136765656183,0.1311768804404015,0.052890231572723385,0.09386099733926463,0.016153117893014032,0.009490408618245297,-0.03204318747249698,-0.1010578895380566,3.0859375
-0.09133526438623275,0.020235409497088918,0.26205494148428576,-0.12401033968237225,0.01173537287560662,0.010618329930539289,-0.06578141567190113,-0.016731240572825507,-0.00815574911126452,-0.011630876994510916,-0.0026674443356737047,-0.0013010574282424317,0.004429931823498017,0.012986984937053747,3.09375
-0.6238820380142202,0.13617821934752747,1.7744297825781976,-0.8411063607553277,0.07821487529358649,0.0744621900237252,-0.4479345830721426,-0.1139407187222377,-0.048293181177058296,-0.08097749219551455,-0.015033606296339468,-0.0083957440639466,0.028398828386785712,0.08792314952328116,3.1015625
-0.405222644259824,0.08850273145919202,1.1528660803016346,-0.5466625189843511,0.05090143627018447,0.04827501733136613,-0.29111151544938424,-0.07403274528346086,-0.03183122031865079,-0.05248509378605691,-0.009950344410947597,-0.005481888389710158,0.018546186066227682,0.057113941388994525,3.109375
-0.5072756483538645,0.1107809103733314,1.4429436491043401,-0.684192072237297,0.06364539697914885,0.0605186431867494,-0.3644711207561298,-0.09269810079501199,-0.03950029998138651,-0.06574505105975367,-0.012315743999798444,-0.006836714501456774,0.023138336570474448,0.07150677215990849,3.1171875
-0.4733828783774955,0.10345875265729437,1.3470809884653192,-0.6388238805670101,0.05940592716171353,0.05645300012744546,-0.3400326517519621,-0.08650986851089726,-0.03691711752139276,-0.06133829617630462,-0.011528270803670857,-0.006382349591813422,0.021621132923040368,0.06679255342619805,3.125
0.8904168986087511,-0.1936431557589687,-2.5272628656549014,1.1974043783245132,-0.11090690525369616,-0.10701305028224307,0.6389843069498148,0.16251250154088237,0.06582400993438704,0.11620903010367016,0.020140302190137946,0.011782665814414816,-0.03976683555190981,-0.1251851167003217,3.1328125
1.9289955640214573,-0.4199437097757666,-5.478159129652635,2.596033613967291,-0.24059214511025137,-0.2314910916420652,1.3843710855838856,0.35212356272424444,0.1440380125417031,0.2514271212595329,0.044258589839729606,0.025614888840012465,-0.08652575626163109,-0.2714384485351989,3.140625
0.12649130121269012,-0.027307186868767187,-0.3578974680128109,0.16921877063063306,-0.015479520502113996,-0.01544328020713388,0.09049341427947026,0.02297865475336046,0.008232724718115165,0.0167226938105069,0.002403179431300093,0.0016040355861706415,-0.005389776953164877,-0.01771573629366776,3.1484375
-2.6040256653927814,0.5675449198304604,7.399201256734322,-3.5073752730185577,0.32551530155076897,0.31182227783176575,-1.8693038569293734,-0.4755750745713873,-0.19745650352298472,-0.33883161918947646,-0.06100554431517054,-0.034768695436809084,0.1175327736866172,0.36671334259389954,3.15625
-1.9684100540116558,0.4291380207531971,5.594308600003479,-2.6515913111545504,0.24613349390030534,0.23560923168520442,-1.4129615607307633,-0.35948247689751867,-0.14954672062722427,-0.25606696045963656,-0.04625104595215372,-0.026303275033185344,0.08893005726963976,0.27726198791942896,3.1640625
1.4953741920416272,-0.32538228257000174,-4.244642959371929,2.012481342839659,-0.18644398124698677,-0.17959715792927006,1.0731737691470975,0.2729950560378827,0.11141949260925652,0.1950011418281685,0.03417946207286375,0.019835429754191784,-0.06699012023660778,-0.21040506158516592,3.171875
