AF3,AF4,F3,F4,F7,F8,FC5,FC6,O1,O2,P7,P8,T7,T8,time
0.05724405530487876,-0.35407649499615595,-0.11484909957401337,0.9002929413207087,0.007020678985797096,0.06917018210659347,-0.01876470883634308,-0.12322086116841317,-0.4444102868599153,0.011326968713696966,0.06441598132590189,0.028947535467560286,-0.04522091813399512,-0.03775019388393714,0.0
0.04151891994299625,-0.2573066022096963,-0.08343774624253822,0.6540415623541522,0.00521769804931438,0.050227898476096045,-0.013578852324956668,-0.08964835058574466,-0.322948719253698,0.00823047973919149,0.046852675580746295,0.021080837760127952,-0.03276606976154567,-0.027371988643129834,0.0078125
0.03580149947019339,-0.22215513991408634,-0.07200694653014758,0.5645633989886625,0.004562478404326932,0.04331970105695017,-0.011695405355360707,-0.0774687217660178,-0.27884847052205836,0.0071023161071255905,0.04045367679478128,0.018223066929249684,-0.028245448746908063,-0.02359678025867471,0.015625
0.054212219033604896,-0.3355071154602172,-0.1087759486509968,0.8527858692881611,0.0066733939144093795,0.06548148737748241,-0.017768769340005607,-0.11678716850305479,-0.4210703226488844,0.010725806681006084,0.06100651023169391,0.02743492602515643,-0.04283672033449976,-0.03574589313849014,0.0234375
0.039771857564791555,-0.24672695597063288,-0.07991943628093098,0.6268244275826453,0.0050184797921043614,0.048056443830678794,-0.013010421903042312,-0.08599054736613809,-0.3095869253761469,0.007880284238033573,0.04487636150793411,0.020211949676035026,-0.03140543109599807,-0.02620707160014911,0.03125
-0.004125329451675152,0.023411495848156178,0.007782072694700444,-0.06025569823047997,-1.3614288368117747e-05,-0.004850238433982583,0.001463065731853627,0.007685412180352055,0.029426565484235806,-0.000765369450190729,-0.00414857690338714,-0.0017466252744120095,0.003364363681292191,0.0027739778632359484,0.0390625
-0.029804412357670573,0.18146240135655792,0.05908506134147287,-0.46213450035362835,-0.0029578560633096826,-0.03580007462084398,0.009930570977543489,0.06248082521105704,0.22773655064175347,-0.005824086466087412,-0.032831723789077685,-0.014594870679457316,0.023705795321570026,0.019723364802624786,0.046875
-0.04420294959895485,0.26991723562109476,0.08784768497618418,-0.6872776119441131,-0.004608939413696763,-0.053183214731363046,0.014675692409217215,0.0931774701370341,0.3387795971863618,-0.008664683972513833,-0.048930932750758445,-0.021806804411155907,0.03510441720120548,0.029225342240894438,0.0546875
-0.06266304021413453,0.38333815296062845,0.12471975075436247,-0.9760919554329418,-0.006725212768561498,-0.0754547583238504,0.020760764554743696,0.1325501536919512,0.4811606492878068,-0.012304476668281345,-0.06956596843678182,-0.03105010717520512,0.049721010232153154,0.04141066930119757,0.0625
-0.052770320740896846,0.3225823193877334,0.1049485421495303,-0.8215024208091403,-0.005591381891446987,-0.06349686366562375,0.017504607792655676,0.1114735801959038,0.40483981432747557,-0.010353307516347712,-0.0585106339490528,-0.026099597021120288,0.04189620703702931,0.034879669585857614,0.0703125
-0.0233452325582047,0.14174012885336756,0.04616253952438845,-0.3611860415138327,-0.00221907444963009,-0.027987405046323428,0.007810684958392529,0.04872967875316483,0.1778174218227209,-0.004552820524852814,-0.02563143364646527,-0.011373941579028851,0.01860432347997461,0.015456545397521173,0.078125
-0.04264529307616814,0.2603834311559591,0.08472752897604613,-0.6630198136677372,-0.004432560056597567,-0.05127677851859996,0.014174093480774193,0.0899026137949435,0.32682453250495896,-0.008356003056582215,-0.04719716662206425,-0.021033795084534117,0.03388653595824959,0.028203802604857442,0.0859375
-0.0847194861485368,0.5190000518272747,0.16878841948148438,-1.3211977415085632,-0.009256015316956046,-0.10204385878121641,0.028039607399074042,0.17964377132534723,0.65154149028409,-0.016647528931259176,-0.0942055690261543,-0.042091583630286845,0.06719777607796593,0.055982611521665046,0.09375
-0.022976538364374178,0.1392401876382009,0.0454276920950138,-0.3550571200878319,-0.0021771840537403195,-0.027590351207970317,0.007678972829621336,0.04791347478625267,0.1748638814855508,-0.004480757721887511,-0.025217263125116508,-0.011197405706347483,0.018299812022820543,0.015212047773920264,0.1015625
0.13131981199976456,-0.8096297212616747,-0.26284875627355736,2.0592798978394553,0.015511882308690307,0.15849569859335427,-0.04319083497551778,-0.28125537099880327,-1.0162404315818387,0.025923444875379877,0.14717461026772213,0.06601233106652375,-0.10388831602973671,-0.08666690137129679,0.109375
0.17345893538698076,-1.0687331264882447,-0.34704231881330694,2.718615278442497,0.02034245742232144,0.2093225498236827,-0.05708084158831243,-0.3711440368940114,-1.3415259842086278,0.03422542807341777,0.19425235136282704,0.0870979618434998,-0.1372572845722609,-0.11449012794040865,0.1171875
0.0164169740624909,-0.10289585561236025,-0.03327715293093541,0.26115558784214526,0.002338684514808112,0.019936390184252657,-0.005303524995571642,-0.03610475588914459,-0.12917862814619552,0.0032791755257461086,0.018798656310468745,0.008515097346008799,-0.012890941318422222,-0.010796960778676229,0.125
-0.12786958459665115,0.7844400783506867,0.2550116493461364,-1.9965832087553537,-0.014200843239390224,-0.15407758845782438,0.04226370326134187,0.2717032984582892,0.984689628006135,-0.025150612265206377,-0.14239554929894546,-0.06367634156462376,0.10136984398897902,0.08447844811492859,0.1328125
-0.05882891846536101,0.3597195295667938,0.11707659190100142,-0.9158962006773737,-0.006281897986556784,-0.07083364801690249,0.019493528809850842,0.1243743740430029,0.4516024136530693,-0.011542980933545484,-0.06525584871892413,-0.029111702797028616,0.0466812640051206,0.03889733371543672,0.140625
0.08954847576172517,-0.5528994066490808,-0.17938212180210614,1.4062271169238494,0.010731213745239927,0.10809701668836971,-0.029430958129624468,-0.19221136790099552,-0.6940188221327299,0.017695435779082808,0.10050683506996715,0.045146629754958374,-0.07083749242077685,-0.05907648421733803,0.1484375
0.07888158379187035,-0.4872281718902029,-0.15806955729722377,1.2391676218374004,0.009506799575079624,0.09524107115050019,-0.02591001614993161,-0.1694580513329185,-0.6116761833174386,0.015591918380400352,0.08857583296680835,0.0398046066021199,-0.06238807306547066,-0.05203708827847344,0.15625
-0.025380575516635702,0.15410216992150827,0.05025757423576912,-0.39274287333720614,-0.0024499157266074855,-0.030490455602865195,0.008473699762467445,0.0530053093237667,0.19341266110266686,-0.00495373077619904,-0.027911946738535313,-0.012379543834730052,0.020197079007383236,0.01681273100141831,0.1640625
0.0011238038035544004,-0.008931202833498015,-0.0026954482389426166,0.021827621563805386,0.000586539642771064,0.0014698893021261208,-0.00025997353418831125,-0.003503510817649149,-0.011074171346184065,0.00026892648177238593,0.0017017741897009098,0.0008740386988740344,-0.0007809917895367517,-0.0006784301642341049,0.171875
0.09497782929132573,-0.5861765299039285,-0.19023826912102948,1.4905118945066083,0.011345731509353352,0.11466750378312467,-0.031202899207422113,-0.20370759056456703,-0.7356793626462214,0.018761654565582608,0.10655638480519634,0.04783138992951588,-0.07510611179893065,-0.06265695182063825,0.1796875
0.012146717540865392,-0.07658288729161149,-0.024765748052240934,0.1942743976016551,0.0018483275280247095,0.01480804930698397,-0.003893187907469785,-0.02698134957349814,-0.09623951874585332,0.0024385631360071985,0.01401806139247026,0.006376469573039745,-0.009506197262521658,-0.007986244589106056,0.1875
-0.17461471471777235,1.072216971775338,0.3483837197783802,-2.7283210759624894,-0.019563938482789443,-0.21040583498292809,0.0576801733868182,0.37145443506538633,1.3456778573139465,-0.034362281473709934,-0.19462444217820363,-0.08708143804763611,0.13840236893174576,0.1153164879095215,0.1953125
-0.1600424733654645,0.9825098395742079,0.3192781878557619,-2.500138758529898,-0.017892350455092788,-0.19285166485534902,0.052870162119595505,0.3403417436890554,1.233208793350528,-0.03149077246378757,-0.1783398212615879,-0.0797892459200875,0.12685663844693937,0.10569354087147956,0.203125
0.029599212334165154,-0.18403137244919993,-0.059627124591648366,0.46764126227314,0.0038505998483076382,0.035830838942129864,-0.009657608305386792,-0.06426683085100972,-0.23096758298600223,0.005875842632820278,0.03351868605811535,0.015106789566277838,-0.023340172556593937,-0.019524025754678462,0.2109375
0.06973528271366262,-0.43090647338282145,-0.13981963920131688,1.0956049150564835,0.008451896986501633,0.08423394178939483,-0.02288654136839174,-0.14988935544688692,-0.5408815414602929,0.013783281988717365,0.07834791729380147,0.03519181821889717,-0.05512605329372645,-0.046019140398069765,0.21875
-0.06550916663185169,0.4009202197777832,0.13041242602086203,-1.0209522146577397,-0.007053653252030376,-0.07887328957368234,0.021707435580474915,0.13866974729967757,0.5033085729885843,-0.012863938157879848,-0.07274278687778352,-0.03247811280400981,0.05198882659389487,0.043302315645895685,0.2265625
-0.07730055213736545,0.4733324963136846,0.15398538548486976,-1.205367494388837,-0.008404425704705433,-0.0931161990436749,0.0255928971623201,0.16383662337633156,0.5943649496546337,-0.015183679539572465,-0.0859031426271029,-0.03837136150841646,0.06132701447216932,0.05110840307979839,0.234375
0.08230042920926009,-0.5083448850980835,-0.164896235189847,1.2923784296545637,0.009894423007144982,0.09935286656549448,-0.02702998470055526,-0.17667748141245285,-0.6378898170763807,0.016265844836128262,0.09240818491570389,0.04149500287425251,-0.06507662710917946,-0.05427616999506864,0.2421875
0.1509645573939535,-0.9305065141525942,-0.3020879226990802,2.3668935602744265,0.01776687792850891,0.1821843935350475,-0.04966579258577637,-0.32319016333446077,-1.1680662507028672,0.029793994237634708,0.16911805459082135,0.07585647135874335,-0.11945661829004911,-0.09962826419363788,0.25
0.06687553699774179,-0.4131762299909514,-0.13407465158699494,1.0510253104432608,0.008127400587399147,0.08079320241007808,-0.021939977680491753,-0.14380224474146672,-0.5188797907350741,0.013224978595791201,0.07517661345458476,0.03378778848051425,-0.05286067522681361,-0.04410775840763967,0.2578125
0.02313962426390602,-0.1442706827497199,-0.046693986312093504,0.36684516975850184,0.003115092777190022,0.02803871356015858,-0.007525513588859844,-0.05049771980725132,-0.18125820010304294,0.004610462910105906,0.02631961656364357,0.01191228615616888,-0.01823144459430698,-0.015223792852186365,0.265625
0.04752030902688249,-0.2943771271220681,-0.09541673076921545,0.7484490528880448,0.005910073597561419,0.057423979873887844,-0.015569108080766718,-0.10251351614241275,-0.36950441225866076,0.009415049536219697,0.05355126298654568,0.02410694154566334,-0.03754637893644173,-0.03132500833122779,0.2734375
-0.0032390587110178136,0.017835220274933578,0.005999797755660503,-0.04624306531074724,8.755366147624649e-05,-0.0037967349141750754,0.001168626682247632,0.0057833858356806595,0.022484226569974362,-0.0005924564314550402,-0.003173247215606554,-0.001313012202313146,0.002663356121052975,0.0021826089492020446,0.28125
-0.1007135128831433,0.6174626790947417,0.20075872093237734,-1.5719337571862355,-0.01108998252093791,-0.1213439464993654,0.03331061696487112,0.2137489524883476,0.7751634450479052,-0.01980372863031487,-0.11207749439960513,-0.05010160158796739,0.07987413900927307,0.0665407293120465,0.2890625
-0.10018149728183089,0.6142305579357656,0.19968516577924839,-1.5634400248458085,-0.011028086026956395,-0.12068340135131615,0.03313439125000984,0.21262423844422698,0.7710467367252594,-0.01969518130415777,-0.1114703236371216,-0.04982786300968233,0.07945067891876544,0.06618540802213821,0.296875
-0.03266751109287352,0.19897399387105524,0.06477188124834407,-0.5066890301689936,-0.003286492924553901,-0.0392373461037768,0.010873301696324252,0.06860087077727581,0.24971648884761005,-0.006386615019596935,-0.0360341642508583,-0.016034367188861077,0.02597178583773751,0.021597989444292247,0.3046875
-0.02151149065922516,0.13037416459590742,0.04248318479017009,-0.33233359911363886,-0.0020090915981252054,-0.02578168218129787,0.0072001119127127824,0.04481360715519025,0.16360574214109855,-0.004191528023678798,-0.02358441461073598,-0.010459679704306344,0.017140780052059223,0.01423240431674379,0.3125
-0.04386604894707331,0.2678890207047119,0.08717177006240072,-0.6824469102368315,-0.004574232755815701,-0.05276831202298185,0.014576651062884274,0.09250300060853896,0.3362963002389343,-0.008603328632755522,-0.048577892229502484,-0.021657827394008695,0.034856853243053355,0.02900734991393285,0.3203125
-0.010979487267415076,0.06559936691758231,0.021477253912261483,-0.1675713377072886,-0.0008024580735074678,-0.013124014902169847,0.0037311640757527955,0.022321569001240854,0.08238656721726596,-0.0021218944574702206,-0.011830151948351754,-0.005193625964501719,0.008807231992483197,0.007302306938093434,0.328125
0.05746454404310253,-0.355430504301271,-0.1152844508102988,0.903981337819704,0.0070486508593344405,0.0694332268566277,-0.018843679871977152,-0.12371589212392994,-0.4461738141107886,0.011373081604316543,0.06466262745283609,0.029076248108596423,-0.04541659762508878,-0.03789555034772525,0.3359375
0.08831313185408515,-0.5452227899891866,-0.17692623423949164,1.386815790863559,0.010587433758934365,0.10664894173930675,-0.029017845480243203,-0.18953342475246523,-0.684432676290787,0.017455639349691594,0.0991419876916354,0.04452039097965699,-0.06985410224195752,-0.05826929183583318,0.34375
0.0613078706702139,-0.3791225665965057,-0.12295959066543376,0.9639402786483863,0.007489698154347937,0.0740685273124367,-0.020110765936445417,-0.13192139518936669,-0.47591587567994503,0.012131061207164152,0.06896551185783528,0.030998332722785335,-0.04845648178868339,-0.040433692174269356,0.3515625
0.0018235389495512228,-0.013219144759736436,-0.004107258543923771,0.03284558667358798,0.0006672523439806234,0.0023161025886649493,-0.000496351152141256,-0.005011080847813142,-0.016615788149785548,0.0004059508009858109,0.0024975065449238396,0.0012230087153701202,-0.001339178047761513,-0.0011543864687705403,0.359375
-0.039471506447874394,0.24076726514413938,0.07838604747874085,-0.6135081690353165,-0.0040691366653878985,-0.04748547873093082,0.013118831790699852,0.08311434296018966,0.3022536503213508,-0.007733233498133921,-0.04364713032990895,-0.01944917209408658,0.031364791901664156,0.026108339609705166,0.3671875
-0.01942680513288746,0.11744947518047,0.03833073419258005,-0.29995466605775345,-0.0017726609812971322,-0.02331041513437029,0.006513073145410403,0.04037925263371599,0.147584046761678,-0.0037862976970952185,-0.021261922695062718,-0.009431793496514554,0.015495482282410504,0.012872238602654311,0.375
0.0276912059646922,-0.17230757383775058,-0.05579765728769963,0.43740656207337836,0.003628831938135967,0.0335112692935181,-0.009017685310106431,-0.06014729291092581,-0.216133025655197,0.0054957747106961965,0.03137605676146863,0.014137905236524147,-0.021809352869235382,-0.018236446022477086,0.3828125
0.029653406383736026,-0.1842655030491524,-0.05970681004453748,0.4683242723711759,0.0038554552560270136,0.03588405792640069,-0.009665327789496197,-0.06436781310517573,-0.2313361842409151,0.0058833850043469565,0.033574675477403754,0.015128796130713544,-0.02336364842936195,-0.019534995844369078,0.390625
-0.0013566361822583348,0.006498372567677346,0.0022480962764399627,-0.016747406495315992,0.0003025574081872923,-0.0015006824109332286,0.0005550749500917795,0.0017630061328656823,0.007981984557441908,-0.0002236733145346002,-0.0010641239316679727,-0.0003711094590669358,0.0011815397116902396,0.0009337993061773288,0.3984375
-0.0028364537603342353,0.015527762076289118,0.005198035630683171,-0.03980672296444163,0.0001341621827154142,-0.0032772433921538073,0.001041497284004523,0.004919270739569504,0.01937745637045142,-0.000511401706414495,-0.002715585073972914,-0.0011002435838893532,0.0023424738640089294,0.0019094556675179287,0.40625
0.0023208948254988893,-0.016269636886343024,-0.005113079191775155,0.041001175254278585,0.0007267213516410409,0.00294682936762081,-0.0006606274904056056,-0.006074184482945336,-0.020453921036374716,0.0005091175101074452,0.003051147697780297,0.0014874728906904952,-0.001744827777468765,-0.0014932608205888247,0.4140625
-0.05497654176164291,0.3360898275206601,0.10935613063828187,-0.8555790136605742,-0.005840072342141607,-0.06615139586987381,0.018225143605317108,0.11617021486156003,0.42183807534885287,-0.010778059215874358,-0.06095800128018444,-0.02717601477100131,0.04362942090367935,0.036341578836552854,0.421875
-0.1386682647736172,0.8507822160701245,0.27656775446252047,-2.1653813994866646,-0.015434248762629735,-0.16709139377989243,0.04581520736597778,0.294722743390979,1.0679302017469945,-0.02726985000452655,-0.15446619200913858,-0.06905269109110648,0.10990658318559617,0.09160679610524643,0.4296875
-0.13165435521447205,0.8076373763667951,0.26256550073056883,-2.05581263896268,-0.014632245682246643,-0.1586463485806146,0.043506724127628786,0.2797645925352338,1.0138394976769887,-0.02589085484562984,-0.14663841527528726,-0.06555140731233343,0.10435652626116221,0.0869822015458222,0.4375
-0.0037503952542813695,0.02105258005203547,0.0070255871429669575,-0.05430545717612394,2.8762030239944277e-05,-0.004398777009832648,0.0013424595796770495,0.006896749126679021,0.02645283982318408,-0.0006905492473298513,-0.003735868068323312,-0.0015614312878128192,0.0030726267566326963,0.0025289709470298492,0.4453125
0.13955632597757003,-0.8602832631638093,-0.2793003996449507,2.188342639728042,0.01645727012889728,0.16842664457169398,-0.045905081558724144,-0.2988380097007404,-1.079899719137365,0.02754476653457844,0.15638048422830828,0.07013803508352395,-0.110413866573209,-0.09209985721911271,0.453125
0.17783908298727288,-1.095789750606573,-0.35578672864537947,2.787432302137367,0.020845924635582866,0.21457902596329867,-0.05852937853077156,-0.3805195603737555,-1.3754247166594897,0.03508511794763221,0.1991496439010276,0.08928647687055295,-0.1407331189294374,-0.11737734873961857,0.4609375
0.10075762358924079,-0.6217741369474065,-0.20176844003781788,1.5811359952575168,0.012008269276761508,0.12160411266989692,-0.03311672395865155,-0.21607715413123724,-0.7802626746222258,0.019895706593712096,0.1130246028264247,0.05071234592856553,-0.079690403763137,-0.06647687478284962,0.46875
0.002455975089331016,-0.017126784846293295,-0.005363448913860012,0.04269456597771049,0.0007379895012204816,0.0030678480797821112,-0.0007048002388784098,-0.0063459323393184695,-0.02130423680427627,0.0005272753559360382,0.0031977011356324066,0.0015249229936216007,-0.001837262755726472,-0.0015714259341427874,0.4765625
-0.03968076881991062,0.2421644082302893,0.07880971978688277,-0.6169408882660781,-0.004093574223525423,-0.04771463490774498,0.013193120482150551,0.08357491403933,0.30399504174436615,-0.007776020237810791,-0.04388041368874965,-0.01956162066065584,0.03154236345718709,0.026242666321894762,0.484375
-0.0460921807359191,0.28166742266042627,0.09161016786157011,-0.7174170864624839,-0.004830159033597537,-0.055428944109766835,0.015312809915964365,0.09726705224355865,0.3534728167938769,-0.00904153598405608,-0.051050706509116264,-0.022776274130812842,0.03662685889171837,0.03047012980793931,0.4921875
-0.06138818448016029,0.3756817403432919,0.1221729330809669,-0.9565294058839741,-0.006583460015563492,-0.07388191996615341,0.020354114272542044,0.12988428128099136,0.4714925665098039,-0.012053665636952293,-0.06814260158085447,-0.03042577775055136,0.04873159564388606,0.040567381769503884,0.5
-0.056237632655054486,0.343877039305189,0.11187894950032565,-0.8754723988058966,-0.005989132942744791,-0.06768098273804322,0.01864628183733037,0.11886305508530476,0.4315819065735378,-0.011033031057885723,-0.062385592956853274,-0.02782825143629521,0.044631670616955096,0.037164724889178075,0.5078125
0.0072951249011414775,-0.04692553776041351,-0.015066435462896417,0.11885467895511273,0.001297757834259711,0.0089357062367661,-0.0023053410436634095,-0.01669533541716265,-0.05900114900205716,0.0014876542360421562,0.008591162064834894,0.003976301187756544,-0.00569196489425762,-0.004783384539952622,0.515625
0.06401744359783597,-0.39571443269345635,-0.12839573159764128,1.0062102269598727,0.007799119194229752,0.07734528940558826,-0.021000543437218928,-0.1376875294254483,-0.4968393301058442,0.012661157148816925,0.07195853986531146,0.03235097590449673,-0.05060004682623144,-0.042230156331753956,0.5234375
0.028397041031236525,-0.17656146690549687,-0.05721890325519932,0.448665260992171,0.0037128143620824994,0.03439110590027717,-0.0092516159394301,-0.061663815094092835,-0.22172568563238923,0.005641701993222773,0.032174983061182695,0.014516483412316095,-0.022377486063233108,-0.01870517244318967,0.53125
-0.04718987743956515,0.28827732472986717,0.0938100176643389,-0.7338800075147418,-0.0049510441097391595,-0.05677147581987556,0.015663064943991854,0.09958364933281373,0.3618108272919392,-0.009247983219667442,-0.05225203730071788,-0.023296783815187263,0.03747558399457799,0.03120559740788963,0.5390625
-0.04717806235847887,0.2881229175832934,0.09379813902632451,-0.7333655312190517,-0.004946005911236304,-0.05677214354040407,0.015651285652863205,0.09950469099979267,0.36163417068116416,-0.00924380775989297,-0.05223294312935663,-0.023274585257853843,0.03744891740223716,0.031197894975815963,0.546875
-0.0013904500749043818,0.006536259028437759,0.0023274485201735923,-0.016920945868389554,0.0003029827894263248,-0.0015589454005623797,0.0005573014014478392,0.0017949690084990196,0.008154284861148244,-0.0002249458170077573,-0.0010833159693885834,-0.00036454338604852696,0.0011853964617573765,0.0009650497581367136,0.5546875
-0.03511916479528452,0.21404092439477976,0.06971505942266736,-0.5451387599360978,-0.0035673836341923353,-0.04222816677763872,0.011684543131124762,0.07379746110304454,0.2686828305458361,-0.006873455902832001,-0.03876690781971984,-0.017258688888757746,0.027914075914740686,0.02323975867842237,0.5625
-0.10982461034710578,0.6734658488335473,0.21896622055557566,-1.7145220218216015,-0.01213368411602748,-0.13232772374092355,0.03631600338708518,0.23322653144056352,0.8455617863857467,-0.02159351493201146,-0.12223407224812549,-0.054652880752049,0.08709497597725759,0.07257703897054817,0.5703125
-0.04858308513332998,0.29671386383878656,0.09660898110324105,-0.7561492883705857,-0.005111709500087475,-0.058498499557020356,0.016120860433285384,0.10255335199140202,0.3727714091298567,-0.00952809611089434,-0.05383120212016646,-0.024010371013810077,0.03859447676599939,0.03214491147248563,0.578125
0.12852152338571812,-0.79256733772112,-0.257239413811707,2.0156138395683514,0.015193306823805066,0.1550762719064289,-0.042272851129667444,-0.27533553777496667,-0.9946492437559833,0.02536630579223843,0.14402316564224305,0.06461292055778717,-0.10168013382792591,-0.08480759658060259,0.5859375
0.17540334419671208,-1.0808741299116493,-0.35092349451592886,2.749457236285615,0.020568005663469755,0.21164358936077626,-0.057729049617145735,-0.37534634691410523,-1.3567164941034855,0.034606011556468044,0.19641251944641072,0.08807437565991605,-0.13881842136824601,-0.11577979359419723,0.59375
0.0309521904550378,-0.19242287237602682,-0.062332095953844924,0.4888477465884104,0.004006960998237745,0.03747099170785679,-0.01010040806727726,-0.06711496836878221,-0.24150121072504074,0.0061477508406278065,0.035041502396141004,0.015793411689929145,-0.024410383880517146,-0.020399632212691896,0.6015625
-0.058195700837888394,0.35590650138646795,0.11578008621057244,-0.9064479614613739,-0.006214381007325163,-0.07003170187913976,0.01929662257345782,0.12310164647132983,0.4468217296981863,-0.01141773577241585,-0.0645644256129897,-0.02881629257729985,0.04620244977615432,0.038473120519305855,0.609375
0.030605412190131662,-0.1901744763054869,-0.06164622390536381,0.4831282137470947,0.003965234745033719,0.037068282599576896,-0.009977442903909133,-0.06636058319227928,-0.2387935237491457,0.006077154762367041,0.034633263143935784,0.015620183697131756,-0.02413028209267971,-0.020168186810809053,0.6171875
0.09644273578961234,-0.5950187861564029,-0.19320268013734568,1.5134615230001762,0.011513171702947791,0.11648965621155326,-0.03168459622305666,-0.2068247446220405,-0.747200582825716,0.0190499528425403,0.10818992295508834,0.0485691396123323,-0.07628244753275676,-0.0636587659679937,0.625
0.010517605007186613,-0.06648753421463725,-0.021522666961150294,0.1687923599097515,0.0016622218585952556,0.012866774117573367,-0.003357395550610619,-0.023517021473002928,-0.08381458697921386,0.002119351196124704,0.012196969245924024,0.005571744321880538,-0.008228247392401612,-0.006928568077249021,0.6328125
-0.07434813940752258,0.4555219575381329,0.14807607418537,-1.159339208980911,-0.008068755420939317,-0.08951988879506485,0.02462247846916526,0.15749935096272996,0.5715523636479625,-0.014607676367543662,-0.08262075200937036,-0.03690529464447344,0.058995913164792906,0.04911953253784047,0.640625
-0.06438480767672208,0.3942377103643055,0.12820731183852938,-1.003374180902596,-0.006927428284475529,-0.07754153446113812,0.021337578165138874,0.13621135342913093,0.49476589557750567,-0.01264918872991207,-0.07148520375046653,-0.031925990698172035,0.05110554883535768,0.04255485848798333,0.6484375
-0.07027836618530067,0.43033665578008573,0.13998539551718836,-1.0954124509753456,-0.007600351894032714,-0.08464950631827188,0.023277531158493518,0.1488003926154254,0.5402589329122943,-0.013806249145216842,-0.07805022015982967,-0.034863654122854575,0.05576162426847329,0.0464584293049515,0.65625
-0.10180986375102359,0.6240268475362315,0.20296785809834855,-1.5885775918669232,-0.01121038462515443,-0.12266958610641711,0.0336679250152272,0.21608985491756202,0.7836032998468446,-0.020010286511150728,-0.11326900287365226,-0.050623317838168896,0.08072652296234367,0.06729040575492834,0.6640625
-0.03975630288720669,0.24222590465728938,0.07897281619317557,-0.617255970930413,-0.004093720375463866,-0.047846124185610565,0.013205022846098409,0.0836819955389092,0.3043937785878511,-0.0077805629410697555,-0.043957099251340004,-0.019565625166428176,0.03157995988928155,0.026318483179756495,0.671875
0.047762920900955345,-0.2959955240469631,-0.09590236757875006,0.7523579391961884,0.005938816560228558,0.05769982861114427,-0.015650005499343554,-0.10305043964268006,-0.3714173720088524,0.009460191033539258,0.05380628715068093,0.02422304018131775,-0.03773655730644184,-0.03148397845425462,0.6796875
-0.0009075228121509567,0.0035135268812756778,0.001324982769392033,-0.009498157004575366,0.0003571358505270692,-0.0009670069118408976,0.00039853026814253044,0.0008105986697227034,0.0043241305916996865,-0.00013186255341741458,-0.0005620295379912934,-0.0001348555464704283,0.000807946843852904,0.000637727724568007,0.6875
-0.07889085821353765,0.4832512502907893,0.15713203970149053,-1.2300108878090197,-0.00858370170180242,-0.09499247947926216,0.02610998795682561,0.1672021239847413,0.6064945300642178,-0.01549487522508367,-0.08767179854450606,-0.039155172351663624,0.0625751716701348,0.05212676239225124,0.6953125
0.013191911571708325,-0.0830903573634531,-0.02683733872555815,0.21102044274773626,0.0019729151961017104,0.01604670374345393,-0.004249759161074921,-0.029263194986896543,-0.10434399980194901,0.00265139265041779,0.015208495685291232,0.006921662380725303,-0.010343711988540718,-0.008669973914343185,0.703125
0.16239864080683367,-1.000798816905064,-0.3249462204660923,2.545843624273123,0.019076851907133454,0.1959766710265367,-0.05343860483743086,-0.34757166631970393,-1.2562834320805911,0.03204959334987182,0.1819013443688809,0.08157530278694178,-0.12850603914411066,-0.1071842853165685,0.7109375
0.14646668598568166,-0.9028158468104348,-0.2931201174491262,2.2961428659221252,0.017247430620921607,0.17677560574227386,-0.048176949906456906,-0.3135279795396741,-1.1332451823105028,0.02890705315696289,0.16409413942210319,0.07359118337786608,-0.1158832081712356,-0.09665938687059805,0.71875
0.03756060356429057,-0.2329887728901369,-0.07552607410264742,0.5916138700803636,0.004760171114312946,0.04544404392934789,-0.012265948385130909,-0.08117300617420622,-0.2923475306401393,0.007444517575797215,0.04240421106405118,0.01908613923055252,-0.02962948943980674,-0.02475071697126497,0.7265625
0.006857905816073453,-0.04412326963900726,-0.014172347945815452,0.11123658818238187,0.0012403712344293725,0.00839970995270394,-0.002147164096158358,-0.01572285948997885,-0.05527559173005754,0.0013911818933880532,0.00808487112125521,0.003719319004421008,-0.005316012890261065,-0.004487118662261103,0.734375
-0.0066366830607764915,0.03893453967944086,0.012793473867419728,-0.09978388419130356,-0.0003059110771757512,-0.007887672918272862,0.0022960767505353264,0.013042411459065852,0.04886381576515659,-0.001268722164339536,-0.006985051611974328,-0.0030303579885586204,0.005369196494210181,0.004418503981608149,0.7421875
-0.0840498600830537,0.5150895281436855,0.16745850129326134,-1.3111357802237968,-0.009179781028104168,-0.101235024008339,0.02781698558108696,0.1782294966831434,0.6464960471343487,-0.016518561773912536,-0.09344688153842286,-0.04175904305973063,0.06667814362289302,0.05553973507413172,0.75
-0.10015633775887614,0.6140938551361157,0.19963621508930474,-1.5629659890154624,-0.011024176068866121,-0.12064715988206612,0.033125765953225826,0.2125929931272812,0.7708101199536512,-0.019687729431068817,-0.11143014040343807,-0.04980768658887743,0.07942619832467306,0.0661776907649258,0.7578125
0.002169679150795509,-0.015349228988546326,-0.0048066347460055045,0.03861541402075496,0.0007091671887968968,0.0027503246344433773,-0.0006139062580589066,-0.005765949589178053,-0.01929089835833036,0.00047559030994591693,0.0028777295282948387,0.001404688753404356,-0.001628817233047893,-0.0013947195689295012,0.765625
0.048110642572353875,-0.29794272387122384,-0.09659397967349388,0.7575660726665793,0.005976452957144111,0.05814975355403245,-0.015760130899623772,-0.10380005520004362,-0.37405173996918556,0.009527487509060366,0.05419422161545862,0.024397747857189418,-0.03801919675843064,-0.031731850557703306,0.7734375
-0.04067870722431821,0.24816146482333623,0.08080551638361347,-0.6320409449956174,-0.004203665195049634,-0.04891984125348514,0.013517911821975129,0.08566168398666493,0.3114702886674484,-0.007965723872961487,-0.04499483981438684,-0.02003104739004801,0.03230743120876603,0.026905214500657103,0.78125
-0.0931780127645953,0.5710403946655208,0.1856986155659466,-1.4535378089817599,-0.010222371946036427,-0.11223010031203035,0.030827693863204105,0.19767946273185505,0.7168084625604875,-0.018308888569986123,-0.10363967193028327,-0.0463025207107913,0.07389012943095356,0.06157603792264295,0.7890625
-0.016650124609163403,0.1003324022480109,0.03279628527672332,-0.25574972062326584,-0.001448012302290868,-0.019950640575342782,0.005592034873773141,0.03437753608713054,0.12590628986024452,-0.003232512142603977,-0.01814347147938693,-0.008012342857084385,0.013276601216421926,0.01103540568074845,0.796875
0.04935010658549899,-0.3055551664742079,-0.09907295637153528,0.7770654346392315,0.006117894521349637,0.05963629840634908,-0.016170292358503622,-0.10644190372855326,-0.3836508026369561,0.009768989820807043,0.05559378232240621,0.025006141875035047,-0.03899077280337802,-0.032552758383988016,0.8046875
0.010805217276568737,-0.0683740114801475,-0.022058357822526523,0.17359796442612271,0.0016965649114637864,0.01315526385741323,-0.0034580049260247293,-0.024165937155568945,-0.0858820363247125,0.002174492173090492,0.012539681781154093,0.0057091488098317735,-0.008442494069766092,-0.007092290812765629,0.8125
-0.0333071924111275,0.20300628779454807,0.06608233350346511,-0.5170094821298823,-0.003362402447314061,-0.04004179783470072,0.01109022915465832,0.069989185627702,0.2548759300000737,-0.006516632861057748,-0.03674123688194919,-0.016371570162421845,0.026512180781547916,0.022049997077244702,0.8203125
0.005143558092508574,-0.03353300481477864,-0.010745348871968284,0.08454624354610366,0.001045966340856496,0.006326681336383611,-0.001587322119418634,-0.012037764644701219,-0.04200609383068016,0.0010575615541414487,0.006205880006554677,0.0028679076349296846,-0.003946901062743875,-0.0033400092074375816,0.828125
0.06647709053373758,-0.41086900328081527,-0.13330088394256576,1.044394179419672,0.008078660901327042,0.08029724839231606,-0.02181193277918656,-0.14290312755411097,-0.5156838338331254,0.013141779150898827,0.07471875501136109,0.03356509874669253,-0.05254376803963678,-0.04385170557937918,0.8359375
0.0658067871142731,-0.40680539132394855,-0.13196763117720575,1.0341159480438917,0.008002643540485072,0.07949355275979578,-0.021592466187788453,-0.14148256484305077,-0.5105760424392752,0.013013281814094039,0.07396828936270076,0.03323817824507663,-0.052022628974669784,-0.043412981785673835,0.84375
0.01750874462910595,-0.10975272143552281,-0.0354629559155524,0.2784259095489576,0.0024656600506407283,0.021241690764182346,-0.005667849908791989,-0.03844630316584537,-0.13765016199101796,0.003499738600263844,0.020006838428882626,0.009072985857274464,-0.013764516101161882,-0.011512434862682571,0.8515625
-0.009900663388733731,0.05881673457055798,0.019306407065130315,-0.15062146219743158,-0.0006768476003434505,-0.011821145117394613,0.003370050708665997,0.020023784223502185,0.07398618474618522,-0.0019025095396165098,-0.01062227596940097,-0.004644508114420611,0.007946915114114356,0.006590766952197587,0.859375
-0.0010619788910305925,0.004432631510536977,0.0016425265658640714,-0.012385544175294803,0.00033702733228442854,-0.0011572836308824232,0.0004545497186211882,0.0011542962889275529,0.005690621704610235,-0.00016262180444059156,-0.000749808567923505,-0.0002190186690114482,0.0009373375840175538,0.0007459349539825854,0.8671875
-0.004313223454758197,0.02447679250396517,0.008131217131047795,-0.06306570109328029,-3.428421664500061e-05,-0.005064185672877227,0.0015234791233090061,0.008075672515336961,0.03070764339442496,-0.0008014841067538528,-0.004373793015009223,-0.0018373270302572539,0.003503719790811206,0.002882918118294686,0.875
-0.03550723599235503,0.21647024279457255,0.07046073501884316,-0.55103900809959,-0.003610188909865378,-0.04267291465669568,0.01180905573222772,0.07462572382718438,0.271520023946878,-0.006947143821008679,-0.039212790487318946,-0.017444163577473352,0.028214284649670327,0.023480912524353834,0.8828125
-0.0403656027022509,0.24645695611646823,0.08018710635037496,-0.6272167303494506,-0.004169329999060719,-0.04853253658280025,0.013417834770912816,0.08500546442419059,0.3091196393907541,-0.00790776431179209,-0.044635646907335284,-0.019884441102925605,0.032073580293740744,0.02669632892843901,0.890625
0.002101555092541079,-0.014766143769845742,-0.0046423610235375645,0.03714016864292478,0.0006969311169418418,0.0026700835132738025,-0.0005780574449439189,-0.005591566102413643,-0.018631789619310613,0.0004572054362736101,0.002807968681861057,0.0013568519613917373,-0.0015560693552195818,-0.0013386318944561223,0.8984375
0.02866579821675107,-0.1782492838523931,-0.05771800178885807,0.45293723892694204,0.0037428120698293965,0.03469260388017647,-0.009339397553104369,-0.06227981682528848,-0.22372769725070202,0.0056927617412604195,0.0324843659203984,0.01465030361622982,-0.02259838040785732,-0.018877684819176347,0.90625
0.007494368488779405,-0.04807576248026991,-0.015436039407741164,0.12184971519875533,0.0013178123646681418,0.009158058276702543,-0.00236616936280466,-0.01712113643749151,-0.06037709197235546,0.0015227080538691205,0.008831267592584367,0.004059328303441807,-0.0058322874675246295,-0.004901819682185541,0.9140625
-0.008995060308656985,0.053349975893190654,0.01749779084107048,-0.1361743356846571,-0.000571973301648888,-0.01072337111811557,0.0030682493675532056,0.01806630854394383,0.06691775545343702,-0.001727532735301363,-0.009592618910352181,-0.004196133738473066,0.007231268753896124,0.0059812302678426575,0.921875
-0.001963682167080846,0.010062220684091823,0.0034520562526792246,-0.02624552106119309,0.000232960291814479,-0.0022457169118274356,0.0007517567574995261,0.00307710179819596,0.012740362570996743,-0.0003425593365123432,-0.0017389792429147875,-0.0006841219758041508,0.0016660206377391614,0.0013377217747457374,0.9296875
-0.018504026959676498,0.11172821146921182,0.03649631026593569,-0.2851050837273692,-0.0016640026463065499,-0.022194299822531,0.006204930402454765,0.03837966108204588,0.14048089676157685,-0.003599316583163121,-0.020215299125347762,-0.008960444629862794,0.01476361273382598,0.012261172622964885,0.9375
-0.0510238089548335,0.3117588325426155,0.10145130835085266,-0.794049651493412,-0.005391963854319868,-0.06139876312045204,0.01692549701405808,0.10778287903530075,0.3914549541228085,-0.010005595186930415,-0.0565444976705872,-0.025228403845747097,0.04051367418754882,0.03373143574226588,0.9453125
-0.0359015903057307,0.21882546754837406,0.07122481695435898,-0.5576000665355625,-0.003658236530464746,-0.043147404858429377,0.011941285735612447,0.07553255480316491,0.27462857109057437,-0.007027951489884069,-0.039659146080914046,-0.017659506024742953,0.02853526071308244,0.02374109422253537,0.953125
0.017560511343484683,-0.1099724723094354,-0.035580151754798006,0.2789009270709544,0.0024710317182240478,0.02131973299610423,-0.005683052533288947,-0.038545990139179746,-0.13809569251274062,0.003504463781205691,0.020055766081008203,0.009092742091028694,-0.013802625158299234,-0.011558227691871854,0.9609375
0.03742965537870637,-0.23220473719847726,-0.07525829214333445,0.5900339311535603,0.004750210809008775,0.045265614635990055,-0.012235526328795451,-0.0809655402534846,-0.2914644945175075,0.007421924041117679,0.042258623535901076,0.01904076204997787,-0.02953689876300623,-0.024669140599174435,0.96875
0.009679067509980167,-0.06152224998375147,-0.01980471089447208,0.15612275693460292,0.001570539716311464,0.011797692235364908,-0.0030901404018807803,-0.02177533080625611,-0.07726459017821954,0.0019584233779498584,0.011276926343659626,0.005166519133335986,-0.007566423801085728,-0.006340456851717599,0.9765625
-0.016186348685350044,0.0975792481393102,0.03187321153470797,-0.2485246429649289,-0.0013941543585568312,-0.019389596633184358,0.005435850543397278,0.03339722863277532,0.12235895462662394,-0.0031368875198555042,-0.017612068382809345,-0.007767650133670451,0.01290677997410808,0.010735067320146566,0.984375
-0.003110448555112447,0.01715693579849642,0.0057492565540761195,-0.04412086208778986,0.00010388291051917387,-0.0036244601739604467,0.0011270963098240561,0.005490764732469932,0.0214069396557597,-0.0005641135121193387,-0.0030187495354187825,-0.001229561851722234,0.0025514501851569,0.0020970719708460904,0.9921875
0.043884047940659615,-0.27186080744890523,-0.08814109387679286,0.6909995268462478,0.005489473966497114,0.05304212920712233,-0.014361858137731043,-0.09475290113202739,-0.34131296987822446,0.008691036551904705,0.04947177409071325,0.02227033320537926,-0.03465102583401281,-0.028929941326485045,1.0
0.07819759882705064,-0.4829054010958633,-0.15669931357014152,1.2278944620145278,0.009421619524544088,0.09442318260682114,-0.025671323639274577,-0.16792164177681662,-0.6061079721372968,0.015451657358467978,0.08781320912657031,0.03942993945753429,-0.061815359332739725,-0.05157951779374539,1.0078125
0.050821267305443105,-0.3146318980671522,-0.10200760260962284,0.7996405905434703,0.006283183886185247,0.061411228817021886,-0.01664627950141125,-0.1095074760902174,-0.39474266651659523,0.01006077091849848,0.05723374252490871,0.025734191718251115,-0.04014210175278541,-0.033501394089197105,1.015625
-0.011841940740706514,0.07069089047015951,0.023188301678339174,-0.18084096346152964,-0.0008994611166114758,-0.0141548450510389,0.004011427775173411,0.024151756198466753,0.08894467757361683,-0.0022851061463555525,-0.012781926781966206,-0.005616742656539298,0.009475438917626193,0.007867499933173388,1.0234375
-0.0396257668414919,0.2416943261603705,0.07870377014960402,-0.6157479691774795,-0.004084916122614325,-0.04765328889736098,0.013173936704793592,0.08341718155097713,0.30343092365878077,-0.007763732221194508,-0.04382902287662224,-0.019526014832274206,0.03148823956956817,0.026206159248618792,1.03125
-0.03875082858980329,0.23650392914087862,0.07696122758187735,-0.6023133887562541,-0.003987020004707415,-0.04659180735127673,0.012890384725955521,0.08158746740559472,0.29681537320988394,-0.007595591163215945,-0.04284543191732303,-0.019099482614254534,0.030811203329291267,0.02563068046096757,1.0390625
-0.052403398133305724,0.3204641384623081,0.10423509844208247,-0.8160261627143874,-0.005553529772664166,-0.06305835921978152,0.017391591944256414,0.11074778751515982,0.4023168084711541,-0.010283554498785166,-0.058087568380326346,-0.02593061118976209,0.0416239528274243,0.034651419329997026,1.046875
-0.04014952260820208,0.2449665269282975,0.0797441620231472,-0.6240338379624476,-0.004146655519068773,-0.048285325626224215,0.013345522514075808,0.08458578233796891,0.30762451508248034,-0.007863124290499806,-0.044392206243887705,-0.019786940251067357,0.03190884663175611,0.026559692855022493,1.0546875
0.026658931513724705,-0.1659340351922562,-0.05373816087786162,0.4217471546381535,0.0035156211768357097,0.032281043411343954,-0.008687014610705965,-0.05799664320216109,-0.20831564206391123,0.005302685242905993,0.03024543155550512,0.013652444945234486,-0.02100621443209883,-0.017561476021422752,1.0625
0.04090039542880172,-0.2534610480824215,-0.08219458067081399,0.6447783268737776,0.005149755351414448,0.049454557229898534,-0.013386200750083867,-0.08841040633085548,-0.31837216413930086,0.008106073920013786,0.0461498223766345,0.020781201640126198,-0.032290704018163766,-0.026975358309346092,1.0703125
-0.05689171253002007,0.34791934087274734,0.11317235077823824,-0.8855089167544987,-0.006060993865536707,-0.06847539913468159,0.018851407543880497,0.12022866706704602,0.43649862891430036,-0.01116379963149824,-0.06310990176732863,-0.028148499780252006,0.045139266591725215,0.03758615250316317,1.078125
-0.11213169932213621,0.6875412525761802,0.223521355543387,-1.7499721966368689,-0.012393301341851416,-0.13508413927791527,0.03706099080507688,0.23809757151511912,0.8628591333366563,-0.022045743332150296,-0.12482171268530572,-0.0557831948736528,0.08887170446579802,0.07405626725858604,1.0859375
-0.005707198103555193,0.03302278613647511,0.010900163923061073,-0.08465715012085062,-0.00019298910664303562,-0.0067419622397655215,0.0019764244938022097,0.011054068089513367,0.04128732330677889,-0.0010748673870946536,-0.005915933643899123,-0.0025306992272165828,0.004594832543175792,0.003793683683071592,1.09375
0.11274211172630072,-0.6953906474484204,-0.22572305891963437,1.7687675847914504,0.013384279524083035,0.13608641548860526,-0.03706722977137244,-0.24164996642865613,-0.8729414062208224,0.022262240693176276,0.12641730863782055,0.05672896748275278,-0.08918878589049292,-0.0743971511311358,1.1015625
0.07923406654808601,-0.4893351002287149,-0.15875384953341012,1.244220419856584,0.009541120777000991,0.09566480021844112,-0.026011743390276447,-0.1701479421756819,-0.6140414801550186,0.015658423843347886,0.08897492073761999,0.03995164073007491,-0.06263297193359536,-0.0522520669574936,1.109375
-0.007707477677994338,0.04532006654454552,0.014949718280648616,-0.11650182499504011,-0.0004263974003781347,-0.009180531943149465,0.0026558409136975773,0.015365176133993706,0.05724020037666903,-0.0014721581962628312,-0.008163180512396477,-0.003555888249168137,0.006228139907014373,0.005164605170297493,1.1171875
0.0010853283001944162,-0.00868720450045388,-0.0026241442102325455,0.020980816441831026,0.0005812919115701175,0.0014273923364418227,-0.00024376034927006045,-0.003380577761376978,-0.010641293099929058,0.0002597879906941218,0.0016577060723114063,0.0008447937635854681,-0.0007353207897352517,-0.0006438847558283078,1.125
0.03892418846614976,-0.24127313219981233,-0.07822496140276712,0.6132089367894987,0.004918489222786315,0.047062096312553876,-0.012720841269724201,-0.08412541278028209,-0.3027928506470332,0.007714794659653058,0.04393293974532012,0.019781626117138473,-0.03070631420725465,-0.02564064063768537,1.1328125
-0.0023568572511513133,0.012634447525434203,0.004248708687210957,-0.03254941754237497,0.00018637632875969656,-0.0027089287028437934,0.0008881438690025615,0.0039217357706237115,0.01581243457218173,-0.0004171470592526729,-0.002180375471827509,-0.0008689287016220928,0.0019790778242796047,0.001604617803623294,1.140625
-0.046909212824591685,0.2865406092696343,0.09325027202414787,-0.729603965025514,-0.004919627810758039,-0.0564246847387933,0.015575094773001149,0.09896841677085956,0.35963341348968797,-0.0091934167092744,-0.05194960504111742,-0.023158317766756063,0.03725479101669089,0.031016642701849798,1.1484375
-0.00106586715723572,0.00452119943450424,0.0016453164303561842,-0.012235168059981217,0.00033654222320555983,-0.0011457247236250042,0.00045627560090131917,0.001167768219580552,0.005638405802081377,-0.0001628110810985225,-0.0007359874156341911,-0.00022414275668340957,0.0009424301868667178,0.0007415279694108905,1.15625
0.05158438821337349,-0.31924344012208256,-0.10355174409221235,0.8116923022653552,0.006371800863841612,0.062334838519815555,-0.016907972220148202,-0.11116966696492542,-0.4008239713832246,0.010206818189938021,0.058083264328067076,0.026112653838819652,-0.04075796757234066,-0.03403460675505635,1.1640625
0.012416047511975559,-0.07826648174109375,-0.025290138430965628,0.19885897819831397,0.0018814854242667335,0.015102529245019895,-0.0039959041010871645,-0.027618035813937916,-0.09840857967626633,0.0024887507021823605,0.01433250325074953,0.006514247374703187,-0.009737912226247477,-0.008178918175319195,1.171875
-0.050804317464556395,0.3105363218315466,0.10103084905536897,-0.7904733850471503,-0.005365241315149439,-0.061127019954841155,0.01685252407632579,0.10726861153588942,0.38967172053411714,-0.00996527995404047,-0.05629330250089342,-0.02511168941367335,0.04033219371184915,0.03357551783530664,1.1796875
-0.044258394440761795,0.27016452581495787,0.08795723014216739,-0.6882028903878803,-0.00461459198412976,-0.0532354620693997,0.014700438089063085,0.09332137595350282,0.3391423376360441,-0.008675091647855815,-0.04899458314766836,-0.02183332662519607,0.03514831595199295,0.029269990127757405,1.1875
-0.010372614622097447,0.06168194197697353,0.020252272851589436,-0.1579954806760042,-0.0007303493877643948,-0.012384399388802071,0.0035283617950105047,0.021028364980987518,0.07756302888356215,-0.001999295907952442,-0.01115234696429036,-0.004880341179951984,0.008310815338879582,0.00690074875707015,1.1953125
-0.017055376041782148,0.10280092740967701,0.03360280519218305,-0.2624398558840265,-0.0014960762175519411,-0.020451089327919003,0.005726516440359625,0.03527111291250111,0.12917946711518874,-0.0033132910218876227,-0.018612675050563465,-0.008221215200073571,0.0136038567907769,0.011311515086846077,1.203125
-0.03259191157916418,0.19840935119246497,0.06464777851419022,-0.5055225103352624,-0.0032767419625249765,-0.03918331899405184,0.01084747655200695,0.06841139150350423,0.2491325482572055,-0.006370470913111893,-0.03595985523232647,-0.015989373615829628,0.02591264213903082,0.02157144278984258,1.2109375
-0.014677600719576519,0.08829637203732707,0.028852631396254835,-0.22538434954243666,-0.0012244849802007314,-0.017566049726196017,0.004946386254273105,0.03020371388443693,0.11084381211456272,-0.0028419219333735146,-0.015951714776924183,-0.0070311172762718395,0.01173290767271675,0.009739283650893797,1.21875
0.013588352102940144,-0.08545709343743127,-0.027635485283449085,0.2168319924576271,0.0020140552113658916,0.016534905420005012,-0.00437035235889452,-0.03008556582607805,-0.10735141970410754,0.00272295350103238,0.015624551127768163,0.0070997852283375094,-0.010646884640260439,-0.008937793776976148,1.2265625
0.03673660051253686,-0.22777658606530732,-0.07388992219045887,0.57932385169384,0.004668559731660165,0.04444436097862057,-0.012009118826988675,-0.07947268536050128,-0.28606313185283394,0.007283661699915698,0.041506704239691064,0.018682999416077782,-0.028982324660832556,-0.024227590272683078,1.234375
0.05901622499151449,-0.36486444966667864,-0.1183877144918732,0.9282409074762943,0.007224945205096236,0.0712857600548565,-0.01936157715735677,-0.12702079818435802,-0.45809538163849317,0.011676555744424442,0.06641562533921705,0.029843192328684626,-0.04663511846530649,-0.03892487543397793,1.2421875
0.03789636197304144,-0.23505611967521975,-0.0761751431332043,0.5976127317708929,0.004803896704550781,0.04580623052804029,-0.01239448813411449,-0.08196754962089836,-0.29505008502620655,0.0075147756923275135,0.04280992812300123,0.01927786381563511,-0.029910785965125815,-0.024967213022986805,1.25
-0.039396105415263796,0.2403193032089198,0.07824726880210102,-0.6121649630817284,-0.004057922856007272,-0.04737718162966095,0.013097023671744963,0.08294620216646098,0.3016731460285735,-0.007717274021413125,-0.04355476878954396,-0.01940426977730584,0.03130617014193314,0.026062425591619583,1.2578125
-0.06328066227594561,0.3872298924672916,0.12595936196249066,-0.9858302305847996,-0.006794790400931924,-0.076157463896803,0.020972264254478103,0.13390869232497635,0.4860238702833407,-0.012422091596011786,-0.07022997077077829,-0.031352578476792375,0.050219858829956186,0.041826562462290544,1.265625
0.027878325418829446,-0.17352937713352554,-0.056162476380040106,0.4408561802279216,0.0036572813667532958,0.03375426681481689,-0.009085820991861926,-0.06058674486645488,-0.2177918110822045,0.005542588378634738,0.031614438504226156,0.014269871408460585,-0.021981318156658377,-0.018353221844764813,1.2734375
0.08793811695309171,-0.543040467457627,-0.1761477593455601,1.3804266325641488,0.010540028490523884,0.10615150312593237,-0.028882883916397123,-0.18871740233459117,-0.6813994149189557,0.01737484739325076,0.09868280463724836,0.04431542771033035,-0.06954347225615375,-0.0579967033653083,1.28125
-0.004210636550902261,0.02375662931711221,0.007952608316169623,-0.061981161349406025,-2.8142994983373286e-05,-0.004964797914924359,0.001505759789091182,0.007902632809821042,0.030133534928835186,-0.0007857854789522014,-0.0042911474284188225,-0.0018085809648280373,0.0034442469471243496,0.0028393071129625613,1.2890625
-0.09731563084898573,0.5965832331867669,0.19395857655867435,-1.5187660610057336,-0.01070130439527561,-0.11721251816625697,0.03219922003357111,0.20652988771710107,0.7489047904973947,-0.019130605829245948,-0.10829220655511163,-0.04839290301359364,0.07717822139253319,0.06429414663341361,1.296875
-0.015204980095104152,0.09168267799564053,0.029904892696904214,-0.23333637729368234,-0.0012840535690230132,-0.018190471540808967,0.0051171938144365155,0.031303486736928156,0.11482842828476748,-0.0029497594817777173,-0.016532426792032907,-0.007292583337322555,0.01213989607824231,0.01006906117866243,1.3046875
0.11319344815204024,-0.6981067702494426,-0.22663373950743704,1.7759287020206918,0.013436588068021806,0.136628784239113,-0.037219014109272155,-0.24263863440364594,-0.8765166262634195,0.022347458113484747,0.12690847839286234,0.05695081564848282,-0.0895465021620688,-0.07470567319658478,1.3125
0.06895376429747078,-0.4261512821707041,-0.13826460958220047,1.0832269032361428,0.008362395696822714,0.0832755199303218,-0.02263053499224074,-0.1482098550590739,-0.5348895708454793,0.013627824338524825,0.0774670482597119,0.034798113348802964,-0.05450350642865651,-0.04549400478149867,1.3203125
-0.07325135778348504,0.4484827417330677,0.1458481068689522,-1.142100454839037,-0.007940454847499086,-0.08820035939739433,0.024251647160211966,0.15519332583045403,0.5630618466902384,-0.01438916926755438,-0.08139179046230861,-0.03635533411272142,0.05811341637627803,0.04839531894334593,1.328125
-0.0949623713501823,0.5821574039542027,0.18924775472160674,-1.481430904011766,-0.010427050052774509,-0.11437709858726507,0.031403828230096645,0.2014728937554965,0.7306899803096651,-0.018661684664751554,-0.10561522068555429,-0.047201281621113415,0.07529927150601932,0.06272930223894159,1.3359375
-0.018704508198329403,0.11321623710923892,0.0369075544181925,-0.28801538638017105,-0.0016848357830411636,-0.022417437419815434,0.006265104029782238,0.038774702560330304,0.14197613263395834,-0.003634832123710197,-0.02040864814016122,-0.009041907023309011,0.014912973729515505,0.012386678190331768,1.34375
-0.01973264337592698,0.11945890386800927,0.03895775497923266,-0.30449073720202063,-0.0018057472201699085,-0.023658144801084365,0.006615084171330448,0.04102041071174188,0.1499507438588469,-0.003840308779132195,-0.021575660037673562,-0.00957114390242692,0.015742646102399407,0.013078168301812961,1.3515625
-0.07595497388166737,0.46513550153975924,0.15128264755198817,-1.1844682480408228,-0.00825204509334778,-0.09146882177372463,0.025155480348973462,0.16098316417526273,0.5839756474136689,-0.014920531394378897,-0.08440796399810979,-0.037707281526755294,0.06027025179881808,0.05020858857204038,1.359375
-0.02612252769332533,0.1586388098446319,0.05172900765281237,-0.40433636846689147,-0.0025363956206036556,-0.031390643958601,0.00871982013000725,0.054617607598431,0.19917702289653627,-0.005101409773448924,-0.02873455204587326,-0.012760544280966025,0.02079564009840731,0.0173055914284524,1.3671875
0.10150159803010055,-0.6262419410557843,-0.20325268665293786,1.5931435945351582,0.012097166732532538,0.12251825924620852,-0.03336206980504901,-0.2176900812520876,-0.7861505106538279,0.020047413656100792,0.11386318733883612,0.05110719932469156,-0.080279798929257,-0.06696596718772148,1.375
0.11980857924363118,-0.7388510162560472,-0.2398343205249913,1.8796130419269075,0.014196059079768498,0.14461216985079414,-0.03939604634484752,-0.25672333052877705,-0.9274780126269367,0.023657014583227335,0.1343219696340945,0.060266610644151924,-0.09477627650110688,-0.07905544592024799,1.3828125
0.008797089400152253,-0.05619312751689006,-0.018039127457448748,0.14227033141275652,0.0014692060244243142,0.010738462972931708,-0.0027948867944051284,-0.019878576238024134,-0.07046351970682592,0.0017843698882402624,0.010286214188079729,0.004721674283062842,-0.006868574452195253,-0.00575429307555127,1.390625
-0.05328108097898969,0.3255355857813957,0.10599253386722961,-0.8292635065748026,-0.005647096580586207,-0.06413841300654902,0.017669515118951387,0.11254216925963402,0.40875030260534406,-0.010448735812851587,-0.05908044216273161,-0.026334262228720456,0.042281309300785754,0.035236440684545026,1.3984375
0.009849953468520332,-0.06271111094415852,-0.020150321325427566,0.15855308646655028,0.001590218564757692,0.011998569412522895,-0.0031446189289025244,-0.022131901666590504,-0.07864286783577482,0.0019886865417941234,0.011453359529512422,0.005253892707196357,-0.007715102650465691,-0.006450901088470382,1.40625
0.0672270457437536,-0.4155137454051897,-0.13480439570079752,1.0562415068878939,0.008166241335662535,0.08121193617928395,-0.022057272222367075,-0.14450554691168233,-0.5215691926152367,0.013292257908285811,0.07555534271479519,0.03395239184205288,-0.05314162573593079,-0.044344038673162646,1.4140625
0.01711027738097171,-0.10719145296683152,-0.03468210978655619,0.27181236980793355,0.002418021154178616,0.020780798416488843,-0.005531027824515703,-0.03758653400143817,-0.1346011768509554,0.003413769229792916,0.01954316977462106,0.008860987476356245,-0.013442592694402742,-0.01126683922075211,1.421875
-0.05906512507226641,0.36142042445933636,0.11751430050248776,-0.9202822108109039,-0.006317188778775619,-0.07108413345061701,0.019582985854006297,0.12489695884025774,0.4535595285476925,-0.011599382058969009,-0.06557691718226405,-0.029264627243911576,0.046884023179409685,0.03901484451036407,1.4296875
-0.053632851131065876,0.3281085853956058,0.10667018601190542,-0.8352540562501134,-0.0056954086433613545,-0.06452758443387814,0.017792272458039122,0.1133094505844626,0.41169898993549137,-0.01052873859419191,-0.05948879457399194,-0.02654902668608787,0.04258391818305864,0.035427589602097534,1.4375
-0.0005085415908450978,0.0013432015570637387,0.000547991446390091,-0.003888032292738626,0.00039533294355300887,-0.00046743486974719866,0.0002799594864687743,6.020525879608794e-06,0.001613168980530536,-5.734832401088878e-05,-0.00010450310905511121,3.4498686958215424e-05,0.000522060769815027,0.0003735346451082857,1.4453125
0.009294233289346853,-0.059120830356894985,-0.019024836724999463,0.14965841767428595,0.0015208609997597567,0.011328031351467295,-0.002953005056763882,-0.020901236071221026,-0.07409785003563546,0.0018771471545117899,0.010856397990900199,0.0049431231903112926,-0.007236039326656784,-0.0060759806235476145,1.453125
-0.023719728987279247,0.143805687216382,0.046928246405783365,-0.3666532092203804,-0.0022611430054422705,-0.028499214436016936,0.007924164213801616,0.0494975481085415,0.1806701195231453,-0.004626799332013452,-0.02603489472488552,-0.011567173374666397,0.01889821686225254,0.015718413375778846,1.4609375
-0.044002724328742734,0.26860821765822535,0.08744029145371675,-0.6837703819495132,-0.004583717333666617,-0.0529418073892412,0.014604384422108858,0.09274169245522121,0.33715971477562,-0.008621464030604362,-0.048690731280052545,-0.02170135448223576,0.034943346910944056,0.029092278083073943,1.46875
-0.03698752868619925,0.22554467956011354,0.07342934786009,-0.5740021464710116,-0.0037787075244708813,-0.04446656115054654,0.012291862603782391,0.0777814617827674,0.28300738554119975,-0.007236688573670601,-0.040843027243419164,-0.018180868246819637,0.029381602087666,0.02446005099095314,1.4765625
0.0017968406888083308,-0.013062569686478741,-0.004049791799972478,0.03273336448350641,0.0006668459362752936,0.0022915234377127794,-0.0004911982850503957,-0.004947555889834306,-0.016351354110353843,0.0004057584796525397,0.002479151033470514,0.0012240614139869042,-0.0013274504231780076,-0.0011318881650235636,1.484375
0.08349409769624996,-0.5156800470837937,-0.16728564296066759,1.3112018071425118,0.010033158417352243,0.10079523584731813,-0.0274269468102705,-0.17925083351853344,-0.6471052173802488,0.016501937147451694,0.09373438977734716,0.042098366618075124,-0.06602499245755879,-0.05506918540134952,1.4921875
0.1362325764858213,-0.8400749456593536,-0.27266883333903097,2.136681041777627,0.016080679085169098,0.16439705443211666,-0.04481783265830676,-0.29177935698998586,-1.0543707550055186,0.026892994762455776,0.1526518200653949,0.06848879859656055,-0.10779547978729109,-0.08989861614423666,1.5
0.05339761240895269,-0.3304871006348204,-0.10716243060659399,0.8403421352323338,0.006583565931012886,0.06451831999337364,-0.017504584075242743,-0.1150430236409118,-0.4148558230776686,0.01057182723882098,0.06011580002633471,0.027042895722149476,-0.04219293200000968,-0.035205856791395054,1.5078125
-0.10073685702418254,0.6176430227048877,0.2008041426766457,-1.572078732163396,-0.011089833214713674,-0.12134089785407984,0.03332168398220533,0.2138241676623104,0.775235676496767,-0.019799152807002583,-0.11208840295236691,-0.05008465012445909,0.07988164480202489,0.06656759990715869,1.515625
-0.136702192121127,0.8388878464147929,0.2726540497023472,-2.135174121748521,-0.015214660602294042,-0.16469739432105018,0.04518427741958924,0.29056288752544684,1.052924591714451,-0.02688826438963246,-0.15228529377410313,-0.0680860594022529,0.10836633860620622,0.09030577612720146,1.5234375
-0.04490960579403918,0.27427966886368155,0.08924176361118363,-0.6987294803314077,-0.004691423165765831,-0.054004935447535166,0.014919561293971298,0.0947166422876258,0.3441598088748584,-0.00880606032873352,-0.04974661374083072,-0.02216500720732628,0.035670305044671294,0.029687877663653585,1.53125
0.004099708112940591,-0.027171954108724423,-0.008671152920124823,0.06815431509422604,0.0009250263428815664,0.005071287208407474,-0.0012384714792483544,-0.009841147090495826,-0.03418882958474458,0.0008452875571414909,0.0050038285706457426,0.0023397996356990837,-0.0031330633464168246,-0.0026681136345661463,1.5390625
-0.008645699923926293,0.0512866846170686,0.01680764656343184,-0.13142956145408272,-0.0005391795899300864,-0.01031112048062957,0.0029655504723738895,0.017361497018983648,0.06436058395183938,-0.0016686596638844416,-0.009227847981930257,-0.004051519295013517,0.006971269156150665,0.00574869901848839,1.546875
0.05127612150158651,-0.3171889500781234,-0.10291957921761559,0.8064763727257767,0.006331666937393347,0.06197262260118386,-0.016794445283281917,-0.11048650921384866,-0.3982315422654049,0.010142130329154562,0.05773913321570479,0.025941000872315493,-0.040493090694316086,-0.03382914868895825,1.5546875
0.1379358443133169,-0.8502572714593075,-0.2760776837253542,2.1631060697870237,0.016271607150710014,0.16649686566962874,-0.04537526379078703,-0.29539069816547175,-1.0674042122925917,0.027225539651075752,0.15458110359066699,0.06932702436584236,-0.10914419158852966,-0.09105356963565868,1.5625
0.07790889424832609,-0.48123957923139876,-0.1561432111578459,1.2240109975500908,0.00939277186285219,0.09409025370878066,-0.02558987785433925,-0.16733434485055662,-0.6040214102037349,0.015403188475942993,0.08752225856028804,0.039303589654009416,-0.06161299826548765,-0.05140335602282088,1.5703125
-0.05657854445332724,0.3458328460406053,0.11257166506684178,-0.8806988401734906,-0.006025998850042083,-0.06811732031238955,0.018751561676610903,0.11958441652214474,0.43434136062954043,-0.011096500507890392,-0.06274762270873888,-0.027993112753137792,0.04490071796874482,0.03740767406687033,1.578125
-0.04745843234803942,0.2898041570329186,0.09435148344893736,-0.7381038274459182,-0.004980920297977507,-0.05711550835174461,0.01574709485938623,0.10012050684679297,0.3639518284481733,-0.009301561748602555,-0.05257239301476484,-0.023431664025284824,0.03768239354961428,0.0313813958800055,1.5859375
0.04149990547220054,-0.25724246590000205,-0.08338775946812808,0.654012042170482,0.005218087015068055,0.05017460068521041,-0.013580028071685244,-0.08965849593135206,-0.32286287557561977,0.008226733724275253,0.0468199552948358,0.021082961265298947,-0.03276260264698643,-0.027353599155053997,1.59375
-0.022847435072563198,0.138556832295917,0.04518645892338764,-0.3530258994002567,-0.002159545437217787,-0.027429622858771208,0.00763883147294646,0.04764129877452458,0.1739490326913441,-0.00445170828348778,-0.025060384448157374,-0.011115775233262013,0.018209140134471745,0.015148403159831575,1.6015625
-0.17616814635237962,1.0815801444533473,0.35152923861778834,-2.7524649712317704,-0.01973784277864019,-0.21233279084052747,0.05818982720411763,0.37473314484067216,1.357636054336016,-0.034663441879186685,-0.1963579233826445,-0.08783503893681333,0.13963349172610082,0.1163835099786162,1.609375
-0.14455371099143588,0.8871641756990615,0.2883587575831664,-2.25772679732527,-0.01611312536953568,-0.17420306690077808,0.047763600845123114,0.3072619038226042,1.1134705518514347,-0.02843639518890251,-0.16104760513459024,-0.07201371320603206,0.11458244518573633,0.09549406221008681,1.6171875
0.07334504635477258,-0.45307364573639225,-0.14701383466387696,1.1522031877982541,0.008867859575050829,0.08857318511357568,-0.024078347703086023,-0.15759529137847966,-0.5688087848211132,0.014497617913724241,0.0823910392023778,0.037015670933474756,-0.05799007481728137,-0.048381735620571006,1.625
0.2088573266876611,-1.28666001787181,-0.41777372645063704,3.272724240022487,0.024402159536862495,0.2519924067396281,-0.06875173212793774,-0.4466563314516483,-1.6149275850610696,0.041199132718707614,0.23378747384093362,0.10481343821560189,-0.16530137777143308,-0.13784815277850299,1.6328125
0.1405961258413023,-0.8668580130400984,-0.2813935389266077,2.2043801904745948,0.01657526085575013,0.169686974448305,-0.046241987621582326,-0.30101492799982915,-1.0879223019554214,0.027748248130733167,0.15751877770690456,0.07065111715612121,-0.11123978837820356,-0.09278577263840619,1.640625
-0.0056109748170719955,0.032480682022879674,0.01072023339494803,-0.08359664185401686,-0.00018623723485370217,-0.006609271523598973,0.001960585075886214,0.010884545606613047,0.040759317677738986,-0.0010616484155608122,-0.005828334948786833,-0.0025061324674477423,0.0045410928114227615,0.003730902015315134,1.6484375
-0.09774744505791488,0.5992622572792906,0.19480867195837703,-1.5253536291235268,-0.010748907284784212,-0.1177219417551284,0.03233469331960044,0.2074447228891179,0.7520975107176956,-0.01921657663874181,-0.1087553965761644,-0.04860929538398841,0.07751130852897314,0.06456731761335192,1.65625
-0.10976461542805861,0.6731782787014589,0.2188313860323416,-1.7133047878431258,-0.012126603407149139,-0.13223665371860568,0.03629540350793118,0.23308038099769418,0.8449584235931478,-0.021583783120488937,-0.12217158345235911,-0.0546237563833481,0.08703914081099487,0.07251787046610178,1.6640625
-0.06724159562019866,0.4116149814302874,0.13388233169774413,-1.047717799531491,-0.007250241581803346,-0.08096834720798973,0.02227299983847626,0.14232321426362676,0.5166285606416485,-0.013204117318774179,-0.07466522166520381,-0.03333874626094662,0.05335858937892065,0.04444008202979599,1.671875
-0.016921827570957695,0.10214826713609518,0.033341546272609775,-0.2602381787434754,-0.0014798871109112952,-0.020277229153919923,0.00567919091791299,0.03493943970618248,0.12806761852690682,-0.0032881529657932938,-0.018452321473715307,-0.008149719950717936,0.013495113692628558,0.011202632340411446,1.6796875
0.0080145293825764,-0.05118029215218081,-0.016491802427868244,0.12979512286893408,0.0013777975398358848,0.009803546342361594,-0.00254110409605011,-0.01822525312711436,-0.06436039400942908,0.0016263820260146264,0.009408696654470063,0.00432510581491202,-0.006248141533200442,-0.0052589165996106135,1.6875
0.02982839395222218,-0.18536193449849334,-0.06007757786697465,0.47103347466369905,0.0038764704265274903,0.03610666043054716,-0.009728393813431805,-0.06471385582428751,-0.23264734915865348,0.005925724023267675,0.03378631616858479,0.01523123931976918,-0.023509617869422288,-0.019646387208472896,1.6953125
0.0719118878880077,-0.44427330689599775,-0.14414546182372345,1.1297880828411366,0.008701934123946169,0.08684415764981189,-0.023602643714932963,-0.15451465402424952,-0.5576181100379631,0.014218623997075618,0.08080438055416658,0.03629322662662549,-0.05684232129656569,-0.04742601095991623,1.703125
0.09148123772403119,-0.5647038994216809,-0.1832287664688094,1.4362532578269134,0.010948411147592112,0.11042873559311715,-0.030058862373782427,-0.1963199402056827,-0.7088438642862356,0.018074090576479202,0.1026604339232506,0.046098011338371624,-0.07235577543291942,-0.060349108687681015,1.7109375
0.04103530738600149,-0.2544353783411086,-0.08244272694007332,0.646740830278534,0.005165445552689754,0.04959329780804536,-0.013428284105245884,-0.08869936314024425,-0.31936516341404453,0.00813252271534409,0.04629350105661471,0.02085493268582181,-0.032405038143193204,-0.02704431693411066,1.71875
-0.04329348294678131,0.26428087988982923,0.08602440485085673,-0.673148120022602,-0.0045052272038710655,-0.05207872102504156,0.014379762486580603,0.0912618168292624,0.3317938259005983,-0.008484589983726375,-0.04791883806486828,-0.021355432788198583,0.034390782162303034,0.028629873199862668,1.7265625
-0.07290995373256628,0.44645053951197183,0.14519035694478108,-1.1366847867208552,-0.007902545863082271,-0.08777269813780857,0.024150003512029592,0.15448084253617783,0.5604758928289592,-0.014319218467007143,-0.08099910056323886,-0.03618164223804866,0.05784913141823755,0.048182839972726745,1.734375
-0.008153783441724587,0.048103959149703904,0.01582344946749184,-0.12327003754112183,-0.00047769997891570316,-0.009692473775310208,0.002800399896743679,0.01631977561009104,0.060520328196165804,-0.001558650860979459,-0.008650632307365543,-0.00377484832632642,0.006563069569134515,0.005436295957772933,1.7421875
0.08243152053733538,-0.5091026609047353,-0.1651572799109908,1.2943236814771104,0.009908993096710474,0.09952148522241878,-0.027070178785626727,-0.17695660586081627,-0.6388282993891692,0.016289437852295408,0.09254504746037133,0.04155454840661236,-0.06517524678909556,-0.05436772014403715,1.75
0.07539367066145079,-0.4657947370886823,-0.15111356612838533,1.1842263585018518,0.00910251232153265,0.09103411579670663,-0.02475489765486966,-0.16194957696345133,-0.5845258491216081,0.014901379068917833,0.08467572804588377,0.03803117844748745,-0.059602626200204734,-0.049733780420483056,1.7578125
-0.05605665340895723,0.3427693411501074,0.1115075744252518,-0.8728337386806948,-0.005968333718040063,-0.06746969459741112,0.018583566417887498,0.1184919634708539,0.4302709225773143,-0.01100044868862863,-0.06218155597172235,-0.027745567032960366,0.04449762471590243,0.03704469127621386,1.765625
-0.17976490083898294,1.1037138393335006,0.3586869253468204,-2.8088961640849894,-0.020152493973330424,-0.21665480045160432,0.0593748637104636,0.3824236983529664,1.385382110225006,-0.03537790082886657,-0.2003879907631445,-0.08965234885807871,0.14247783700273098,0.11873263331480714,1.7734375
-0.1656550043980277,1.016993747404835,0.33050898599573136,-2.588234439632974,-0.01853627524423032,-0.19964608224415178,0.054727706636280085,0.3523306327718206,1.2765031114645615,-0.03259959641782533,-0.18462360266449407,-0.08259898399229833,0.13131618304000459,0.10942798141568198,1.78125
-0.04574300737800583,0.2795066382430817,0.0909138999639577,-0.711576828023411,-0.004787585266373683,-0.05502097405006273,0.015191146871188218,0.09649934977152996,0.35064179573375415,-0.008969599484907498,-0.050650606310016916,-0.022588336160608468,0.03634233496982879,0.030245304315421266,1.7890625
0.07134432346483616,-0.44067363639293383,-0.14304147578071866,1.1210444011990768,0.008639942570697027,0.08620357024827262,-0.0234196038585081,-0.15332536448281892,-0.5534937504625372,0.01410708768978407,0.080170513420452,0.03602494792782586,-0.05641336887809532,-0.047079201110360576,1.796875
0.14292556641456913,-0.8810162196170869,-0.28604909824841335,2.241337126981536,0.01684879760459534,0.17251551278375207,-0.047024404114007136,-0.3060651261380071,-1.1061540972326356,0.028213566740581272,0.16014280234877784,0.0718557607395411,-0.11311592036573406,-0.09434041671293437,1.8046875
0.15638129065581613,-0.9638527218292917,-0.3129097905629063,2.451841650117954,0.01838993223044883,0.18870913647849624,-0.05145900827733365,-0.3347832144204607,-1.2098988011865441,0.030862264939386697,0.17516503548591886,0.07857656898652167,-0.12376069857936978,-0.10321334803743853,1.8125
0.08667551455482526,-0.5351803924350889,-0.17363107962461005,1.3610387698658537,0.010396211441176044,0.10463387842530449,-0.02847404476660537,-0.18607231804910168,-0.6716353729726271,0.01712635809862289,0.09728192779353817,0.043682803113491625,-0.06854457023477799,-0.05718481627772235,1.8203125
-0.01951372079668295,0.11792566442452927,0.03852963532502504,-0.3006765296464731,-0.0017783502074140013,-0.023415995393833895,0.006537365314534735,0.040484826722386624,0.14820440353142464,-0.003795172383554543,-0.021346202464670182,-0.009451599928540971,0.01555245392002133,0.012929628368349997,1.828125
-0.05959693273763062,0.36450872443373283,0.11861585154992339,-0.9281107607570904,-0.0063741101468292455,-0.07174599235625022,0.019754744427330596,0.12603212342858067,0.4576903116828791,-0.011693120544423332,-0.06611504005051759,-0.029506616747187835,0.04729754169470958,0.03940241369169922,1.8359375
-0.03216760804424578,0.19586132484251925,0.0638105452969679,-0.4991270378531553,-0.0032310306710595232,-0.03866638713097052,0.010715034597173767,0.06755327408217883,0.2459693886892112,-0.006291633339240398,-0.035471042366508054,-0.01579030289816164,0.02558317706595731,0.021297368005287774,1.84375
-0.027433126315361364,0.16674542232341455,0.054340428028425265,-0.4251549112255019,-0.0026891588863382334,-0.032959948126159336,0.00915468192718579,0.05746239609215726,0.20940912241084322,-0.0053618212076428735,-0.030197250819589815,-0.013430811183609398,0.021840150035057942,0.018168005049667667,1.8515625
-0.05035023506030858,0.30771900149648557,0.10012230478646272,-0.7838684136483037,-0.00531637925152271,-0.060602521956615474,0.016708147913052855,0.10633756506993382,0.38632481044418304,-0.009879425715231243,-0.05581407047852293,-0.024901004381388765,0.039993020111767544,0.03329383890470107,1.859375
-0.028347056452830515,0.1724750854572942,0.05616265817407914,-0.4396633688820472,-0.002794142257963946,-0.03406363815635069,0.009454653799356765,0.059394882095158065,0.21648667612073977,-0.005544723504553093,-0.03122819654645118,-0.013891244306401268,0.02257269565775454,0.01876491200470014,1.8671875
0.018901520710854502,-0.11812772572152912,-0.038242522618866744,0.2998418145138127,0.0026230007802991438,0.022932460072288125,-0.0061204061461063615,-0.04139029705830588,-0.1483226455913874,0.003767850201457295,0.02157052213010485,0.00975573541954931,-0.014848626585953381,-0.012431212420743864,1.875
0.005354305667027301,-0.0349814359771086,-0.011184203376493784,0.0882515293166707,0.0010726288261557694,0.006598475092224736,-0.0016576102925343506,-0.012505739730867181,-0.04390444038662852,0.0011030236658929483,0.006435317393440672,0.0029894091174525917,-0.004137464980389969,-0.003489425324584625,1.8828125
-0.04483651347872963,0.2735876143632799,0.08909576886608091,-0.6969070377446764,-0.004678751421532538,-0.053946323790611546,0.014881447504635567,0.0945199715759929,0.34345785095312026,-0.008785968218346667,-0.04964920516483982,-0.02211638705014532,0.03559484009036957,0.029641702671606828,1.890625
-0.025657347698396397,0.15573803644435377,0.050780078475785514,-0.3968411159822729,-0.002480319909752716,-0.030817174383867937,0.008555204064635464,0.053580600235619474,0.19545545934097983,-0.005009192053722941,-0.028220658733824164,-0.012522177387615269,0.020406183085553302,0.016967485340085665,1.8984375
0.05843523928766394,-0.3612950568341846,-0.1172366259135013,0.9190235743367878,0.007158665559852126,0.07062290745658867,-0.019164109470026485,-0.12579357685874568,-0.45364226262938134,0.01156153477539033,0.06574595454035707,0.029553140122107115,-0.04618220059513375,-0.0385591114988931,1.90625
0.08778746627510899,-0.5418176089726584,-0.175876155212688,1.378376019438761,0.01052308185587833,0.10602913739955806,-0.028834830069043426,-0.18838603069107818,-0.6802287224995234,0.01734800199214857,0.0985471654062505,0.044242657653961986,-0.0694210075961659,-0.05792606621814394,1.9140625
0.014560584188710549,-0.09152522440300254,-0.02955271401132916,0.23235195661995486,0.002127330038064066,0.017691260755922582,-0.004689795299503938,-0.03216724129937675,-0.11489825556087155,0.0029175703819063915,0.016725287478144845,0.007597647812906263,-0.011421928053493322,-0.009559116103733228,1.921875
-0.07460802903284877,0.45688221059933853,0.14860850128025205,-1.1632464420225546,-0.008096751688293663,-0.08985904123374733,0.02470801186841862,0.15806231387515488,0.5735619708437051,-0.014655793699125046,-0.08290608101941614,-0.03702912341879091,0.05919890261887196,0.049316654291110484,1.9296875
-0.0882853059804964,0.5410152667612133,0.1759192789729931,-1.3772798452135926,-0.009664348201746945,-0.10633439711967052,0.02921423024612122,0.18725003586112907,0.6791661160347868,-0.017348870558004468,-0.09818017486425604,-0.0438687942454178,0.07002157385645269,0.05833513389705967,1.9375
-0.029086026053743837,0.1768884334711252,0.057638668381689746,-0.45071194928740255,-0.002874922958084439,-0.03493785308732324,0.009691916012371436,0.06094222664072676,0.2220614686675159,-0.0056803062311036705,-0.032031660125426985,-0.01423180769666234,0.023126463743026546,0.019247397521082545,1.9453125
0.04242152463375338,-0.2629249178368654,-0.08521009736399075,0.6683151388244305,0.005324156128865151,0.05126603797756577,-0.0138863612322886,-0.0916407504122298,-0.3300369948030727,0.00840765092304081,0.04785648472416719,0.021551616176182873,-0.033502200610751875,-0.02795393826417241,1.953125
0.07687512379316777,-0.4748003920492031,-0.15404455229396827,1.2073615494782204,0.009272590755850494,0.09280066999593874,-0.02524459788734977,-0.16514373075804217,-0.5960162957841847,0.015191104220139064,0.08634198469332176,0.03877809689102648,-0.06077898788726514,-0.05070161491390058,1.9609375
0.06249125562906124,-0.38631417841765747,-0.12533405291810815,0.9822554510117755,0.00762219243450404,0.07548167831102001,-0.020499675674400145,-0.13442634437766665,-0.4849877360601549,0.012355265635054189,0.07026825066965271,0.03157149971129704,-0.049387420831284216,-0.041219747135445274,1.96875
0.02524717793304956,-0.15723950312665225,-0.05093430022650277,0.3994701078583941,0.003352370286654319,0.030589747953477835,-0.008217098113641312,-0.05495615012640158,-0.19747137567733655,0.005018144506719223,0.02865383548960829,0.01293777795501921,-0.0198930301609821,-0.01663478787834858,1.9765625
0.0007170777842375577,-0.006361092497761162,-0.0019049102568150483,0.015570725687243776,0.0005401556630727736,0.0009981436050317714,-0.00012626162136208647,-0.002635140397580785,-0.008027948027258336,0.00018586127182690045,0.0012426798390765014,0.0006660300701387926,-0.00045814297648203876,-0.0004268839478452619,1.984375
-0.010997553870257875,0.06564674994491339,0.021506769607911404,-0.16779114240995396,-0.0008032234899504169,-0.01313589096649619,0.0037362973709725938,0.02236204400613444,0.0824931445233375,-0.002120776132022365,-0.011844097520779067,-0.00519878906163666,0.008825522249570023,0.007313821851935236,1.9921875
-0.034700312313366934,0.21135041602756197,0.06884093072080939,-0.5387155846553214,-0.0035208262010115545,-0.04170579978667273,0.011547583905413945,0.07295749640816546,0.26549830199328883,-0.006789389220055926,-0.0383186637304688,-0.017064018079189197,0.027591740488620883,0.02295296795683692,2.0
-0.0623021401561212,0.381117737545475,0.12397884733764206,-0.9706588160650323,-0.006685551678246096,-0.07498625890225694,0.020645183010357705,0.13184866198399822,0.4785933218532299,-0.012229182832488743,-0.06915253694532006,-0.03087924318627766,0.049446324265109025,0.041167739868586524,2.0078125
-0.05879451556964915,0.3596486121305117,0.1169925838146374,-0.9156968403883098,-0.006283578806785458,-0.07076793582520066,0.019489606926040497,0.12433475390817639,0.4515297593180485,-0.011540036088385178,-0.06523159959569166,-0.029122415270997484,0.046670970873898265,0.0388557582507066,2.015625
-0.025318746227571035,0.15383016543262223,0.05012538599860082,-0.3916464554340607,-0.0024446535487804913,-0.03039892536749532,0.008453981125246363,0.05289253076078032,0.19302999302929486,-0.004941748661283405,-0.02782346577319013,-0.012359865350504309,0.020157739005210666,0.01675972206997453,2.0234375
0.0061811669615147785,-0.03992986777631816,-0.012817810018077776,0.10138589572714872,0.0011683012704867624,0.007598651792296765,-0.0019329376694576918,-0.014308364643153855,-0.05028308510633693,0.0012688149442928226,0.0073760615465275955,0.0034159879740630144,-0.004798962638420534,-0.004038891959025808,2.03125
0.025585307915696655,-0.15932756235035617,-0.05159176346775889,0.40489450623473744,0.0033930492096367064,0.030989146761612102,-0.008332885649494413,-0.05570551406218873,-0.20014521934789725,0.0050908472952507795,0.02904709920295217,0.013126598340627656,-0.020171856304719942,-0.016852260858296327,2.0390625
0.03184328314383031,-0.19787329099502896,-0.06408680059762198,0.5026392916186757,0.004109162393106139,0.03850932357243509,-0.010395584294194073,-0.06906273570366321,-0.24841215056748198,0.006319255441716395,0.036021935353119545,0.016247722962513176,-0.025122915157397153,-0.020978477815170437,2.046875
0.020581463938436045,-0.12866418271387062,-0.04158407774801325,0.3263434195050003,0.0028170313227846634,0.02492338832091311,-0.006678095222374107,-0.04501863155559193,-0.16141010677487025,0.004099639512993746,0.023433695232849397,0.010605664374508763,-0.016195483712017837,-0.013532320688490114,2.0546875
0.02924892102858536,-0.18196058426106168,-0.058909452488435696,0.46198259342504433,0.0038109305054199994,0.035396139357684694,-0.00953219254358238,-0.06348186529147826,-0.22830677900519986,0.005810495568465204,0.03312467996287581,0.014945032717208715,-0.023055113367960626,-0.01925116848782242,2.0625
0.08584132034305059,-0.529929977319105,-0.17197994570522335,1.34766930019247,0.010300265194657935,0.10365323220205472,-0.02819391971383318,-0.18423496295351788,-0.6652326029335066,0.016961723419670238,0.09635832723282854,0.043268274318742174,-0.06787728443874784,-0.05662623424836978,2.0703125
0.09381339108390559,-0.5788954527451089,-0.18790092145006498,1.4726281610663603,0.01121592668018711,0.11325979745760295,-0.03082962621608864,-0.2012941982535539,-0.7268143202822233,0.018530152456007646,0.10526673279837215,0.0472606011840261,-0.07420021553184439,-0.06190326783581837,2.078125
-0.04829949751273829,0.2951221464577067,0.09603296189214848,-0.7511547359815421,-0.005076054596992318,-0.058115297614110474,0.01602287100930349,0.1018878083706206,0.3703539818381189,-0.009471334708635794,-0.053501793635873325,-0.023851573433158003,0.038344190976557446,0.03192527621793459,2.0859375
-0.21040755618996884,1.2920992963229325,0.41990454167147856,-3.2881076041652673,-0.02366241989306805,-0.25358845764380794,0.06947445185979352,0.447786767732472,1.6219787045297933,-0.04140996952475212,-0.23460893860138343,-0.10497483609575893,0.16673749178140385,0.1389641724458672,2.09375
-0.17307554370806832,1.0624896550870555,0.345308437418094,-2.7041192542205605,-0.019384597675133602,-0.2085660661321547,0.05716974360444282,0.3681775014403995,1.3338460924902795,-0.03405351246404604,-0.19290505494300958,-0.08630295531955022,0.13718386857581003,0.114317690331845,2.1015625
0.005606006987421779,-0.03645162369894886,-0.011680204889743969,0.09197148856071409,0.0010990355620135082,0.006890950801441736,-0.0017406445958592098,-0.013038169633642103,-0.04565593329353387,0.0011508893435298985,0.00671289003516876,0.003103172527371282,-0.004323549286579939,-0.0036572106521896093,2.109375
0.08359203153608064,-0.5160685103225999,-0.16747701575499666,1.3123359498174145,0.01003889335580256,0.10092215253502158,-0.02745045913056507,-0.17942761785326353,-0.6477857063230053,0.016514625690128838,0.09383743501860506,0.04212730497985967,-0.06608965340069582,-0.05514343859817535,2.1171875
0.05272121803767687,-0.32618350218058045,-0.10580036055468166,0.8292354737748371,0.00649979922529069,0.06370028085089437,-0.01727253337231653,-0.11356673009038103,-0.4094884295830507,0.010431571849520652,0.05934984475795772,0.026681923185705673,-0.0416459152023954,-0.03476433881042292,2.125
0.08641767365363685,-0.5334859556884203,-0.17314565250581346,1.3567125611837372,0.010365198378680654,0.10434399727153659,-0.02838928722003158,-0.1854752228706377,-0.6697297928276226,0.01707200974489997,0.09699582566305222,0.04354736539126094,-0.06834136532929858,-0.057027873129421265,2.1328125
0.1440124878110014,-0.8878184688323715,-0.28822657663029067,2.258185949104093,0.016970522253195272,0.17379672822868864,-0.04738250883822118,-0.30837193421295467,-1.1144773486117343,0.028421519471339775,0.16134093397455154,0.07237325854470325,-0.11396195810492851,-0.09505771549993505,2.140625
0.05853576753961279,-0.36210688741094,-0.11742550183084569,0.9204637225446987,0.00717011936752206,0.0707141029941356,-0.019193409935171265,-0.1260012607525539,-0.45450084555314096,0.011579777790118229,0.06584758273670212,0.02960369459977232,-0.04626256605463538,-0.03860126916260295,2.1484375
-0.07116745587234394,0.43572198284259916,0.14174105736913825,-1.109405640037104,-0.007701928714376596,-0.08569789662903009,0.02357689446109686,0.15072562547481383,0.547000842120053,-0.013977000637546673,-0.07905546861064243,-0.03530087061158372,0.056466740368044645,0.0470480495761394,2.15625
-0.03849379759427082,0.234812624408177,0.0764561574514346,-0.5979084965315948,-0.003955010784903861,-0.04629364456069826,0.01279891734530542,0.08099650157934948,0.2947435927862733,-0.007537929590171557,-0.042548418523529585,-0.018949906392538615,0.030588964236272873,0.025462794656819353,2.1640625
0.0398105946718585,-0.24682706018199374,-0.08001052454992061,0.6277063014867721,0.005024838019090772,0.04814213299984865,-0.013024774932052537,-0.08607302904312146,-0.30988419847467324,0.00789436617748157,0.044940619683448445,0.02023904891707303,-0.03142856838918008,-0.026245722857335552,2.171875
-0.0657507198812931,0.40243424989258414,0.13089614179201403,-1.0244280896814149,-0.007078084986632015,-0.07914841694340943,0.021783598278213953,0.13917129339660606,0.5051474835790876,-0.012903663617484218,-0.0729916462121617,-0.03258181211976484,0.0521793238117701,0.04346555331180238,2.1796875
-0.20871961949292311,1.2817988842253645,0.4165490811979611,-3.262085271062068,-0.023471760761199556,-0.25156243124195615,0.06892592095624558,0.44421552882503845,1.6090404533881677,-0.041077241751622355,-0.23272843963289336,-0.10412954472428128,0.16541079344503926,0.1378689994261285,2.1875
-0.10280907295489569,0.6303407387082405,0.20493207018218815,-1.6046164655836948,-0.01132970606967515,-0.1238573003199897,0.034001862681056316,0.21824413958461003,0.791308401393464,-0.020212795582524094,-0.11441658327108603,-0.05114037778341397,0.08152646761879255,0.06792604212284456,2.1953125
0.11687588256865405,-0.7209110002827452,-0.234010037381274,1.8334727626938325,0.013858169692077264,0.14106617754633866,-0.038433630872975535,-0.2504520891685639,-0.9048921317680918,0.023073757410063227,0.13101865630118745,0.05878579919387074,-0.09245984622063588,-0.07713435638856717,2.203125
0.10892237340487727,-0.6719416078608994,-0.21811753838954662,1.7089498614683847,0.012946519660543344,0.1314919441313106,-0.03580749815140405,-0.2334632103197445,-0.8434766600519974,0.021508786108140554,0.12214301734598057,0.05480780261653678,-0.08615424693801516,-0.07187737787560296,2.2109375
-0.060210802264802646,0.36839566753197184,0.11982714210429551,-0.9378821862511674,-0.006444306964969905,-0.07246948099630422,0.01995775379510665,0.12736602893025611,0.46239627198139677,-0.01181675902607303,-0.06680834399500608,-0.029818716914520222,0.04779111302674722,0.039800379780151565,2.21875
-0.06548297672782687,0.40074534173520476,0.13037886483547215,-1.0201025028069344,-0.007046998595226558,-0.07885236340366601,0.021690094677445492,0.13856779936249566,0.5030777996589951,-0.012855796926390963,-0.07269616234717925,-0.03244777013607496,0.05195168559798534,0.043282315998087455,2.2265625
0.07683381956697187,-0.4746969446494771,-0.1539651765571284,1.2071931916919791,0.009270396813037356,0.09275934881519447,-0.02523296113450593,-0.16506913612544702,-0.5957508853438458,0.015187402926099073,0.08630402081634561,0.03876964757523347,-0.06076196360193088,-0.050677930553044065,2.234375
0.1009314739178267,-0.6228309425422427,-0.2021252750609802,1.583946253356518,0.012030690595908462,0.12184336093005353,-0.03316978028880438,-0.2164419980621413,-0.7817943199786828,0.01993530626951735,0.11322072482709211,0.05082046607487293,-0.07983429894025643,-0.06658906380078596,2.2421875
0.018121810578950626,-0.11329522833099098,-0.03669386703683567,0.2876487050765944,0.002533157925301406,0.0220108532487249,-0.005862975472228313,-0.039754082062892646,-0.14242965587847056,0.0036149806266622428,0.02068937025046524,0.009371567275149857,-0.014245104424974817,-0.011935512471580145,2.25
0.02868080077566959,-0.1781449596057031,-0.05780332216657951,0.4528888929726319,0.0037425498771064087,0.03474775263438224,-0.009347757602370823,-0.06229893922292037,-0.22394229415273273,0.00569233743003363,0.032475460981946556,0.01464669897579337,-0.022607245068918376,-0.0189282013367168,2.2578125
0.07810700068917457,-0.48221151299067216,-0.15654714845921414,1.226423069748407,0.009409832712579584,0.09433407860687607,-0.025643946125654578,-0.16774363521417923,-0.6054857896682501,0.01543106310296361,0.08769905310664831,0.039374611471534426,-0.061740529740383916,-0.051548058737613346,2.265625
-0.005848499801549253,0.03404496787270123,0.01121927030217975,-0.08754146399347983,-0.00021477864487722526,-0.006932886924413852,0.00204044866264576,0.011397920689615586,0.04279051392137224,-0.0011105164333678876,-0.006087527691461592,-0.0026352845424130167,0.0047600746429691115,0.003919736807742157,2.2734375
-0.11982806509431718,0.73494950357175,0.238966546698157,-1.871107490959308,-0.013281118081474655,-0.1444021358986798,0.03961803765989222,0.25456215587614456,0.9227900475070206,-0.0235674036388361,-0.13342125553600181,-0.05966118372521555,0.0950151411582396,0.0791904222866777,2.28125
-0.07746457895410462,0.4742561500426436,0.15432338191075706,-1.2076300601459544,-0.008422067421610776,-0.09331807568402965,0.025643761178149864,0.16414535932658142,0.5956373359768745,-0.015216114621437729,-0.08608894850648914,-0.038450606519300906,0.061440732244031585,0.05120783746883203,2.2890625
0.01948817107246444,-0.12208804142050572,-0.039398045948713135,0.3099366634097406,0.002695401090097443,0.023614586399757876,-0.0063246681504135725,-0.04271543868610414,-0.15296379289501477,0.003892208801962307,0.022231004318800488,0.010073086428469057,-0.015348055349753371,-0.012816661917166176,2.296875
-0.0022801727628097056,0.011902489799566993,0.004086768914687822,-0.030862737298884137,0.00020080107565571652,-0.002619496626767927,0.0008524694268456707,0.0037343767843455106,0.015072792748724752,-0.0003952150383982287,-0.0020846315058264263,-0.0008130674410086791,0.0018985663273464758,0.0015550949835330566,2.3046875
-0.05124204262248496,0.31316051581150317,0.10190545910573216,-0.7972208589694215,-0.0054123091375643615,-0.06165554665491764,0.01699220681494019,0.10819769361122976,0.3930434321062697,-0.010043366375594144,-0.05677617786292697,-0.025308278650527954,0.04067071884352982,0.03387665567319062,2.3125
0.00202619497297916,-0.014414009637389303,-0.004533886130924003,0.03648976996195075,0.0006939453964730049,0.002590341986613067,-0.0005721413283514182,-0.005440103503033953,-0.01826631837881376,0.0004519756460599859,0.0027450523855651636,0.0013444943544381352,-0.0015215155023428724,-0.0013052751311976917,2.3203125
0.04459419318303084,-0.27618631512476144,-0.08959168686121946,0.7025919114330722,0.005572239432727183,0.053933381288553926,-0.01460081082188564,-0.09623396867239258,-0.3468972733850586,0.00883791713853555,0.05029669076363122,0.022632883997589233,-0.035219703533077434,-0.029411698733964542,2.328125
-0.026583271655081637,0.16163193386303115,0.05262333069358496,-0.4116889768461921,-0.0025902117904472166,-0.03190681926703597,0.008874443817638425,0.05563914747013885,0.20271449610134257,-0.005191585644345325,-0.029245254745706127,-0.012998237299432027,0.021172113579534465,0.017594687676211286,2.3359375
-0.06829899523404744,0.41817539518378655,0.1359806395877202,-1.0648750665914284,-0.007374054852174386,-0.08223291638337997,0.022629924298566736,0.14463443125847789,0.524852208101912,-0.013416668379179732,-0.07586861808669103,-0.03388096419425839,0.054213284699522524,0.04514430146143853,2.34375
0.030045399108508435,-0.18676389155447257,-0.060503191434038026,0.4740962204138284,0.0039002158677332597,0.03634948706578543,-0.009795815755137768,-0.06519239289535171,-0.23439664934551985,0.005958588351507698,0.03399854572955789,0.015326305463311068,-0.023681239071500163,-0.01979201001880916,2.3515625
0.11938738374422264,-0.736279002198411,-0.2390044754176156,1.8723372403229872,0.014142707097291065,0.14409049490250822,-0.039251449388476585,-0.25580675390710855,-0.9241585020940538,0.023563218572111654,0.13381363408566016,0.06003179902930127,-0.09443972876189907,-0.07878445627689636,2.359375
0.06391612852837555,-0.3950742856848038,-0.12817244743014927,1.0043453351167404,0.007783651441866962,0.07720205371604238,-0.020962228100475076,-0.13746267572249982,-0.49588669115614964,0.012635668148051874,0.07184365307706743,0.03227927656583924,-0.05050657523640621,-0.04215677768820535,2.3671875
-0.026887228739770817,0.16342084947944835,0.05325231405974841,-0.41654286452084316,-0.002625492960051957,-0.032295290006787436,0.00897390699490443,0.05625943074656953,0.2051596925370008,-0.005253332426858136,-0.029594810667415018,-0.013149979900182716,0.021403102985493878,0.01779960919026127,2.375
-0.026667662815333382,0.16208082500740578,0.05281834837824484,-0.4129836507454548,-0.002599911042848428,-0.03202713627770775,0.00890099746296616,0.05577890706795281,0.2034706464323805,-0.0052090377115612,-0.029344105027598315,-0.013037390221763534,0.021225829800038717,0.01765273215684026,2.3828125
-0.006456089943636113,0.03779874643760344,0.012445018075569742,-0.09661422096565518,-0.0002830947281677796,-0.007655949989692794,0.0022379022370433302,0.012638636822485855,0.04744188401785031,-0.001227372601964638,-0.006766049851592112,-0.002925646208770648,0.00521925405236631,0.004304435751105807,2.390625
-0.046807351894630686,0.2859402688550107,0.09306701410918504,-0.7279464196535694,-0.004908238135224889,-0.056320661291158106,0.01553819071059254,0.09871828310257107,0.3589346716928164,-0.009176267640815614,-0.05184217833325736,-0.0231110795870093,0.03716841713184443,0.030946018434204314,2.3984375
-0.05868377413559581,0.3588546477551608,0.11677944242866452,-0.9135249959186621,-0.006266705772966234,-0.07063703540608063,0.019445958594430664,0.12406903282608311,0.4505066946304097,-0.011509959335359893,-0.06509008242235374,-0.02903772014997887,0.04655718930229907,0.03878798237109603,2.40625
0.02370478086622422,-0.14795219371388763,-0.04785017740013458,0.3759788131274179,0.0031811037935791896,0.028724667586133817,-0.007722783495450438,-0.05169054434378191,-0.18566493131357853,0.004727790294734279,0.026969498479043678,0.012196660857953968,-0.018697056811513794,-0.015611559539026555,2.4140625
0.06976921478021385,-0.4311970755202588,-0.13988813607518238,1.0966523555509546,0.008460683349666907,0.0842649396267468,-0.02290879731454403,-0.14996384873250004,-0.5412620856727273,0.013799594690836333,0.07842396604498267,0.03523358901808676,-0.05516201507164636,-0.046027038944957466,2.421875
-0.01178230235923723,0.0704759128177875,0.023058381363441086,-0.17999908777397336,-0.0008921895274412314,-0.014097003997889369,0.003983791605608319,0.02403746894497601,0.08844335871376853,-0.002276817667360864,-0.012700231541624562,-0.005592127132346036,0.009441686314466112,0.007823684715386527,2.4296875
-0.057016836487995014,0.348648677110385,0.11343866427854402,-0.8880668035981268,-0.006078655292531856,-0.06864345965243057,0.0189020121254962,0.12056402346545002,0.4376513021279772,-0.011190670256879398,-0.06323786667997688,-0.028226441269745065,0.04526353799549464,0.037698854602910614,2.4375
0.058245368423387685,-0.360356690877262,-0.11685217529475612,0.9158939491258989,0.007138020540397316,0.07037239101940326,-0.019097395210618057,-0.12535506570199892,-0.452312683874695,0.01152477875716943,0.06553129287550186,0.029464170032020193,-0.04603360825903955,-0.038403203339543515,2.4453125
0.1233481811761092,-0.7607089974234529,-0.24691803504779852,1.9348124172215477,0.014602029436661263,0.14888960240254873,-0.04055926875889538,-0.2642811487222923,-0.9548793513802601,0.024353123288791693,0.1382477346308329,0.06204418648371033,-0.09759295256884642,-0.08139460907884842,2.453125
-0.04373635400691233,0.2671354144445033,0.08692100434020145,-0.6802618589044072,-0.004557477243526343,-0.05260464642790363,0.014533263291333816,0.09219557369485737,0.3353078155083482,-0.00857389142834017,-0.04843513985334056,-0.021579533006961846,0.034751240370506566,0.0289227398291247,2.4609375
-0.18956418219786417,1.164144194788079,0.37827941069476445,-2.962744132926901,-0.02127984233999294,-0.22846171247233857,0.06261763999317974,0.40335678727458946,1.461315154095894,-0.037311202318124695,-0.21135335913009612,-0.09456830453250664,0.15026051917050084,0.12521222707139337,2.46875
-0.04489449089190484,0.2742499637180723,0.08922740764785969,-0.6986419509364977,-0.004693536515519434,-0.05400095117361798,0.014919330810137247,0.09471626905784053,0.34433687697429277,-0.008803951531931425,-0.0497186645360423,-0.0221795558314296,0.03568569610196905,0.029692470717513894,2.4765625
0.13758561376488032,-0.8482128782769406,-0.27536400257858956,2.1575413182060164,0.016230039498097697,0.16605066849138878,-0.04525148392911442,-0.2946354106338604,-1.0646477006122474,0.02715546228066923,0.15415665999467473,0.06914229118294428,-0.1088495463996484,-0.09080132264765407,2.484375
0.02016734282122344,-0.12597750300852445,-0.040766000239373566,0.3202651056473759,0.0027699007729628487,0.024452619871934676,-0.006545235865539848,-0.044145859199039496,-0.15820892424676272,0.004020646328937051,0.022985658729652768,0.010397745247834895,-0.015871125915985253,-0.013282350694215933,2.4921875
-0.16961264308483937,1.0413823118729775,0.3384059049908504,-2.6498486199409674,-0.018987902846060653,-0.20440213738490734,0.05602367142154945,0.36075429759549765,1.306963721315872,-0.03337525215402807,-0.18902945369286603,-0.08456335456980377,0.1344272510489654,0.1120215603943285,2.5
-0.04811606370949688,0.2940638735012726,0.09565881503883814,-0.7486735480385237,-0.005058166440912797,-0.05789059723080464,0.015966163359928665,0.10153949611646826,0.3689292776235337,-0.009436653393396315,-0.05329255692802196,-0.023766963888306104,0.0382055262835292,0.03180392435538219,2.5078125
0.20336643687896805,-1.2528768707760867,-0.4067931462107866,3.186979325375896,0.023775296344923015,0.24536597931097978,-0.06694937566132961,-0.4350108228149214,-1.572662692622826,0.040118323415629056,0.22766333357020418,0.1020788164041433,-0.16096685025198468,-0.1342367490883946,2.515625
0.16856713978875337,-1.038938448557465,-0.33726523923023416,2.642552359013319,0.019786948395606838,0.20339778268160588,-0.055477258610677295,-0.360762567184062,-1.3039849069103544,0.03326580140187271,0.18878754995249689,0.08467448226768605,-0.133411356581939,-0.11125204632663654,2.5234375
-0.07267029719554717,0.44486566983437364,0.1447192203157193,-1.1326509218126795,-0.007870414510345012,-0.08751254979930682,0.024059360923756754,0.15392858994204162,0.5585141430023194,-0.014267655480240601,-0.08072501464495833,-0.03603723733821442,0.05764235385118066,0.048034402406719356,2.53125
-0.14020922245566625,0.8603128157559673,0.279663652272477,-2.189585990527222,-0.015614015800505466,-0.16896336915135077,0.04632717167832488,0.298014874577148,1.079931064944494,-0.027579493999875103,-0.1561847618378842,-0.0698392451971993,0.11113082065122523,0.09262639036518229,2.5390625
0.0013251627602516233,-0.010271601704010086,-0.0031159326056642658,0.025421600323556958,0.0006131047723455092,0.0017119648212201154,-0.00033707322784404313,-0.0039593685187311,-0.012845755625631724,0.00030692430663431395,0.0019383046641911963,0.00097961464298074,-0.0009618708140923238,-0.0008268198881760595,2.546875
0.08828688669342581,-0.5451822699888137,-0.17686778799713476,1.3862592349446892,0.01058338279516904,0.1065888134088557,-0.02900620434419701,-0.189479064611503,-0.6842370662325453,0.01744365021019316,0.09909234896365739,0.0444932892180296,-0.06982610238080034,-0.05824309257104519,2.5546875
0.022058319450616256,-0.13772507685978477,-0.04454606653602203,0.34952190765304125,0.0029881639133238808,0.026732303901664974,-0.007165120345098244,-0.048159855529143925,-0.172790251544537,0.0043932789387221595,0.025089262801007643,0.011344822537444184,-0.01735930412027715,-0.014514160929840116,2.5625
-0.06567195642988599,0.40206112761819374,0.13074434381520872,-1.0236530696090442,-0.007073898025599439,-0.07905987976470967,0.02176493035292925,0.13901893922312938,0.5047032674457712,-0.012896481199882119,-0.07293333613124164,-0.03256776801734451,0.05213324361424709,0.043405722485260034,2.5703125
-0.0634492220793495,0.3884770326574137,0.12630376069147625,-0.9888037731224307,-0.0068208525767579145,-0.07637315306228266,0.02103309273067571,0.1342812518177829,0.48759676115692724,-0.012458145400549858,-0.07043599013485119,-0.0314598112653814,0.050376501692091326,0.04193254910869854,2.578125
-0.0028983753319561946,0.01598608719264337,0.00531083609870908,-0.04102476230969091,0.000122794086163546,-0.0033462837858513005,0.0010656899025788412,0.005105563852859146,0.020033091929390016,-0.0005231660648964034,-0.0027678288134239423,-0.0011535244649229976,0.0024181133161958043,0.0019520104863551518,2.5859375
0.01568763549596745,-0.09842170603801968,-0.03183120999426429,0.24984295515403013,0.002255621418918301,0.01906074868434917,-0.005066297560080893,-0.034554605342911014,-0.1235599286330224,0.003139357433482859,0.01799015593274119,0.008155009324771813,-0.012312336109949737,-0.010319368279872669,2.59375
-0.01995584909321784,0.12079400295800423,0.03939284147172728,-0.30805826746815057,-0.0018302841628286793,-0.023934490684652948,0.006684959457965781,0.041466219629931925,0.1515632098742082,-0.0038874676001784065,-0.02185385523249977,-0.009675831925009403,0.01590372980477672,0.013214179736336063,2.6015625
0.0006014963589367129,-0.0056326695893577795,-0.0016741464137574856,0.013748030107311116,0.0005273792035209791,0.0008591714516803474,-9.120520728551633e-05,-0.002403627862031477,-0.007205293324842208,0.00016340162214015502,0.0011091434219637252,0.0006156907153240936,-0.0003797842813778106,-0.0003575516191785341,2.609375
0.09917129027949384,-0.6119454038681226,-0.19862241332478742,1.5565729837791835,0.011829750257949904,0.1197356292371935,-0.032590633545156504,-0.21269182523334712,-0.7682511657865765,0.01959034089685677,0.11124596045214169,0.04994277711298757,-0.07843908298064939,-0.06543618648457347,2.6171875
0.10642891645233664,-0.656656153014239,-0.213126006794465,1.6702319903667657,0.012661831189965039,0.12847833945431988,-0.03498631131615139,-0.22817184229886936,-0.8242608015816435,0.021020946144295095,0.11935736864602069,0.053572693064326944,-0.08418989201818022,-0.07022658753935136,2.625
-0.05053675728790127,0.30877870555081327,0.10050135574184407,-0.7864267833080666,-0.005335890173078687,-0.0608297137296888,0.016765506528968657,0.10670745730087139,0.3876548466836747,-0.009913602771615699,-0.05601453080852656,-0.024977481957145223,0.04011293930765163,0.033413573961167786,2.6328125
-0.17337337884420684,1.0643569986357073,0.34593988210453874,-2.709049457024046,-0.01942013268683295,-0.20896501666545675,0.05726892925710135,0.36878786242793266,1.3360729458204978,-0.034121819163108004,-0.19324704234389908,-0.08645013666313686,0.13740118165426238,0.11452493840183184,2.640625
-0.10872825428386139,0.6667757405173491,0.21678242051648944,-1.6974724253274442,-0.01200805014290803,-0.13099748652004325,0.03595849548334772,0.23088851050087733,0.8370299587062752,-0.02138197498863303,-0.12101211200204746,-0.05410579067265725,0.08622315829942792,0.07185058719833691,2.6484375
0.024448732678452614,-0.15237547377695407,-0.04930522056953962,0.3868622047996027,0.0032619815012079434,0.029609103982190244,-0.007952792191978383,-0.053251966459833024,-0.19115524386045388,0.00486390590982835,0.027781143330524595,0.012538677765628276,-0.01924513011623406,-0.01608338449071449,2.65625
0.08664173402724594,-0.5349580689441774,-0.17357113538757285,1.36047870103896,0.010394209714339608,0.10460592499998282,-0.028465512587438076,-0.18598482631905552,-0.671410627622415,0.017121283156120857,0.09725998440197711,0.04367147003531924,-0.06851942651961755,-0.05716073439738944,2.6640625
0.09452728094703944,-0.5835254217777084,-0.1893379161054456,1.4841183979554524,0.011300076147745905,0.11411154764860368,-0.031071371648648854,-0.20284023920760547,-0.7324282826814529,0.018676745091862894,0.10606424792906177,0.04762774646878885,-0.07477937593269836,-0.062376010864334634,2.671875
0.05882656504963855,-0.3639679794312549,-0.11801780977227198,0.9253882678545547,0.007206778817450337,0.07105860321271483,-0.019299709295793856,-0.12665677928584085,-0.4568270596909,0.011643083042990745,0.0661768155451881,0.029762054736301485,-0.04649912286641604,-0.038799706443382743,2.6796875
-0.03118029079990227,0.18973560587535368,0.06181493297013928,-0.4833665019395221,-0.003115448270778462,-0.037474796102465305,0.010381373187498547,0.06540744093298324,0.23817953657765356,-0.006093905697663314,-0.034377389838180755,-0.01528817506798934,0.024794892087778547,0.020629374496082074,2.6875
-0.06610089037880562,0.4047254167085359,0.1315863767950017,-1.029966627135153,-0.00712237110208846,-0.07956521052467254,0.021898775090046247,0.13992353272505476,0.5078915084408177,-0.012978659871116216,-0.07338508116299174,-0.032775100073732716,0.05245454427579237,0.043669750057896875,2.6953125
0.027440094864675132,-0.17048321827126836,-0.055313634250666835,0.433879778095754,0.0036009333637963136,0.03325879583221288,-0.008939846903833386,-0.05964574687804757,-0.21426719865382318,0.005450571010119526,0.031120980316926054,0.014024370782318971,-0.02162203728007889,-0.018106810601159214,2.703125
0.09960072651599661,-0.6143852617949136,-0.19949225435011295,1.5630224625594167,0.011874764969855784,0.12027678688149351,-0.03272795909434403,-0.2135857603578134,-0.7713997985284764,0.019669633104247426,0.1117278056230256,0.05013392577764172,-0.07876283481043467,-0.06574080430931355,2.7109375
0.02683889058751839,-0.16702296694251495,-0.05410633188698209,0.4240826657750184,0.003533396752502575,0.03250675498029764,-0.008735234829050035,-0.05832896138547214,-0.20965499416281677,0.005332768185574446,0.030419464419924856,0.013731894977814603,-0.021139567409228194,-0.01767312031059726,2.71875
-0.06441513516460536,0.3941419204882491,0.1282289095210958,-1.0041341230011787,-0.006928693140697791,-0.07756053855204477,0.021350833802965034,0.1363627529308789,0.49487686899313116,-0.012648674789232857,-0.07153883163180744,-0.031925859309788876,0.05112114631209805,0.04259161520498058,2.7265625
-0.06325141454345524,0.3869723494370955,0.1259100044036906,-0.9858206031861365,-0.0067952821068732305,-0.07616015537263873,0.020966119626158644,0.13387123980988547,0.485930493929899,-0.012418150904431649,-0.07023056180949486,-0.03134480833716069,0.050200012299169726,0.041824886293999386,2.734375
-0.06715515521967003,0.41097774164057044,0.13371680266259567,-1.0467042173731345,-0.007242055554016733,-0.08086605576767271,0.022254002746589733,0.14219531101293528,0.5161003723931092,-0.01318448625597005,-0.07457646455218044,-0.03329783640196686,0.053300097567652034,0.044410563669110906,2.7421875
-0.1081370351788382,0.6630076258656268,0.21560804751254592,-1.6879025917961703,-0.01193875616680217,-0.1302999030948434,0.035762979092078186,0.22961436340873287,0.8324513829188084,-0.021259229278660294,-0.12035324856743554,-0.053797735973287304,0.08575239611633283,0.07147817482873792,2.75
-0.03927259881091561,0.23944989197113067,0.07802084418335134,-0.6101271338388861,-0.004041856218641149,-0.047269825427124885,0.013049480463410748,0.08265656357066363,0.300685503528162,-0.00769249893944454,-0.04341744878439383,-0.01933242914586993,0.031197719334544634,0.025998880877679584,2.7578125
0.12787662396573132,-0.7885392792725935,-0.25595343925054026,2.00579854830811,0.01512200834259267,0.15431334083183623,-0.04206635501764451,-0.27397958718283844,-0.9898383903286884,0.02524284072975321,0.14332583664118598,0.06430729028133525,-0.10118690191105974,-0.08439011018323635,2.765625
0.14736029723212962,-0.9082798293064022,-0.2949048420857868,2.310893808043497,0.01735568084550175,0.17785071509242187,-0.04848877504685502,-0.31553637027394743,-1.14027940693601,0.029085679860266465,0.1651027831623053,0.07405613269908684,-0.11661317946309915,-0.09727483843992482,2.7734375
-0.035524194708538584,0.21659737851278923,0.07047851585056458,-0.551095216759875,-0.0036116703413712854,-0.042667941471155456,0.011812432983855965,0.07466613056845027,0.2716245362469398,-0.006948942298104767,-0.03921515856380643,-0.017456295309922126,0.028227842185616348,0.02347206991293647,2.78125
-0.1429094073450311,0.8770584675469766,0.2850359277877795,-2.2318291024833607,-0.01592411899808894,-0.17217918952594707,0.04721971639775133,0.3037703837898774,1.100668601314392,-0.028112791017510328,-0.15920047529827178,-0.07119565217444701,0.11327387992754123,0.09437851881999199,2.7890625
-0.012071611185048793,0.07231766647646576,0.023639342900948282,-0.1845405473548088,-0.0009260097686626695,-0.014420734970527422,0.004084872362027776,0.02462398202720553,0.09062639457542088,-0.002336207941268802,-0.013040246406646529,-0.005736321896227947,0.009661044085101345,0.007996892316962186,2.796875
0.14114172351939294,-0.8700482701189661,-0.28247503196487156,2.2131948737573337,0.01663841312529049,0.17034189976042285,-0.046427879845673016,-0.30224214993023274,-1.0921638751983054,0.027855331073613147,0.15813376896184378,0.07092651129745452,-0.11167375033360032,-0.09315994152573372,2.8046875
0.09100947155054855,-0.5617555943492902,-0.18232039368403818,1.4287920192082924,0.010891527831299912,0.10988906700701784,-0.029900346954641673,-0.1952666883727576,-0.7051264745805461,0.017980773101866947,0.1021310989694872,0.04584629292821328,-0.07197314725335321,-0.060053616016602994,2.8125
-0.04123790979155502,0.2516013523376804,0.08191351493655516,-0.6410026915840528,-0.004270428931610166,-0.04960851274479661,0.0137025310714651,0.08689295286095872,0.31591060600751186,-0.00807864096483734,-0.045623371969294425,-0.020328669718612653,0.032766114050199364,0.027279254451263883,2.8203125
-0.027144897002081385,0.16492987572569048,0.05377993641439289,-0.42086507482006114,-0.0026563857330949544,-0.032632699629258494,0.009061505356220268,0.05683639641950853,0.20725465487879932,-0.005304782595811974,-0.02988517400315558,-0.013284921911133693,0.02161933851900912,0.01799194674045569,2.828125
0.07062451982972384,-0.43639783306621616,-0.14155358721039482,1.1091353123257506,0.008552473760275412,0.08527633040952821,-0.02317180251741268,-0.15174705653125808,-0.5474828140307536,0.013960954130179344,0.07935121794054846,0.03563669206225495,-0.05580898715918681,-0.04656095732610488,2.8359375
0.022752322711340287,-0.14197410846254027,-0.045926894958802054,0.36033877662251845,0.003066380887123615,0.027566956427727576,-0.007395457054069047,-0.04962415055474769,-0.17799697129761052,0.004531675699929493,0.025878270946663916,0.011693142955693925,-0.017915105601019554,-0.014970458940782264,2.84375
-0.13769267646230562,0.8448719082769619,0.27462221081195665,-2.1503243882050875,-0.015326862166465166,-0.16590975813359723,0.04549860443474308,0.2926640746953954,1.0605794308751024,-0.0270823917751163,-0.15337321208089547,-0.06858430399163268,0.10913999548170213,0.09095415600278199,2.8515625
-0.141445355006162,0.8680305411223973,0.2821279231150413,-2.209162455671554,-0.015758119612067446,-0.17043860563484367,0.046739914286030464,0.3006648309100659,1.0895451186026546,-0.02782437518749183,-0.15756963964641793,-0.07046642943140773,0.11212194120774581,0.09343597416842646,2.859375
0.04600323544529834,-0.28483968827398004,-0.09238123280940011,0.7243074716688134,0.005731916871101272,0.05561228093722912,-0.015058620058642886,-0.09925341412236098,-0.3576559364584286,0.009110136008582417,0.05185099854893371,0.023327761109164444,-0.03632437712340098,-0.03032887096749241,2.8671875
0.13155025685019983,-0.8110553504557374,-0.263308220675348,2.063274330094022,0.015540952042090285,0.15877947687434538,-0.043265796221593794,-0.28177438505588176,-1.0182273986095198,0.025968014415845547,0.14742170858337353,0.06614048930299578,-0.10408484149462668,-0.0868192677179075,2.875
-0.019046936590873743,0.11512221191064942,0.03757862781995395,-0.2934758923275253,-0.0017239192869166029,-0.022834497130775653,0.006386183504020473,0.039514942697307695,0.14439319646725918,-0.003705458481700493,-0.020837763943633306,-0.00921256569295961,0.015178733277472383,0.0126182209804273,2.8828125
-0.15210195575140664,0.9334805191063201,0.3034271968980606,-2.375888016268826,-0.016978689925071778,-0.18329541838241242,0.0502571123465299,0.32338413429320606,1.1717016654257513,-0.02992384899995931,-0.16948924156711648,-0.07579544611350851,0.12056410131838599,0.10047929289745253,2.890625
-0.06021602493526746,0.3683933644461948,0.11984122479436833,-0.9378865391365749,-0.006443812204852173,-0.0724861164113213,0.019958022006016065,0.12734053321711586,0.46234318135934277,-0.011818807178241053,-0.06681758827554149,-0.02981934471090589,0.0477959211905891,0.03980323505469855,2.8984375
0.09117203966314338,-0.5626978592490265,-0.18263850197286488,1.43144577602211,0.010912926712764783,0.11007765484882803,-0.02996255543684107,-0.1956482026121911,-0.7064608564640633,0.01801128332619594,0.10232760161132008,0.04593459923695063,-0.0721090990719893,-0.06016826683077402,2.90625
0.08903325029439904,-0.549597741215702,-0.1783657966118632,1.3979097937282208,0.010666417137659265,0.10749115717868542,-0.02925620903401115,-0.19107054441200363,-0.6899047555244416,0.017589425029827053,0.09993304624635764,0.04486091011496855,-0.07041725794065341,-0.058753139000690506,2.9140625
0.01296511034612491,-0.0817951435688491,-0.026374556723641928,0.20722846515626495,0.001943869207513835,0.015754551000797732,-0.004169549493270014,-0.028762683851173386,-0.10253153799138949,0.0026000672768578406,0.014938458150011153,0.006790936028702213,-0.010164653322245604,-0.00851532193422801,2.921875
0.020514938696652333,-0.12819941787598146,-0.041458026404192334,0.32533404664324905,0.0028101577765717767,0.02486552971930655,-0.0066588627718564605,-0.04487712473347549,-0.16083072707119803,0.004087717455003199,0.023372859738400857,0.010570687472225906,-0.016143097557648596,-0.013502477750682826,2.9296875
0.06442714439341092,-0.39821697045519117,-0.1291991128598319,1.0126708681311727,0.007845913889076453,0.07782538656947247,-0.021140441136154153,-0.13857689895748146,-0.4999387265683387,0.012740822793642645,0.07243519346954486,0.03255154064036879,-0.050926125287672236,-0.042502775597331524,2.9375
0.03894121509178177,-0.24147046509115108,-0.07827690990434771,0.6138106236463952,0.004922989084538761,0.04708901043387382,-0.01273305769621746,-0.0841885207762953,-0.30314808702068846,0.007719529587286482,0.0439569517645525,0.019797757926530022,-0.03073620423014156,-0.025665222735660194,2.9453125
-0.017293692163738574,0.10436998467733195,0.03408555724366172,-0.26640264282069365,-0.001526579818397207,-0.02072450631623589,0.005816128189202489,0.03581776362993546,0.13116364963990487,-0.0033608098254126156,-0.018875913446555603,-0.00835142928640824,0.013813387856986317,0.011477604159562255,2.953125
-0.034131240131285066,0.20796247752190644,0.06772726708518335,-0.5299658819235139,-0.003457519285654604,-0.04102312899837005,0.011367237466610445,0.0717491150351667,0.26124114163633405,-0.006678465098038275,-0.03768233299326932,-0.01678015918189564,0.02714888856598088,0.02259202127591832,2.9609375
-0.0356479781676014,0.21732031139401628,0.07075393556051475,-0.5536234449052798,-0.0036298262264237925,-0.04285461823138999,0.01186044478706103,0.07497377420544228,0.272868997158635,-0.006977150461069068,-0.03936609941595455,-0.017531307691983945,0.028339113331850952,0.02358738246332112,2.96875
-0.045230663863547294,0.2761879059572054,0.08989427739077481,-0.7034896989137495,-0.0047272193432637355,-0.054418747905072756,0.015016795108984272,0.09541120672391201,0.34671960631010396,-0.008864887290226373,-0.05007166324814932,-0.022321387663384082,0.03592250392925578,0.02991481337499793,2.9765625
-0.03130686006614352,0.19048733628333306,0.062065818968096056,-0.48552429492430854,-0.00313133945388539,-0.03762532889026538,0.010427093039761574,0.06570123822146719,0.23917057344138523,-0.0061217204698892766,-0.03452721105548592,-0.015360211518607305,0.02489723334144444,0.020713828294823038,2.984375
-0.0062379202615559385,0.03636963414844562,0.011973658851714704,-0.09316875990532826,-0.0002577842043619603,-0.007383998365756992,0.002160851855032355,0.012201454871954176,0.045635331892813415,-0.0011834291454772211,-0.0065257726370636145,-0.0028203646170494043,0.005042306955944576,0.00414640244897137,2.9921875
-0.030817621301209675,0.1876358863460982,0.061090393015003984,-0.47780043505580316,-0.00307448503428916,-0.0370223468314161,0.01026223882652247,0.06462060818961757,0.23538108060394866,-0.0060263385902602495,-0.03397712758521577,-0.015109962204493404,0.024502487939477565,0.02037462743676265,3.0
-0.08305382512691643,0.5088916725532477,0.16546764553747598,-1.295241331813543,-0.009061330445928151,-0.1000185039625955,0.02748497958093526,0.17605870441542223,0.6386306777547781,-0.01631673378094406,-0.09232485415944872,-0.04123634929302348,0.06587039038622745,0.05487828868445187,3.0078125
-0.05242130013899141,0.32043062462968214,0.1042689309306727,-0.8158563726299076,-0.005549733026883137,-0.06308233906063711,0.017388897468082774,0.11071289234165817,0.4021537189824348,-0.010280814528260202,-0.05810572028556933,-0.025912327569868342,0.041618099084739596,0.03465998213894732,3.015625
0.08862609585686276,-0.547085298348459,-0.17753607477366787,1.39144348796303,0.010619091625597451,0.10699854235905676,-0.02911233760750702,-0.19020744307260315,-0.6867547585599122,0.017508092456596513,0.09946088415052091,0.04465405439252394,-0.07008010480863953,-0.05847079610480318,3.0234375
0.19991903682610654,-1.2316093124049137,-0.3998903486619578,3.1331686108631756,0.023378713946347107,0.2411975190723534,-0.06580751359549768,-0.42766310371863275,-1.5460279777838133,0.03943650088236416,0.2237953718483829,0.10034608783766313,-0.1582261175257722,-0.13195364645835508,3.03125
0.131337390550102,-0.8098339528875391,-0.26286947754508777,2.0599713443606174,0.01551815137139714,0.15850135720234784,-0.043199217701436046,-0.28135091028931186,-1.0166199954398594,0.02592647412246878,0.14718425558871223,0.06604181013005665,-0.10392280710307222,-0.08667138604098357,3.0390625
-0.0665246545805036,0.40715446525264387,0.13244274898526198,-1.0365786405416408,-0.007166170122358648,-0.0800887245188941,0.022036360892520743,0.14081030816082024,0.5110149809102961,-0.013059527996105241,-0.0738641823876866,-0.03296597911385403,0.05277849095224377,0.04396889349972876,3.046875
-0.17958175207453428,1.102576693542618,0.3583282947800858,-2.8061116247283366,-0.020130389016695,-0.21643580140914143,0.05931460081444531,0.382048471467997,1.3840138272200648,-0.035340788876376615,-0.2001783697189688,-0.08955234914375236,0.1423282330099303,0.11862446584169532,3.0546875
-0.10068659390961947,0.6172896786523056,0.2007066641966642,-1.5715174274804082,-0.01108637214852385,-0.12131625577300635,0.033303856025412894,0.21372930577698074,0.7749702285741545,-0.01979773153925604,-0.11204110142164228,-0.05008024303999564,0.0798504119628742,0.06654358647750805,3.0625
0.043668949828927724,-0.27065859368859446,-0.08771953850120696,0.6876825446629499,0.005464645621771421,0.05277666458588383,-0.014291994859262669,-0.09426000047068384,-0.33955131708841924,0.008649943513885401,0.049238320378983055,0.02215774901652969,-0.034479948409883714,-0.028777306144811433,3.0703125
0.09709331182739378,-0.5992330428234052,-0.1944812245145479,1.5237521430198144,0.011589428707734627,0.1172390061900813,-0.03190608318012066,-0.20821967965519345,-0.7519869703849945,0.01918101302675972,0.10893405590594857,0.048887767051041704,-0.076788174791545,-0.06407129276318982,3.078125
0.07267929171698698,-0.4490067726275601,-0.14570484920088603,1.1416425031338782,0.008788905642919169,0.08780366955128618,-0.023855188489090136,-0.15610845566276124,-0.563433622770266,0.014370693791561312,0.08166767989755563,0.03666309005419858,-0.05744231066711345,-0.04795306392218083,3.0859375
0.04788730028970106,-0.2965124343796305,-0.09615103125813687,0.7538600987677028,0.005946929506726113,0.0578779760753211,-0.01568267059093087,-0.10324337480372796,-0.3720841964623733,0.009484522037788424,0.05397294469098839,0.02426149950085503,-0.037808706394472605,-0.03157077191592936,3.09375
0.0062754274617021965,-0.040558508952483655,-0.013006508157541988,0.10287949749287235,0.0011778315130380052,0.007689231178876126,-0.0019664863530927243,-0.014522035877599985,-0.0509754927329613,0.001284047358921625,0.007472184978500871,0.0034498676174972236,-0.004867661952749194,-0.004101960894458493,3.1015625
-0.07638637363791524,0.4679653497452428,0.1521261671308239,-1.1909583716373957,-0.00830026195996808,-0.09196751052547704,0.02528845147855965,0.1618277539332397,0.5871695444231105,-0.015007318281444335,-0.08490241744565676,-0.03791780803767934,0.06059364266903214,0.05045167661016338,3.109375
-0.12244555119004563,0.7513479387303038,0.24413633370687837,-1.9122056469248447,-0.01358411931812773,-0.14749497498004072,0.04048029800899571,0.26013644642443706,0.942879265629905,-0.02408614032271108,-0.13637450970250337,-0.06097912509111517,0.09708327385684366,0.08085614898316536,3.1171875
-0.07229798401695181,0.4428618595206749,0.14396510076428176,-1.1273995899997395,-0.00783489660383995,-0.0870375163501381,0.023949782094277377,0.1531627279741882,0.5557786131465979,-0.014202074515717044,-0.08033570932960554,-0.03588049933519846,0.05737275751282922,0.0477690542797741,3.125
