AF3,AF4,F3,F4,F7,F8,FC5,FC6,O1,O2,P7,P8,T7,T8,time
0.01609628232719527,-0.1010354006958767,-0.03264012772656889,0.25612033421797553,0.002301750963051233,0.019530412573161435,-0.0052056542187672306,-0.035443722850110694,-0.12675218139508532,0.003214329038362942,0.018428153583708702,0.008355556654015831,-0.012659478421893453,-0.010597361257103708,0.0
-0.041455895226739356,0.2530658085833176,0.082329700643367,-0.6440549950610477,-0.004295286038556534,-0.04982466351124693,0.01377265159297689,0.08733374954278943,0.31763473183964186,-0.008118605597870372,-0.04586034172275237,-0.020439934778154263,0.03293432279914418,0.02738793308607991,0.0078125
0.0014493325635086794,-0.01070718937754067,-0.003387289567109265,0.027486387368303108,0.0006234842442227205,0.0019414689009455402,-0.00036559441712436246,-0.0041930463453819225,-0.013535232937515422,0.0003375587048056758,0.0020853597848376113,0.0010256137039460892,-0.0010253702215829398,-0.000938360922456804,0.015625
0.048535219497404726,-0.30031875969910693,-0.0974471907680326,0.7641067906768012,0.006021191657977194,0.05870126460440743,-0.015889203606090814,-0.10466255462974762,-0.37712218934767117,0.009610521191241655,0.05468574584724978,0.024582412600353584,-0.03831556352206288,-0.03202030566758848,0.0234375
-0.020091488016432884,0.12168356181860304,0.039674577653965384,-0.3099805439860644,-0.001845215298277155,-0.024089153832380042,0.006730756713858141,0.041724799762230674,0.15255208688296834,-0.003913979679243878,-0.021989900785175757,-0.009747828668281139,0.01601841585717391,0.013300212990617311,0.03125
-0.11137162962115453,0.6830501177576126,0.22205415317318497,-1.7383479447292274,-0.012307372775778203,-0.13417597957860347,0.036822113755706584,0.2364594273981898,0.8571895429220979,-0.021896560640367067,-0.12396292139407213,-0.05540380433720598,0.0882984160313237,0.07358204426491255,0.0390625
-0.08910493508525738,0.546086023132645,0.1775688633130062,-1.3899045156298926,-0.009753837114360953,-0.10732688308549018,0.02948213321767,0.18896376154516079,0.6852985865253527,-0.017508835749271732,-0.0990884375775474,-0.04425690893684958,0.07066548417933982,0.058887814339565546,0.046875
0.003431949642780124,-0.02310923770336399,-0.007328220176733535,0.05799388144439734,0.0008530518745036923,0.004252595117726778,-0.0010271924954890004,-0.00844507050979615,-0.029091640535520647,0.0007190226685486445,0.004274276247095837,0.0020323546050508867,-0.0026192807346642555,-0.0022161023683220497,0.0546875
0.05440945651463238,-0.3367333972943726,-0.10919592348320786,0.8556991636282698,0.006696030492569425,0.06571532361504284,-0.01783832685267755,-0.11719519401864466,-0.422662056333187,0.01076107485405426,0.061214563260057975,0.02753061607417791,-0.04299814285302224,-0.03588186031097673,0.0625
0.04872400958289397,-0.3017865827029307,-0.0978327728396591,0.767041794960461,0.006045505098385389,0.05886256998808732,-0.01596639639460143,-0.10507167063635175,-0.37876124614032325,0.00964574348804703,0.05487804503772003,0.024692807098250585,-0.03849830859226946,-0.032126338299274644,0.0703125
0.016871417002243438,-0.10577140927857012,-0.0341758998555002,0.26879731282403935,0.0023946222239164274,0.020468688527415357,-0.00546161397877663,-0.037116905382438635,-0.13275473747164435,0.0033741122284033183,0.019313662861249234,0.0087589170553831,-0.013260776094568674,-0.011092156524027248,0.078125
-0.022853185449640944,0.1386545595217415,0.04519152863552541,-0.3530806352242033,-0.0021613951781820143,-0.027418251941751747,0.007640640081401242,0.0476609176445459,0.17406888682203328,-0.004454196954132965,-0.02506469296084266,-0.011128178707745807,0.018213162594013697,0.015133764721824145,0.0859375
-0.02559958518077534,0.15547413224045534,0.05066470763837956,-0.39635384475521374,-0.002477861241844952,-0.030729988293067743,0.008547370607485328,0.0535494393735142,0.19529045370605924,-0.004996552473987803,-0.028141965591082157,-0.01250757811271391,0.020385171235859423,0.01694703580297634,0.09375
0.028814295723044017,-0.17934377288765146,-0.058048263239019106,0.45518528024609406,0.0037611719308415226,0.034871353292098915,-0.009394488747351508,-0.06254851377340116,-0.22492081937649067,0.005727167661061267,0.032649193388282455,0.014729695788304699,-0.022720743183213203,-0.01897160022247038,0.1015625
0.06327176043917537,-0.3912571850127755,-0.12687230662088125,0.9944792388878392,0.007712187334521443,0.07641448258840487,-0.020753979540475195,-0.13608558840108942,-0.4909972632516219,0.012517080258817677,0.07115159748605497,0.031977269294629886,-0.05000977082532594,-0.041715792315949275,0.109375
0.02423416648606437,-0.15101771221439067,-0.04887044767117131,0.38348856058263886,0.003235881594388456,0.0293505928219495,-0.007880313408911108,-0.05280249827397489,-0.18953674564373268,0.004821977817213618,0.027537643955859996,0.012436428320372606,-0.019085727790986287,-0.01594679248232129,0.1171875
-0.009530028304758194,0.05667000146902163,0.01857533973896978,-0.14485506555173527,-0.0006348346380103473,-0.01135498756431503,0.0032501957161730787,0.019228700441850464,0.0711406381336264,-0.001832870102020321,-0.010193352758194182,-0.004462215360913134,0.007650573496314336,0.006334358876488223,0.125
0.019188798877510377,-0.12003513427297825,-0.03881377172706774,0.30474756161517635,0.002658914126582577,0.023268160195337225,-0.006222900953492849,-0.042065391859901706,-0.15068914698495034,0.0038260571890639966,0.021883094499459365,0.00991188622122069,-0.01510024881223213,-0.012632346458961089,0.1328125
0.029640078244000577,-0.18425784531833353,-0.05969411987763503,0.46821064633682496,0.0038561526489469507,0.03586280076244496,-0.009667902272663006,-0.06436353714897829,-0.2313632109223862,0.00588371690088588,0.033556713365176766,0.015136519474009973,-0.023366788869171935,-0.01953000452457393,0.140625
-0.024699851115241235,0.15007700061601387,0.04887143094875739,-0.38244481226431193,-0.002376136633318835,-0.029652759581727937,0.008252971780897636,0.05160432498502238,0.18833100203321845,-0.004825592785480396,-0.02715246731714464,-0.012065802147235504,0.019681722176958766,0.016348437503730533,0.1484375
-0.05926983183354455,0.3626405750753925,0.11793173753807758,-0.9233751336971111,-0.006339171448410529,-0.07132397033115882,0.019651176615783472,0.12536924024780619,0.45526041103127496,-0.011635100124523302,-0.06577582658604857,-0.02936250509921197,0.047051712279746694,0.03916766386539572,0.15625
-0.042781633084999604,0.2610908337155505,0.08499105734082621,-0.6650083150253033,-0.004446375083537706,-0.05144390717097736,0.014211597771933959,0.09015982586906579,0.32780478500759985,-0.008381737572746939,-0.047354287901481364,-0.02109915318042127,0.03397927438215504,0.028280408955136494,0.1640625
-0.04764282767143259,0.29101845149338207,0.09471814693405979,-0.7409677784391103,-0.005002802198695404,-0.057318217331797,0.0158139059132778,0.10051622081586084,0.36524929475744106,-0.009337837886630913,-0.05277416252897972,-0.023524511034670282,0.0378326526252789,0.031500571803432804,0.171875
-0.05046275277937446,0.3084472012119544,0.10035824141958616,-0.7851265922201459,-0.005326134053950016,-0.06072012260825691,0.016743694487428046,0.10655318000343778,0.38706403991807004,-0.009893206574130746,-0.05590643129972287,-0.024932882757942382,0.040070760072528085,0.03337128369572876,0.1796875
0.03815314607095293,-0.23668097037737712,-0.07670463893917602,0.6018071687569276,0.004834901192799207,0.046146525764869654,-0.012477264274958091,-0.08250319469507919,-0.29713746332934093,0.007568884360238252,0.04310152455949042,0.01941522137586439,-0.030123526905282274,-0.025143760368083915,0.1875
0.1280032632050945,-0.7894310732690148,-0.2562316625152537,2.0079420890923583,0.01513663703894221,0.15449338723382564,-0.042102959913403556,-0.27421915565656846,-0.9909369800181912,0.02527111244166204,0.1434650878274905,0.06437294084899815,-0.1012906958604719,-0.08447841196633474,0.1953125
0.05877141743372144,-0.3635201189663633,-0.11790041491672452,0.924118299011135,0.007196806552324706,0.07099663482347775,-0.01927222630571601,-0.12651511866367499,-0.4563628940561384,0.011623214163515267,0.06609940769488319,0.029713725562577314,-0.046445083858845465,-0.03876674195562082,0.203125
-0.0796663171469205,0.4881270145873078,0.15870607164649939,-1.2426736403945515,-0.008677048988920263,-0.09595045107240809,0.026373351724551644,0.1688649042634467,0.6126617565957494,-0.015657792361372484,-0.08855782345265231,-0.03956945542980917,0.06320948379782575,0.05264489923412512,0.2109375
-0.09070310843109267,0.556012690017401,0.18075441744252502,-1.4151952818552664,-0.009941232886182852,-0.10925503368139007,0.030007336894240864,0.19242091671033135,0.6979341472368713,-0.017827932518172454,-0.10086757862132753,-0.04508374814178812,0.07194471716269359,0.05993224383167576,0.21875
-0.03504433479783985,0.2135812307807408,0.06954173409232134,-0.543870561206593,-0.003558640957421754,-0.04213124854393024,0.011655613660804994,0.07365843078591838,0.2680924040978176,-0.006856390364336692,-0.03868631376147971,-0.017223263595728677,0.027857698554139082,0.023181693981601168,0.2265625
-0.0651096368767946,0.3984787868599384,0.12961849590127014,-1.0144513133411883,-0.007006839514514905,-0.07839477257857146,0.02157564510475263,0.13779087540205243,0.5001467755129775,-0.01278248323303051,-0.07229849931167363,-0.03227168006374482,0.05167625372945193,0.04304041895761004,0.234375
-0.06591259792001554,0.40342809730323026,0.1312367350502804,-1.0271918464799386,-0.007100034015338523,-0.07937643163296575,0.021842793651618342,0.13950784926771032,0.5064311962246524,-0.012943424764567838,-0.07320132849924693,-0.03267782386980644,0.05231537981251129,0.04357872551463472,0.2421875
0.10967669383116765,-0.6765853174069453,-0.2195890741369279,1.7207199437988525,0.01303238769894203,0.13237123123596947,-0.03605729344912511,-0.23509904946196614,-0.8491368546589652,0.021657533727345316,0.12299182629515584,0.05519216692767539,-0.08675862746938717,-0.0723613840134119,0.25
0.26418411344936443,-1.6269195595664145,-0.5283065715261858,4.1386911095421866,0.03074767391785564,0.31871361283126914,-0.08700310507339033,-0.5647286555582098,-2.042045491403064,0.0521054345173178,0.2956241313522638,0.1325132664226313,-0.2091333644593753,-0.1743876367905656,0.2578125
0.15875244780930806,-0.9784539135043602,-0.31766135091044534,2.488603380695771,0.018659084571273472,0.19158120310164212,-0.05223619255665412,-0.3397879310289892,-1.2281179831090858,0.03133014590155493,0.17781905890988955,0.0797540963519399,-0.12563207039402077,-0.10477534798557765,0.265625
-0.05412465758545247,0.3308093258066972,0.10766690022664914,-0.842798873633282,-0.005747897932663359,-0.06514206604144812,0.01795440916153028,0.114378481348829,0.4153596221170775,-0.010617622888044725,-0.06002938630716037,-0.02677105420018842,0.04296046701968981,0.03578574367501109,0.2734375
-0.11611456215392947,0.7120371557906965,0.23151552878843892,-1.8126741225903122,-0.012853878275439228,-0.13989802098706075,0.038390028432630244,0.24662875014898022,0.8938938307566285,-0.022831571174249,-0.1292839898871259,-0.057788247288153405,0.09204982324036569,0.07671238502960732,0.28125
-0.08900501315784393,0.5453906637807587,0.17733784846615308,-1.3883271061785691,-0.009744589243916356,-0.10718092597111457,0.029451385619445738,0.18879047312584255,0.6845434609313328,-0.017489090296608785,-0.09898990796879116,-0.04422212129725992,0.07058437059292083,0.05880203831832366,0.2890625
-0.11654706858941283,0.7149361319276744,0.2323659904680385,-1.8195122173189513,-0.012902881661441129,-0.1403770465574614,0.03853673359229837,0.24755214876854395,0.8972185488729822,-0.02291824347620653,-0.12976481605025167,-0.058010925370502044,0.0924112733355917,0.07698425916812422,0.296875
-0.10222529903028088,0.6268704469081097,0.203764244007164,-1.5954993842799519,-0.011262437480236837,-0.12312588309870637,0.03381557087219121,0.21699895664296984,0.7867618111038542,-0.020099225284175577,-0.11376616482823927,-0.05085549169054075,0.08107968151627337,0.06753668055432506,0.3046875
0.026933646180965557,-0.16758111566123574,-0.05428361536161207,0.42590404141729105,0.003544951002088238,0.03259962384389656,-0.008774436752471087,-0.05856271905514544,-0.21032499550762368,0.005349727844463723,0.03054704035899937,0.013767943253078197,-0.021207635700234227,-0.017736586847884404,0.3125
0.09691382174494696,-0.5979753164369448,-0.19409956295207703,1.5212727232094747,0.011568929278529125,0.11698735283860066,-0.031851776381750914,-0.20788385417499894,-0.75061633381287,0.019139883195681894,0.10874684111345567,0.048789557911042065,-0.0766342415649262,-0.06394736676566554,0.3203125
0.018169305039286036,-0.11362972883876832,-0.03676373205737011,0.28903839225757694,0.002542057070123151,0.022039766843870094,-0.005889306389565919,-0.03990887563736607,-0.14272525899958743,0.0036258703914524714,0.020772366428478566,0.00939986617337634,-0.014285312378861634,-0.011961929562219325,0.328125
-0.030570688537383074,0.18604805828887608,0.06062326638265323,-0.4738543888241319,-0.0030458689010676937,-0.03674047942537567,0.010181867617025844,0.06407730387382699,0.23354733373469297,-0.005976024387920855,-0.03369337373195867,-0.014978239581813485,0.02429985060890355,0.020222827619817384,0.3359375
0.03515412764348649,-0.21828165973030136,-0.07069783819156573,0.554427642904767,0.004488288018692167,0.04250812685274799,-0.011485569048034985,-0.0761150659245179,-0.27386698465694365,0.006974587233904798,0.03972526703846707,0.017907853832529245,-0.027748855980118007,-0.023162964026039543,0.34375
0.05167271974374043,-0.31978988073256526,-0.10371269104930832,0.8127708230074014,0.006381357092951055,0.0624379475157532,-0.016928054221374784,-0.1113298693443293,-0.4014062769114964,0.01022757621751962,0.05818030903911339,0.026164764667676813,-0.04081291504824615,-0.03406550652881967,0.3515625
-0.02840195269976761,0.1728205848891768,0.056267130092032,-0.44017380354906144,-0.002798085675824375,-0.03410818987351689,0.009472729644484616,0.05950395133543746,0.21673946076084533,-0.005551036039913859,-0.03127332276963263,-0.013903888509882908,0.022606318227257886,0.018799646973600665,0.359375
-0.028042202968462764,0.1705245820751717,0.0555478338913451,-0.43419716868664027,-0.002755005439702798,-0.03368176733947204,0.009347177700775143,0.058706519454027155,0.21386886770787475,-0.005478229062715691,-0.030870100983320096,-0.013713965608086392,0.022300713396711663,0.01855491134361009,0.3671875
0.07791052285980128,-0.48128625759891175,-0.15613909943980397,1.2239433266635078,0.009392533549562047,0.09406329287784221,-0.02559080304436387,-0.1673660848646259,-0.6041635013947568,0.015399617672043581,0.08748928627515004,0.03930815793070878,-0.061623477070339126,-0.0514030017713459,0.375
0.08208212559145969,-0.5069458692629258,-0.16446887323192808,1.2888533823618258,0.009869020510187777,0.0990860198706711,-0.026960964938715356,-0.17625087517699997,-0.6362841206139918,0.0162194331948319,0.0921362037665808,0.04138726072572045,-0.06491331203095688,-0.05414873779630768,0.3828125
-0.059587956816126345,0.3644362818498768,0.11858636686420504,-0.9285306923166411,-0.0063745406099611004,-0.07174365893720143,0.019756812849665194,0.12605279663007632,0.4576150097045853,-0.011696470937598624,-0.06613470835158639,-0.029512314273414247,0.047303744424658525,0.0394067297508065,0.390625
-0.1248389941036192,0.7656965391513362,0.2489540600146737,-1.9495749408975838,-0.013854666039902595,-0.15042097912810337,0.0412710534970704,0.26530184228002046,0.9614635147725683,-0.02455063759874235,-0.1390159756854778,-0.06216209115202276,0.09898046084825175,0.08249830578816102,0.3984375
-0.014982213434063385,0.09001033407204051,0.02945821594379088,-0.23003717779802843,-0.0012583781990928315,-0.017932363161207943,0.005045857068755078,0.030902713820522364,0.11328862786995703,-0.0029006620273569306,-0.016274264533136552,-0.0071839474662229305,0.011967385298907418,0.009949242410319602,0.40625
0.07851769656147152,-0.4848760631426073,-0.15735879470747668,1.2333752491712313,0.00946123901863542,0.0948479087270578,-0.02578223876793364,-0.16862289614332687,-0.6086535177704461,0.015522983106132272,0.08818034832099966,0.039604256632647813,-0.06208250565970145,-0.05181381864662553,0.4140625
0.0072785699073452,-0.04655871727180434,-0.015029460202992631,0.11847175575657219,0.0012929030611066328,0.008959784513232,-0.002290649346578471,-0.016644154071321506,-0.05868958406734082,0.0014834511867812897,0.008590137471697129,0.003951302080648579,-0.005655030980092379,-0.004787291397923406,0.421875
-0.09695148412345277,0.5944377254991311,0.19322480482404567,-1.512780888093098,-0.010657337452325485,-0.11675456056324157,0.03207522868933083,0.20574468532531293,0.7460427270135856,-0.01905716744569856,-0.10785273183642141,-0.04821178970271443,0.07689850667433899,0.06404929596157319,0.4296875
-0.05405561141264253,0.33047874531530286,0.10753327015555453,-0.841515644015277,-0.005739640234903934,-0.06506814588800774,0.01792876473808207,0.11421341623828368,0.41488654688272125,-0.010607645577414008,-0.059935315234248915,-0.026750753828605593,0.042925133765876,0.035740495133795624,0.4375
0.07656519363717673,-0.4728802560857826,-0.15343736827932125,1.2026382823708892,0.009235067499363052,0.09243579479983992,-0.02514001457573908,-0.1645002021773222,-0.5936030521151365,0.015128038478333697,0.08597971092859107,0.03861208051832309,-0.060530976064242896,-0.05051440987627294,0.4453125
0.10550954007672411,-0.6508285923624346,-0.21127304837714922,1.655566521178808,0.012553029251778824,0.12735490307994216,-0.03468322490860216,-0.22625551129447957,-0.8170999995062368,0.020830896084971125,0.11831399182807575,0.05309901654539174,-0.08346291089914974,-0.06963845124979948,0.453125
0.01648982836491684,-0.10333572907294027,-0.03341777443824436,0.26239119434830993,0.0023479010179357795,0.02001053520118744,-0.005333741926817423,-0.036296685476133815,-0.12978916667803259,0.0032915998507447282,0.01887961411940159,0.00855632199953782,-0.012961506403937638,-0.010852987124436777,0.4609375
-0.03090375425182227,0.18809467599341212,0.061278848775035796,-0.4793222846647503,-0.0030844187149355238,-0.03715327258886404,0.0102912516805585,0.06484275819118263,0.23615512944684364,-0.006045350092021429,-0.03405317763780059,-0.015158092915919104,0.024581314570240504,0.020458050185388533,0.46875
0.018916278951735813,-0.11836757183674454,-0.03825645523139659,0.30032161755216136,0.0026276462323673246,0.022916986005703265,-0.006132817515868688,-0.04145715402451781,-0.1485376319238035,0.003771688474283658,0.02159277733014532,0.00977416077474348,-0.014872829291479624,-0.012430158396013847,0.4765625
0.04089585505260619,-0.2536015546420261,-0.08217557645935897,0.6442893792269694,0.0051473853363380355,0.04942609974623811,-0.013377096769804952,-0.08837056917349866,-0.31834719284742613,0.008102787884221396,0.04612401209930704,0.020778285355594072,-0.0322910528806342,-0.026947915468323022,0.484375
-0.0329350876354882,0.20049268850559773,0.06533213045128024,-0.5109789629824847,-0.0033162470510543973,-0.03959255616133689,0.010963905363403302,0.0691405833219158,0.251640402118032,-0.006441822928823018,-0.0363549211028586,-0.01615829583977258,0.02617070995539879,0.021794207481155473,0.4921875
-0.10114774932708868,0.6201192573199076,0.20161846789856816,-1.5781787098596796,-0.01113509183555388,-0.1218285191268437,0.03345075703664399,0.2146794334994567,0.7783669281035368,-0.019876433194505123,-0.11253066202196517,-0.05028475791929657,0.08019648333504417,0.0668294162298455,0.5
-0.0767848685702658,0.47032415244256404,0.15293800706309882,-1.1968184146580818,-0.008342030665016308,-0.09243568798104133,0.025419680462502755,0.16271513727163642,0.5903426737586007,-0.015072903732562723,-0.0853044224043224,-0.03809446801826746,0.060911625410077615,0.050742704772405965,0.5078125
-0.0006944208696173259,0.002274797697532117,0.0009026700393106466,-0.006346551199809609,0.000379243080686958,-0.000683392819886099,0.0003376614511706901,0.0003896311118293767,0.002871018971279347,-8.408868498997055e-05,-0.0003245947665751133,-2.9851116824902036e-05,0.0006543411582347859,0.0005024650332250229,0.515625
0.0647551391116191,-0.40028965088659646,-0.12986880633159428,1.0175466619744402,0.007880561756246915,0.07823384235566448,-0.021239509595710384,-0.13923636092259112,-0.5024375505939136,0.012805932506617438,0.07277975988142128,0.03270702612953622,-0.05117900712774619,-0.04271635248919035,0.5234375
0.08965621985474216,-0.5533859011095861,-0.17961777594284406,1.4071764587517372,0.010734684040291742,0.10825798712387677,-0.029452506664364865,-0.19235288642502665,-0.6946186722330399,0.0177103739527773,0.10061603475478531,0.045158447921690395,-0.07089440726223506,-0.05916145162184459,0.53125
0.03756495583931982,-0.2330418743212957,-0.0755333116642926,0.5920724460499751,0.004762690061119319,0.04542216516448429,-0.01227950402090367,-0.08121544793786777,-0.2923851728174261,0.007446128346392808,0.04242331254493477,0.0190890040783628,-0.029633295088059425,-0.024758920617435985,0.5390625
-0.073148048124114,0.4477818284706514,0.14567699159575942,-1.1404733036338108,-0.007929824983268295,-0.08811324513902297,0.024224434256848403,0.1549686196491582,0.5623586719685457,-0.01437083106676349,-0.0812904994219987,-0.03630947031945085,0.05804641881665693,0.04835321057457569,0.546875
-0.12562937079412972,0.7706454911388753,0.2505390918966402,-1.9616517408568683,-0.013945360666584678,-0.15139286662716386,0.041527488693366504,0.266907656569252,0.9674856547186489,-0.024712632729860302,-0.13992307029695422,-0.06256294217151516,0.0996027634082501,0.08300087078905144,0.5546875
-0.05652324185797885,0.34583072056717873,0.11246749778113255,-0.8799930250890488,-0.006020919810251971,-0.068021550761532,0.01873970323659642,0.11946473085202504,0.4339143829100974,-0.011093141674223457,-0.06267672723212615,-0.027972756735691003,0.044867583495175084,0.03735876383625298,0.5625
0.04831749272166185,-0.29899693577479275,-0.0970016292264679,0.7606777837170753,0.005999148000179018,0.058412091274988746,-0.015828713981938317,-0.10419995341342987,-0.37553626280530195,0.009566827574609159,0.054471030417935794,0.024492405211644936,-0.0381671695081416,-0.03186475554072953,0.5703125
0.10603231387709346,-0.6542054162969955,-0.21231101720191203,1.6636833559888728,0.012615287881355517,0.1279822988350362,-0.034856261085474835,-0.227339680618599,-0.8211458049307389,0.020938040687179277,0.11892113789215322,0.053369680025037114,-0.08387977992763306,-0.06996375369006212,0.578125
0.12988242907998862,-0.8009404756700809,-0.259961762729231,2.0369123925008257,0.01534931528534958,0.1567415946796699,-0.04271700712303331,-0.27824289481229875,-1.0052683263119986,0.025637609366712676,0.14554503226378646,0.06530260668498734,-0.10276486797967556,-0.08571447957372832,0.5859375
0.11044460214859715,-0.6811851260670861,-0.2211323811779229,1.7328891727993618,0.013121127633028019,0.1333319237978835,-0.036306494205915585,-0.2367706167391461,-0.8551814288186785,0.021809888306321922,0.1238436208571556,0.05557839280184111,-0.08736010935571248,-0.07288891669389948,0.59375
0.003812104967315694,-0.025309355961441005,-0.008092705806717993,0.064178807792884,0.0008965194005018906,0.004743297159359906,-0.0011508876288632195,-0.009254102030510322,-0.03198219714125667,0.0007993356606504105,0.004719335320111788,0.0022238374982209404,-0.0029110199487159035,-0.0024767996170593034,0.6015625
-0.1238415735365498,0.759586938070059,0.24695311305673331,-1.9336284538706086,-0.013737874385397834,-0.14923032351987928,0.04093302473720475,0.2630971225994771,0.9534710635267285,-0.024354947050501386,-0.13791735888958767,-0.06164898243997385,0.0981702995777337,0.081823357570844,0.609375
-0.14663753024080461,0.8996995025662045,0.2925014333083971,-2.290363128352818,-0.016351310723720317,-0.17672476316169505,0.048448953215873176,0.31173529705373465,1.1294804023478189,-0.02884548618092594,-0.16339166252318377,-0.0730544234825177,0.1162171735357995,0.09687751933656362,0.6171875
-0.07745571104871403,0.47440983848946855,0.1542781342128867,-1.207648249759888,-0.008421675904061931,-0.0932609557810163,0.025645417865728513,0.16416294431385592,0.5955088494395092,-0.015211647919501373,-0.08607895276148951,-0.038443887601572434,0.061444311526762996,0.05118985657588354,0.625
-0.02002229770099587,0.12132820909079851,0.03952004967258709,-0.30890321106571095,-0.0018392913562286506,-0.023983339207593626,0.0067118244181708555,0.041650735437486146,0.15219544075332112,-0.0038963170149127627,-0.021900517501292453,-0.009717278329066424,0.015974014924097637,0.013258566973077928,0.6328125
0.021790799159781302,-0.13594145964359367,-0.044031258768045964,0.34537802161287307,0.002954593680230549,0.026421086845931974,-0.007080305387845792,-0.047570643786071586,-0.1706652583321122,0.004339279240305695,0.024804745312417924,0.011200725408651866,-0.017148452882445635,-0.014356836288119661,0.640625
0.08343174951544687,-0.5151797123400285,-0.1671839227978508,1.3100378197427864,0.010022840639869099,0.10073952741051531,-0.027407135214841793,-0.1791027634956041,-0.6466046436518378,0.016484162105287293,0.09366449756319224,0.042049067709111904,-0.06597608330996596,-0.05505679257365741,0.6484375
0.09227960203134121,-0.5695607917779971,-0.1848384351931043,1.4484940043891683,0.011036841268203677,0.11140717078321417,-0.030317638208918123,-0.1979814442799931,-0.7148406260665909,0.018228022630833216,0.10355064498414886,0.046478031482990345,-0.07297422759074798,-0.06088566370329044,0.65625
-0.0036530488750431554,0.020503718840089755,0.006849975886101496,-0.052831113345744696,3.764701671374329e-05,-0.004288305574331558,0.0013168383885730443,0.006689096627948096,0.025850263314818905,-0.000674843091839871,-0.0036307859075868803,-0.0015263899770263816,0.0030101529863449795,0.002469295205532044,0.6640625
-0.07936058480350347,0.4860865660096853,0.15810144970948278,-1.2375545132951309,-0.008640517530340553,-0.09558815456974572,0.026272183863868183,0.16819960973362003,0.6102349658139752,-0.015591503215724625,-0.08821305623868372,-0.03940310178590329,0.06295589781820421,0.05245191988515833,0.671875
-0.016182957737218773,0.0975217052897177,0.03185717539945459,-0.24881759960159852,-0.0013955023824065585,-0.019382444473877325,0.0054369692400032315,0.03341360506828656,0.12236093298910557,-0.0031411356955567283,-0.01761803999616416,-0.0077802918076284415,0.01290756087092029,0.010724850492285568,0.6796875
0.08008323663955802,-0.4944691043463312,-0.16047305897136527,1.2575684676810064,0.009640347923115026,0.0967161762924236,-0.026297647746639553,-0.17195312385394806,-0.6207937904678226,0.015826645448736607,0.08993716463667983,0.04038899028591701,-0.06332385851415238,-0.05283322935193737,0.6875
0.043513683341675415,-0.2695478568317672,-0.0873928245386689,0.6851739590802475,0.00544628826008459,0.052595918319734286,-0.014235984443492857,-0.09393284662124682,-0.3383520903891276,0.008618919751334431,0.04906722970062559,0.022081778204532783,-0.03434683993110394,-0.028672808581233018,0.6953125
-0.08258314886389503,0.505899665259189,0.164533096300188,-1.2880308894427508,-0.009009282837405696,-0.0994779739110404,0.027333977001680724,0.17507899489938686,0.6351186591835856,-0.016226312180379846,-0.09182103661067892,-0.041016039414828405,0.06551541930558792,0.05458498982614997,0.703125
-0.12200860729857918,0.7483442861114772,0.24327558540413394,-1.9048692203802065,-0.01352766241638674,-0.14699813945495896,0.04032762348445712,0.25919273227099404,0.9393860810706409,-0.023992277003284254,-0.13586223088400423,-0.06073925433854807,0.09672720518751182,0.08059957685351901,0.7109375
-0.028256628857814634,0.17178674915443926,0.055955754470180724,-0.4378283648638809,-0.00278028629346617,-0.03392171206517647,0.009419443148970297,0.05917976402264286,0.2156086818359103,-0.005520898324927088,-0.031118701639882042,-0.013830552492500092,0.022476945778290736,0.01868563474586008,0.71875
0.07788538778120227,-0.4810151927631854,-0.15609641568495092,1.2230674997700335,0.009386759075598093,0.0940600784172559,-0.02557347146326917,-0.16728880178556463,-0.6037649649391837,0.015389379873903257,0.08745305221223897,0.0392738290831188,-0.061579831564629275,-0.051396043003367156,0.7265625
0.09095807640770778,-0.5614748082488294,-0.1822051369516303,1.4278012147388528,0.010886355521774926,0.10980264703558827,-0.029886524134070527,-0.1952027801189112,-0.7047488741528581,0.017965657578053417,0.1020532989057801,0.04582040177906784,-0.07193775176213661,-0.0600215278852976,0.734375
0.03622796442929155,-0.22488811132434847,-0.07285264200383422,0.5716643345571408,0.00461436533876685,0.0438039766665216,-0.011844650033527334,-0.07843646250778831,-0.28233823968366756,0.007186985694980441,0.04092624908095305,0.0184516276618319,-0.028603400173520012,-0.02387527725272902,0.7421875
0.006719075530133375,-0.043350594178246875,-0.013878293325108476,0.11007333648316873,0.0012324937521500153,0.008224409830527352,-0.0021136693248911035,-0.0154639683925751,-0.054496481918261924,0.0013767376963600877,0.00798465421026322,0.0036971600827018997,-0.005233724230060184,-0.0043766353951478435,0.75
0.035891668252981096,-0.2227086528445085,-0.07214606097530196,0.5665596687776266,0.004575884754130975,0.04340135651229888,-0.011728178527719527,-0.07769551163138777,-0.2795825935410967,0.007124552503463659,0.04058646936075598,0.018289763061451365,-0.028326427535697547,-0.02363011355061717,0.7578125
0.056782772679542015,-0.35114368696501075,-0.11389931470091003,0.8932374449788981,0.006968194178268324,0.06860518846038714,-0.018612192944781093,-0.12225221442458287,-0.44081514170234726,0.011237351609991796,0.06391170036493676,0.02872618622261738,-0.0448597974250565,-0.03743630591974007,0.765625
-5.395251059534267e-06,-0.001831547698070857,-0.00048104822326642795,0.004090494017495408,0.00045405094625301307,0.00015157131912695032,0.00011471028598124965,-0.001056564601398792,-0.0024159361463480353,4.271307456409347e-05,0.00043951411558754524,0.0002883384590498297,0.00012118613355094759,3.359837919892511e-05,0.7734375
-0.09614777375501932,0.5894990568523385,0.19158079458560034,-1.5008775232747302,-0.010570736107910175,-0.11577779099551093,0.03181328788248082,0.20409215742336415,0.7398744995052327,-0.01890545177018784,-0.10699018591225393,-0.047835465237745234,0.07626572522606556,0.0634989935977534,0.78125
-0.12675199126793,0.7777052930625639,0.25274231829907484,-1.979765771153537,-0.014078386719623926,-0.1527069518493764,0.041898416579467676,0.2693656040129314,0.9762245213633965,-0.024935374788212054,-0.1411737833289666,-0.06314531229468995,0.10050101712417794,0.08371422051862361,0.7890625
-0.05563982042594585,0.3402750093315346,0.11069679849704488,-0.866453755196608,-0.005921999976788,-0.06697714212603584,0.018446999347431877,0.11760232075236392,0.42719397542308335,-0.010918219165540585,-0.06170129699497323,-0.027540166692561138,0.044172418221297485,0.036779165076489796,0.796875
0.04238331114525452,-0.2627049706660717,-0.0851349997571731,0.6678545112631161,0.0053188077089082715,0.05122743274977103,-0.013872320657780424,-0.09154601571329486,-0.32966741775410063,0.008400734664836998,0.047825681095362976,0.021526752842298633,-0.03347029466162363,-0.02793216903143748,0.8046875
0.06660136922422796,-0.41175080490176624,-0.13352864062027417,1.046735685913993,0.008095459671889587,0.08043595862028198,-0.021854286014896567,-0.14320358528068433,-0.5166772926968483,0.013171738562728465,0.07486950925945633,0.033643747437259924,-0.052651827051963265,-0.04392194700764289,0.8125
-0.0043697648153700475,0.024727577667464508,0.008263634657181126,-0.06415438860764433,-4.238134374908699e-05,-0.00515721961501621,0.0015483047818954038,0.008214570265587865,0.03126002782568193,-0.0008161207925120155,-0.004446037795563119,-0.0018794575008328376,0.0035645239946659954,0.002939169939485564,0.8203125
-0.07995247358152092,0.48965666729483626,0.15927832911717124,-1.246998597670104,-0.008708250244879848,-0.09630938074808659,0.026469934745137064,0.1694625505492265,0.6147931792248054,-0.015709509944721176,-0.08889656353590149,-0.0397017765745576,0.06343239058499275,0.05284890536938711,0.828125
-0.05349040047326775,0.3269924819145364,0.10640815903789462,-0.8326993174035426,-0.005673420256747482,-0.06438489416719936,0.017743572538397343,0.11300982274126824,0.41049174976562103,-0.010491625488611092,-0.059313203342314796,-0.026451129029758838,0.04247299120645607,0.03537714316942149,0.8359375
0.045412384315181256,-0.28125489422872985,-0.09120235539411749,0.7153123938841414,0.005667556441584044,0.05490286244643771,-0.014870292723100717,-0.09800073825188313,-0.3531111576251635,0.008999949370523742,0.05120707297532631,0.02304984588583695,-0.03586611823680005,-0.029934164616738184,0.84375
0.08086188387547669,-0.4992946658124036,-0.162034270569718,1.2702364900043248,0.009733099683639387,0.09765533438992756,-0.026561862711662658,-0.17365535691997436,-0.6269048801821531,0.0159847233677089,0.09081344236736744,0.040793382370993614,-0.06395131716653424,-0.053349989244926996,0.8515625
0.031251952592956045,-0.1942106246948616,-0.06291803069164163,0.49383212216566147,0.00404490687888958,0.03782115401146562,-0.010203804524910648,-0.06782563480628287,-0.24400268371165704,0.006206311792809435,0.03537120155867364,0.015966104714690045,-0.02466494569587064,-0.02059601998129004,0.859375
0.01992935572040038,-0.12459490907324268,-0.04029974978167879,0.31648934878165896,0.0027453962462028352,0.024163408029124495,-0.0064681570605911575,-0.043653170668874954,-0.15656007739696276,0.003972458046654178,0.022710822946397587,0.01029286621941873,-0.015695345011938894,-0.013119952236961644,0.8671875
0.07202716471745464,-0.44500655359809577,-0.14439301018872022,1.1317334866701763,0.008717513554806228,0.08699283738998842,-0.023645754826802343,-0.15479094999470147,-0.5586547249925484,0.014236886841105025,0.08091806763972018,0.036353962528870125,-0.05694993110752573,-0.04752475407229197,0.875
0.06466563428649313,-0.39969603440425605,-0.12968543580066022,1.0164962776792155,0.007872435721571727,0.07811865598839023,-0.02121845441868689,-0.1390833919311755,-0.5017302274270515,0.012786167742324989,0.07269528061518585,0.03266070601758001,-0.051110154173003575,-0.04267004222245453,0.8828125
-0.015435559826794008,0.09300467841749055,0.030358655492040202,-0.23728137296107366,-0.0013139693894856316,-0.018476938085041115,0.005197155697550432,0.03183659940302705,0.11676791192806239,-0.002997521446854303,-0.016798394729433144,-0.007433062168135451,0.01234107014606335,0.01022456610688859,0.890625
-0.03616994305949796,0.2205795561686261,0.07179783617805972,-0.5620628292495629,-0.003694262063404603,-0.04348511303369509,0.012039961572861729,0.07611031373388502,0.276982875188648,-0.007083396668974291,-0.03996099202720091,-0.017815596209476866,0.028770958846517997,0.023928887650449863,0.8984375
0.003512761773288692,-0.023465234137728105,-0.007472329594247134,0.05894270747403458,0.0008552521590111615,0.004360945432893765,-0.0010436678254545425,-0.008551771198958271,-0.029315468298849887,0.000736257990543762,0.004382567872443831,0.00204541741094343,-0.0026583092088574745,-0.002264360690458255,0.90625
-0.03273742102539363,0.19944842272955454,0.06495540101190336,-0.5081189546797357,-0.0032979098670282477,-0.039357064171444994,0.010903814286468118,0.06875993129537208,0.250429415058568,-0.006405158160468835,-0.036109405240175606,-0.016083006094740355,0.026043501287240256,0.021670010339745624,0.9140625
-0.12745750693701985,0.7819512601900359,0.2541889423577581,-1.9902813973143447,-0.014154936174319144,-0.1535736883580189,0.04213122256834603,0.2708324741144137,0.9815175374367009,-0.02506752538602669,-0.14193252799254275,-0.06347123249553946,0.10105146702828657,0.084207182305678,0.921875
-0.12908448535318914,0.7919197995067611,0.2574278913822904,-2.0157074597999367,-0.014340793110457746,-0.1555271325920966,0.042666807643232676,0.27430109986736634,0.9940041716225128,-0.025387366789124583,-0.14375724801075704,-0.06427963598273949,0.10233028609869796,0.085275015342809,0.9296875
-0.034734279374304206,0.21160034346332193,0.06891891105522081,-0.5391508545110956,-0.003523385676245245,-0.041752683782986535,0.01155587547790355,0.07299141952654237,0.265617342073391,-0.006796235036448992,-0.038355505707412724,-0.017063745855428716,0.027599160363970567,0.022971712898461352,0.9375
0.04215472209061801,-0.26134392283403596,-0.08469967107267407,0.664096660473408,0.005292752021783709,0.05095777152222372,-0.013798458866429903,-0.09105403440252206,-0.3279519098092197,0.008354333837337437,0.04754696701917898,0.021411306571089438,-0.033293153579850916,-0.027792946730989348,0.9453125
0.08503634778356463,-0.5251172875322738,-0.17037325072349443,1.335150661240417,0.010210215810738912,0.10266370867110987,-0.027937437124124217,-0.18252980603256,-0.6590051631253315,0.016803885532162086,0.0954629271165309,0.04286838942423702,-0.0672475990103649,-0.05609522604579477,0.953125
0.09856204601868346,-0.6082972404522274,-0.1973948554675008,1.5470046651005434,0.011761910555349921,0.11897620478999027,-0.032396219106258665,-0.2114007207288994,-0.7634788793273949,0.019468457818362785,0.11057245491159368,0.049639650398644916,-0.07796210436169186,-0.06502313045307041,0.9609375
0.01860880931570008,-0.11651505627395804,-0.037655430546760835,0.29601404742769716,0.0025955972102017356,0.022566512605978518,-0.006034389935736413,-0.04085179942335852,-0.1462974263010243,0.003713436619421352,0.021232254173435005,0.009633577797531838,-0.014647957189932332,-0.012243257827275802,0.96875
-0.08758777878172991,0.5367031062049209,0.17451151671081516,-1.3660269686336368,-0.009581380779919161,-0.10548338254516613,0.028983044038789537,0.18573139618742626,0.6735764984932606,-0.017212270560167317,-0.09742081219290806,-0.04351308420584936,0.06946354431421345,0.05786636228639339,0.9765625
-0.026608301073439367,0.16175030615022484,0.052676764113047884,-0.4120882999101968,-0.0025930125693435935,-0.03193362977291916,0.008883969625277799,0.05567710903194127,0.2029110921744705,-0.005196681524167493,-0.02928422118164382,-0.013007552475882023,0.021184167356039705,0.017605571015346176,0.984375
0.14605583841900743,-0.9001528192726982,-0.2922867397217769,2.2899659061647113,0.017201642023723734,0.1762820780345853,-0.048042901944217405,-0.31270026806985496,-1.1300466160209286,0.028826160004028767,0.1636307290477867,0.07339449808609784,-0.11555919544903691,-0.09639458361073416,0.9921875
0.1363075257940508,-0.8402515865698368,-0.2728017992566285,2.1376791883344723,0.01608554826267365,0.16450725719937262,-0.044834307635559116,-0.2919414384260286,-1.054850897770728,0.026906376594159682,0.15274222352409902,0.06852253613626821,-0.10784678119207769,-0.08995492078697814,1.0
-0.07348892135919706,0.4500023589576598,0.146361266473104,-1.145489214882038,-0.007966461138129075,-0.08850627604004856,0.02433209221515756,0.1556559805293647,0.5648368542313643,-0.014432460792758818,-0.08164407878735049,-0.036463320092916265,0.05830790996120318,0.04857268309106817,1.0078125
-0.16617349569907797,1.0200466044542247,0.3315425323926928,-2.596262598279615,-0.018594575635118234,-0.2002790542111737,0.05489210992573829,0.35343797134306915,1.2805536365514014,-0.03269712422311972,-0.18518750435117498,-0.0828547671779774,0.13171956691066727,0.10977305791332531,1.015625
-0.044488945243422943,0.2716496138994708,0.0884262629730865,-0.6921216566266639,-0.004645457850433564,-0.05353562372225578,0.014774041480940206,0.0938402838967889,0.34121995053230175,-0.008721969732080294,-0.049239857667222754,-0.021967772551199662,0.035344117837114976,0.029423820971489413,1.0234375
0.04234464165685513,-0.26246823345344406,-0.08506913253592524,0.6669706630645605,0.005311521426348849,0.05117814423551779,-0.013858177431718436,-0.09144280461268733,-0.329314905111408,0.008387931412411835,0.047765082881362934,0.021492596273919383,-0.03343986775462589,-0.027916419523972377,1.03125
-0.003648441666643102,0.02036895273113037,0.006812207301099561,-0.05262266608421306,4.153308992229935e-05,-0.004279955531147908,0.0013034816180990008,0.006664776865044499,0.025533827940973593,-0.0006737488514637895,-0.003622792259512089,-0.0015133150860514289,0.002981118592592887,0.0024499185169628472,1.0390625
-0.00392832016886287,0.022165024228232615,0.007370898326382916,-0.057081719546186085,9.433523733079502e-06,-0.00460025102525199,0.001400035821983383,0.007269990047572629,0.02768004924754967,-0.0007287989060175769,-0.00393529688766358,-0.0016540464002553577,0.0032106770266782693,0.0026335726311790993,1.046875
0.07227712294644223,-0.44644392730061605,-0.1448788782829724,1.1353695650522195,0.008743380620513011,0.08731162552053752,-0.023717729504830646,-0.15529622672539803,-0.5604848441874122,0.014286310104867271,0.0811983565212165,0.036471572865567535,-0.057134107517626424,-0.0476858825316377,1.0546875
0.041390465078236426,-0.256505242702793,-0.08317272352575228,0.6520163118465127,0.005200882734004512,0.05006238526143808,-0.013531980713789832,-0.08938561246397367,-0.32194070237745337,0.00819994579313824,0.04668419412669865,0.021009561920978543,-0.03266829093019497,-0.02729032437777218,1.0625
-0.08987553711604575,0.5507825067706258,0.17908207196012413,-1.4021918530554152,-0.00984680146036559,-0.10824322811849985,0.029742532456654504,0.19067268210233576,0.6914307722579444,-0.01766446743157548,-0.09996729052637224,-0.044674408248997495,0.07129352281200152,0.059387497985288404,1.0703125
-0.09619778784912197,0.5897055972306017,0.19171612523345846,-1.5011186543873098,-0.01056965661194313,-0.11586933772911806,0.03182110053290082,0.2041429210345478,0.7402073791243529,-0.018907814116251115,-0.10701862781739142,-0.04782756948333294,0.07629598938047571,0.06356238763918488,1.078125
0.04819737129708799,-0.2983491436522159,-0.09676584274608635,0.7587052019927947,0.005985161078872188,0.05825731252479184,-0.015790375479119902,-0.10395529172314423,-0.3745511591273384,0.00954780748172372,0.05431555476533418,0.024439639083006958,-0.03807415718921384,-0.03178272514116519,1.0859375
0.11584497303944583,-0.7144944884329723,-0.23191445059863777,1.8175613285666559,0.013740668136033092,0.13982222643724232,-0.0380955385823285,-0.24829996757785272,-0.896833132478488,0.022878934400672412,0.12989596655598581,0.05829399676421428,-0.09165845436219226,-0.07644751702241008,1.09375
0.02452162905138986,-0.15291631931810373,-0.04945881934626424,0.3884718698299941,0.0032713920898080734,0.029685723971784986,-0.007984479275724356,-0.05345591277890338,-0.19185918065980978,0.004882168046365462,0.027856712032533558,0.012591149069976793,-0.01932993054992272,-0.016142955631509533,1.1015625
-0.057661563820237925,0.35256984227924154,0.1147292462429279,-0.8977835834113,-0.0061501481022901375,-0.0694098437390268,0.01911541107717447,0.12189764564291683,0.44257502138666915,-0.011314641632568538,-0.06397725988428911,-0.028537155458630618,0.04576389738127415,0.03812127170852943,1.109375
-0.03977575493995594,0.24263501641012072,0.07898940001243092,-0.6180036542027855,-0.004099977636373386,-0.0478302983797861,0.013221032267782217,0.08375022688974651,0.30449028344645185,-0.007790969678483862,-0.044001362725400416,-0.01958646321800653,0.031601823016200695,0.026310288706602354,1.1171875
-0.02539731515859601,0.15420206603023268,0.050267712471180385,-0.39298942921103164,-0.002452347667424271,-0.030499321367003437,0.008480400051803247,0.053084827072655605,0.19351136514171105,-0.00495684559698046,-0.02792699329135831,-0.012392924752818854,0.020217928974316235,0.016822319657841745,1.125
-0.053002067998013276,0.32398395876175307,0.10542936137074108,-0.8250383929324774,-0.005618377685945221,-0.06379772493762978,0.01758231020895802,0.11198979494061591,0.40669355218894976,-0.010397686611642127,-0.05875774385442363,-0.026215509106987007,0.04208701945650546,0.03505284701098176,1.1328125
-0.01785758824036851,0.10790019915243756,0.035210436170564165,-0.2752358391135664,-0.0015907696551214008,-0.021406440189829557,0.005997062624972318,0.03700584126606962,0.135439529063806,-0.0034769909048803864,-0.01950169645818653,-0.008641061907973775,0.014256768889325155,0.011835251828164126,1.140625
0.07463095996602304,-0.4609245670536671,-0.14958823765332627,1.1720310612709535,0.009012328976113627,0.09013717326024329,-0.02449742800008746,-0.16033349451932127,-0.5785905947631215,0.01474511888706602,0.08381631633234284,0.0376363089637814,-0.05899447165961698,-0.04924789656607238,1.1484375
0.0682281199138133,-0.4216435806828404,-0.136796778772475,1.0719014173938999,0.00827968288088027,0.08240180400031827,-0.02239074580050263,-0.1466754744788365,-0.5291840024214887,0.013486721348679774,0.07667261187298444,0.03443927202070659,-0.05392455946439551,-0.045012369492765526,1.15625
-0.04031502707057139,0.2458952539219054,0.08008264761678859,-0.6266186806155555,-0.004163501531462905,-0.0485116415918997,0.013393719861286854,0.08491512085920483,0.30882936092948493,-0.007896337567327903,-0.04457048216337432,-0.019866798376479648,0.03204034163839806,0.02667700564876076,1.1640625
-0.054509936663826274,0.33331432286198753,0.1084542596287422,-0.8487058372537352,-0.005792039992293944,-0.0656214299905052,0.01807559353266117,0.115198331043193,0.4184578258286619,-0.010692806858130574,-0.06042470020834302,-0.026967616666080486,0.04327664892970698,0.03604761039302468,1.171875
0.061267898873216,-0.37867297118902443,-0.1228752008992577,0.9632614812099966,0.007480641345597036,0.074024792943228,-0.020094763877661202,-0.13183899533842391,-0.4754454497075055,0.012118606909414268,0.06890708183179248,0.030966945012063908,-0.04842909898353206,-0.040423261543218174,1.1796875
0.10001017288428221,-0.6170369965398356,-0.2002980840844749,1.5697356471208574,0.011923943007780139,0.12075838186798939,-0.03286853603081766,-0.21450456402326487,-0.7746793685830722,0.019753656674962893,0.11218154575052276,0.05035826610478529,-0.07911769828477512,-0.06601401350705302,1.1875
7.90604068903698e-05,-0.0025334567446703873,-0.0006442379524202282,0.0058791942409127,0.0004692419800842962,0.0002429196267424991,7.922872327673715e-05,-0.0012727788812153642,-0.0032392827110696914,6.570913376629641e-05,0.0005454715763736447,0.0003594610478955018,3.174610608529988e-05,-1.3733210768032315e-05,1.1953125
-0.047308753702474865,0.2889426472583878,0.0940379984708817,-0.7359499306424652,-0.004963921928852261,-0.05690861719710165,0.015705383348597154,0.09985900792581139,0.3626503752523447,-0.00927291617400925,-0.05239530910878915,-0.023356023677420887,0.03757067355111447,0.03128966077432441,1.203125
0.01632023730930502,-0.10235234939527145,-0.03309132220993224,0.2596547139372629,0.002329342489783378,0.019823470150002735,-0.005271557814364476,-0.035898356715485275,-0.12852932131052872,0.0032609319951059377,0.018677060348449858,0.008473225228539832,-0.0128178323648299,-0.010729935389277455,1.2109375
0.017816124990822326,-0.1116102223260442,-0.036076996613110056,0.2832490014997182,0.0025007343096230717,0.021619295184690114,-0.005766069932395513,-0.03911766397688243,-0.1400448354979766,0.0035559893420779166,0.020341389904740874,0.009218548875248405,-0.014002584794961814,-0.01172334292865245,1.21875
-0.07156786925000563,0.43808934936970395,0.14252387524892948,-1.115317098282327,-0.007745708842984234,-0.08618592474807667,0.023700614768749514,0.15156258070599574,0.5500633697812698,-0.014052327778782866,-0.07950459674999881,-0.03550003103097763,0.05678409832191214,0.047303205657871855,1.2265625
-0.07968422309722885,0.4881048428692826,0.15875032312213416,-1.2424651103619295,-0.00867641431031434,-0.09597561990908299,0.026374621995752214,0.16888060554666334,0.6127757687852539,-0.01565079125617624,-0.08855679555565085,-0.03955592455644308,0.0632092559730991,0.0526668597361861,1.234375
-0.008467337453335562,0.05021925225470209,0.01645423399684145,-0.1283655542219312,-0.0005136946544072616,-0.010083280304682059,0.002896085933567243,0.01695856925037748,0.06301475523434082,-0.0016224511728137189,-0.008996022261004565,-0.003928220046288265,0.006811535912139002,0.005637241801466286,1.2421875
-0.02466369510333879,0.14982070327438263,0.04880489570485868,-0.38196153361666574,-0.002371597231817978,-0.029616341929895502,0.008237925788075222,0.0515233825260147,0.18806715682373756,-0.004817289249790344,-0.027101245841227292,-0.01204208175792528,0.01964449377706002,0.016328874563274684,1.25
-0.07539292657348871,0.4617073934138191,0.15016255688335772,-1.1754922311646432,-0.008185024033454164,-0.09080659137576619,0.02495967803128921,0.15973182826497365,0.5796083936272772,-0.014811350896313484,-0.08377599992945775,-0.03741784805916264,0.059813322299275266,0.0498294262766865,1.2578125
0.01922686523567835,-0.12033263691885315,-0.038883799197045585,0.3056627354696075,0.0026666848867483895,0.023297880389325114,-0.006241893939145787,-0.042167812257480855,-0.15106987275139838,0.0038365798866027306,0.021938660337298906,0.009946897435707952,-0.015138892129467226,-0.01264646554519236,1.265625
0.15038444578418844,-0.9270120321149603,-0.30094129236269,2.358181219595432,0.017703477211335115,0.18148536715780447,-0.04948067345372392,-0.32197793540054837,-1.1637268034973254,0.02968074241288906,0.16846253338154704,0.07557643807517624,-0.11901160630910766,-0.09925268778335918,1.2734375
0.08856848669116503,-0.5467531031858192,-0.17743816804624488,1.3904040847806758,0.010611705486253238,0.1069526604476791,-0.02908810753875916,-0.1900455773932003,-0.6863645332175553,0.01749692106967343,0.09938931706651874,0.04462180896836114,-0.07003411940663473,-0.058436378785355854,1.28125
-0.05175165956293986,0.3163624127425643,0.10292577800036648,-0.805828739163024,-0.005479462826768478,-0.06227311295569782,0.017180072396750963,0.1093504805298441,0.3971219093306468,-0.010155162178838788,-0.05737809928223265,-0.02560934953958818,0.04110977548212709,0.03421805910942278,1.2890625
-0.022301088376252602,0.13524642812153087,0.044087057194320295,-0.3448949647377466,-0.0021016369097983574,-0.026766968582893482,0.007462854338701001,0.04649979074371675,0.1697792581244257,-0.004350915274427985,-0.02446633598997596,-0.010864906501096887,0.017778233271840832,0.014770469323386519,1.296875
0.06414025635089725,-0.39648295002910844,-0.1286304648363756,1.0080812071808465,0.007812317260647278,0.07748341541854734,-0.021043524230667073,-0.13794360352960525,-0.49765950750611904,0.012685312852258197,0.07211055433012654,0.032404470322437456,-0.05069350352976366,-0.04231007888343164,1.3046875
-0.027410593964697264,0.16653014489901902,0.054280553053255555,-0.4245493767684367,-0.002682893615733128,-0.032912416726857914,0.009141980792622247,0.05737424064217314,0.20910784338995997,-0.0053527948243050245,-0.030174320516011655,-0.01340391862676393,0.02180821973418273,0.01813697232304721,1.3125
-0.14782277788529227,0.9071391577654936,0.2948710992995907,-2.308978491871226,-0.01648947202411034,-0.178130913782126,0.048842978644151776,0.31426552582663486,1.138768781515784,-0.029080205516728283,-0.16469894781323902,-0.0736601044537617,0.11716880189878554,0.09764266891385955,1.3203125
-0.03079921968968403,0.18742663481343316,0.06107250961297838,-0.47757753349904786,-0.0030733508743202935,-0.03702427219372991,0.01025663087249245,0.06458338109472685,0.23532553981489118,-0.006021586737036797,-0.0339514575957502,-0.015099908506311351,0.024486093640949023,0.02037649359895923,1.328125
0.17375750523844144,-1.0706787366875126,-0.3476269200929052,2.723803824089756,0.02038001961291878,0.20965536209050806,-0.05718813856267005,-0.37184037869009123,-1.3439555267173857,0.03428558910618344,0.19458718112527676,0.08726060068639357,-0.1375117621377086,-0.11468422887094766,1.3359375
0.15219996573355699,-0.9380278144606142,-0.3045616359706524,2.386521615118409,0.017909053432396026,0.18366902744575278,-0.050079330810022096,-0.3258420534613345,-1.177541115647991,0.030036544594866363,0.1705052785397414,0.07646856997328522,-0.12042940655979324,-0.10045169876200177,1.34375
-0.027585334159336568,0.16782234016154132,0.054642675441295106,-0.4271261692504909,-0.002703866408013263,-0.033131978650150426,0.009196489841149442,0.05773380672233125,0.21049449271738946,-0.005390270716056386,-0.030349176999024407,-0.01349564810635629,0.021952062032527114,0.01825046120022812,1.3515625
-0.09887411455664087,0.6062458799798113,0.1970757678928347,-1.5428218008529258,-0.01087732651422167,-0.1190992135473757,0.032700930785948136,0.20984049727054335,0.7608862070953416,-0.01943458626012769,-0.10999094003738608,-0.04915821869420856,0.07839797802565081,0.06532417679889858,1.359375
-0.06952844672430625,0.4256267548685866,0.13844037332213222,-1.0835087634317655,-0.007511977380982115,-0.0837033851321507,0.023030214719131064,0.14725335080416466,0.5342935040090985,-0.013647972274286909,-0.07720849568489813,-0.034466458065852454,0.05515672070449167,0.04596145338601417,1.3671875
-0.08604232431327898,0.5271825832740394,0.17143114898240555,-1.3420022294093101,-0.0094049671322351,-0.10360758045037659,0.02847994000868025,0.1824924010102836,0.661766276500447,-0.016902678822610664,-0.09566607415087619,-0.042737426541947725,0.06825030520239868,0.05686835599928182,1.375
-0.0882722434961657,0.5409964977155598,0.17588967152570437,-1.3772013916323795,-0.009662043112870349,-0.1063027667720514,0.029214654031930874,0.18723039778430053,0.6790199336348798,-0.01734811997149367,-0.09817031600209797,-0.04386696242658884,0.07002590270491398,0.058329112032149494,1.3828125
0.020931736315697023,-0.13070174351391683,-0.04229004416671302,0.3315787298106543,0.002856768825620001,0.02536165392650707,-0.006793284682421325,-0.04577555076153586,-0.16406117962717873,0.004165327780197569,0.02381536657470727,0.01077393697710279,-0.016467005341651766,-0.013778559433238809,1.390625
0.11056275364900327,-0.6821756906351175,-0.22136849768992395,1.7344043388511463,0.013133655224678423,0.13342978746844342,-0.03634488781610311,-0.23700208041686996,-0.8561146409040103,0.021828045031487345,0.12393923031976015,0.05563154955296477,-0.08746235453297618,-0.0729465117846263,1.3984375
0.044360991727125626,-0.27505962310132137,-0.08910187755015549,0.6986097125511056,0.0055450190946604375,0.0536058368248138,-0.014516753289094799,-0.0957539627478973,-0.3450483174316198,0.008787626765033548,0.04998473773526456,0.022510390947426042,-0.03503351519216608,-0.029230364103357175,1.40625
-0.05787838239538271,0.3539454103070676,0.11516939540529837,-0.9014231829310927,-0.0061776562771124624,-0.0696680904897957,0.019190283001960642,0.12237258185334147,0.4443686561267357,-0.011357211425769072,-0.06421837729888434,-0.028654883714890212,0.04594395622691359,0.038260816705829565,1.4140625
-0.02961624768046395,0.18026132516163731,0.05870307231489589,-0.4593190509037833,-0.0029398222820978107,-0.035589805658759334,0.009869192605785374,0.062076863139784284,0.22624826449122487,-0.005792128777842004,-0.03263276595358532,-0.01452525098169188,0.023567593131946417,0.019586928929402347,1.421875
0.07775200702422434,-0.4801653986376629,-0.15582172910665096,1.2209863249007376,0.009370153345459277,0.09387636194018995,-0.025532692024615364,-0.16698854665320156,-0.6027716313480904,0.015361408858103234,0.08731986160406227,0.03919805940176797,-0.06146678296746182,-0.05130426238091248,1.4296875
0.11678359786919296,-0.7202924345446728,-0.23381518184961245,1.832148598958109,0.013848544861523909,0.14095909118555425,-0.03840384710644501,-0.25026911036594457,-0.904241644647489,0.02305568567850769,0.13093240189871713,0.0587438799941368,-0.09238972805996397,-0.07707425163534924,1.4375
0.05490575323262017,-0.3396401780759108,-0.11018673177116059,0.8640911179997566,0.006756448699884982,0.06636709930797156,-0.018003104049783464,-0.1182597468944573,-0.4264764154281096,0.010869049362602433,0.06181484158299405,0.027796714070219747,-0.043392778251157615,-0.03622095521034594,1.4453125
-0.04245305953120145,0.25923013238939724,0.08434105956360108,-0.6595433187222225,-0.0044072247758064394,-0.05103559169016474,0.014100942602965244,0.08947217246973711,0.32531659575358607,-0.008313135568882305,-0.04695360980157524,-0.020921848520767013,0.033717995561655396,0.02806962164680494,1.453125
-0.10281939432346578,0.6304658552100864,0.20495948386952825,-1.6044825983431574,-0.011330319189968583,-0.12385151534572975,0.03400926890736296,0.21828608562861254,0.7914098858723342,-0.020210241889482596,-0.11440551853771619,-0.05113802545775619,0.08153681570156943,0.06794281439058225,1.4609375
-0.08334645780741429,0.5106466381764496,0.16605518048688284,-1.2999202991871752,-0.009097697264527664,-0.10038033286960624,0.02758732948398719,0.1767318550079103,0.6410345896549238,-0.016374307954163524,-0.09265472164101843,-0.041394747157093535,0.06611468015581151,0.0550859161476266,1.46875
-0.016776253502466556,0.10122342437630528,0.033047248904368894,-0.25820480927078115,-0.0014650292241202528,-0.02010141588103002,0.005633332547386008,0.03468006064098588,0.1271133324271916,-0.003256864452369255,-0.018280534163012212,-0.008081973238101042,0.013388342814353667,0.011118322749667283,1.4765625
0.008287711646436987,-0.052920272803592155,-0.01702922787723246,0.13392656245210013,0.0014076656416623493,0.010117911151438655,-0.0026300960101877436,-0.018797711415015315,-0.0663572004796778,0.00167971390856561,0.009715013891004013,0.004453846021560194,-0.006457141663397521,-0.005432325592446811,1.484375
-0.01664677505629871,0.10041139935616028,0.03279826212238985,-0.2563791727830315,-0.0014511085597946377,-0.01996309683096622,0.005595406004543954,0.034399021999773884,0.12604772091091035,-0.0032363588678193038,-0.018151384921927496,-0.00802402106754515,0.013293662500772194,0.01104380058068661,1.4921875
-9.031271797828786e-05,-0.0014578091379095247,-0.0002728793801800163,0.0028173334296801226,0.0004490596290615442,1.931928816106787e-07,0.00013600079886597367,-0.0009492502571404581,-0.001926086351928987,2.610223689525753e-05,0.00034498852904811165,0.0002722542030853321,0.00016947602885328792,0.00011472903428753746,1.5
0.0752514596548874,-0.46490179563353096,-0.15081193595953377,1.1820884059162038,0.009088055998639988,0.09086568391734597,-0.024708124422959558,-0.16170148657175162,-0.5836092161885942,0.01487312607430002,0.08451856154026997,0.0379753837024808,-0.05950915235841239,-0.04964260759981299,1.5078125
0.1026702328180446,-0.6335772642413613,-0.20561322903313434,1.6112703924755358,0.012230141838659569,0.12394501534625317,-0.033744923810188406,-0.22015833595250503,-0.7951842470496603,0.02027582503166488,0.11514700497297323,0.051680351347777355,-0.08121140422499791,-0.06775009805005308,1.515625
0.03911375364094282,-0.24260086046307966,-0.07863566121954065,0.6166379251052749,0.004942199679811441,0.047316365662303524,-0.012783395869820151,-0.08451854540981617,-0.3044423140521912,0.007753300192610484,0.04414508679851982,0.01987090315286685,-0.030860536311241842,-0.025777946879099393,1.5234375
-0.022181826393997427,0.1345227331181247,0.043842048840326234,-0.34256034530390744,-0.002084520456749614,-0.026596200096627234,0.00742430457824374,0.04624065874820403,0.16874836156582382,-0.00432202992256818,-0.02432120435856865,-0.010786674623611154,0.017675638354105065,0.014693553682577255,1.53125
-0.030429154102352383,0.18524705668948263,0.06032665683892694,-0.4716279995005527,-0.003029827371035456,-0.03655569275650834,0.010136428538778032,0.06380343249974942,0.2324044717658994,-0.005947111921982302,-0.033535365152971085,-0.014907844052058992,0.024192086303938876,0.02012919428549581,1.5390625
-0.04812328028919014,0.29396361268617766,0.09567173723996862,-0.748733256048003,-0.005060231799948603,-0.05790821778082599,0.015970605837890353,0.10156474771175576,0.3690757853514583,-0.009436703274792724,-0.05332146226116309,-0.0237782427723473,0.038213048935816896,0.03181020980609356,1.546875
-0.08665395893535038,0.5309223267672668,0.17264773058735397,-1.3519695924814812,-0.009478994565120366,-0.10436775072622576,0.028680377513155757,0.1838015217329127,0.6666084167475301,-0.0170298484248133,-0.09637623164265181,-0.04306867543910505,0.06874491362441107,0.05725760735032176,1.5546875
-0.0675215786913075,0.4133319239180972,0.1344230064503304,-1.0526492099777265,-0.007284732363991252,-0.08128458067146632,0.02237232218895362,0.14298371020319514,0.5188682759608372,-0.013258286451793673,-0.07499070288987424,-0.03348403040279461,0.05358893760453112,0.044625902776187325,1.5625
0.0024902077437238285,-0.017243694311940613,-0.005455064870279119,0.04303588287901081,0.0007427484938743686,0.0031358608904752065,-0.0007162708488897256,-0.006404706385475464,-0.02171507603582525,0.0005363187865127604,0.0032342229008186373,0.0015568560264096758,-0.0018719995709826308,-0.001603838163321029,1.5703125
0.02271230790444219,-0.14166203558391294,-0.045853855617785926,0.3596294907398839,0.0030611203722790124,0.027504356638742122,-0.007385730732079186,-0.04955843008901749,-0.17784035723081001,0.0045184157866591775,0.02582605631506757,0.011668942949977295,-0.017886771584549967,-0.014951205591736383,1.578125
-0.003282714192574448,0.018198175476840286,0.006090716398530796,-0.046901007953059196,8.201610885450082e-05,-0.0038486976176027097,0.001184332873492326,0.005887179832093713,0.022872779578191848,-0.0006028148690561137,-0.0032071430576918925,-0.001338882237095386,0.0027053191714665617,0.002218624869281518,1.5859375
0.020076903184412638,-0.12548609080763973,-0.040578060920991074,0.3189211600585299,0.002762366397901494,0.02432497791092156,-0.006521121039140288,-0.043974221318630054,-0.15751571372134013,0.00400332639442709,0.022902414156867723,0.010362207879715958,-0.015802028199274086,-0.013208768305587173,1.59375
0.0707442065355359,-0.4371374816327223,-0.1418133085013223,1.1118075207405476,0.008571613650797429,0.08542919548693903,-0.023227054431346882,-0.1520749275050155,-0.548736551928129,0.01398764709948741,0.07950549606906925,0.03571898998217316,-0.05593300191218638,-0.04666859035227638,1.6015625
0.050158770842359,-0.3104911639961471,-0.100683203324945,0.7895410772005916,0.006210301392022162,0.06061422740713468,-0.016434555852721446,-0.10814129918911145,-0.3897635912972549,0.009930787531961948,0.05649930642411282,0.025410787287157156,-0.03961977641322703,-0.033075534649356884,1.609375
-0.002420562622760324,0.01294994583365114,0.004375055098901738,-0.03309350330509826,0.00018294860632576843,-0.0027808132074979577,0.0009019276989615197,0.004024102882523504,0.016220553807314023,-0.0004273535514045749,-0.002238851080326611,-0.0008957011235294703,0.0020217306749999928,0.001640063602672679,1.6171875
0.015428583269207334,-0.09691103492957748,-0.03128820982575547,0.24652037454065995,0.0022317665907930426,0.01874036763994906,-0.004989505396635493,-0.03408251859752928,-0.12164909010564542,0.003092748337229503,0.017706063994126983,0.008050515542527366,-0.012133530253237605,-0.010149653267222437,1.625
0.05614719131092196,-0.34747069319103135,-0.11264724742169985,0.8834694108283823,0.006899344429821501,0.06783378999705837,-0.01841200996575718,-0.12092579646572185,-0.43606046743970484,0.011115087704098225,0.06318669714846173,0.028425302014435667,-0.044384086629442945,-0.03702505160689878,1.6328125
0.02689367663555441,-0.16744711108003232,-0.054192255382039534,0.4249106712078686,0.0035402721065635728,0.03256566084735215,-0.008749043372423314,-0.058432260623592046,-0.2100566927674145,0.005346468663014183,0.030492898456437885,0.013765297195024976,-0.021183159372386722,-0.017687288828711154,1.640625
-0.015302313549739389,0.09232578699973445,0.030118291469571172,-0.23588744541707043,-0.0013021633121923755,-0.01829726910721947,0.005175845013077735,0.03163697932266504,0.11589439391287494,-0.0029720232841053272,-0.016652551543958137,-0.007368959005839702,0.012262473944946346,0.010175338798903439,1.6484375
-0.0049796221961377375,0.028883569541968634,0.009467600084753081,-0.0741950582148569,-0.00011909953741156235,-0.005843543029302119,0.0017646330333815864,0.009584949887780003,0.03610598081659344,-0.0009403484839934928,-0.005130373765938165,-0.0022056379072692514,0.004073450895731423,0.0033293544438569712,1.65625
-0.02754582014544291,0.16750113536569203,0.05451680666075005,-0.4270785037291915,-0.0027041168560781067,-0.03306967939553843,0.009190337321681312,0.05768773373518021,0.21006430706382323,-0.005387493240590048,-0.030357412489121254,-0.013490057402152825,0.021915915525062224,0.018202330987430567,1.6640625
-0.12450686469936804,0.7637610423878551,0.2482411133017636,-1.9443633227903547,-0.013818378074145264,-0.15000950787664155,0.04115280659086451,0.26453736569929864,0.958562542933491,-0.024491178666950275,-0.13867682339211676,-0.06200098648895381,0.09869780311174939,0.08222670289223682,1.671875
-0.1574512060484815,0.9664156725815173,0.31409760752621757,-2.4596752181267134,-0.017592605536952445,-0.18974897754123726,0.05201012041642849,0.33480151582374706,1.213026145883937,-0.030978654604394886,-0.17544965265803572,-0.07847671192339266,0.12479018699773575,0.10399408135777863,1.6796875
-0.04687485313313347,0.2862552514055141,0.09319437391728347,-0.728718743569715,-0.004911484167561056,-0.05641898456492277,0.015543022253446044,0.09884509743283089,0.35938829516125553,-0.00918654381121622,-0.051887147409008225,-0.023133912774999505,0.037206403702576094,0.030987066855740486,1.6875
0.07890258691670979,-0.4874855461150565,-0.1581049864450038,1.2398888675898445,0.009510367415334687,0.09524866917371995,-0.025928511881775754,-0.16951554792089824,-0.6117093610410398,0.0155981742077815,0.08862935890364045,0.03980855511522258,-0.062412704296500233,-0.05205726469023911,1.6953125
0.09856669822853249,-0.6084396066455804,-0.19739344477402748,1.547310041592082,0.011762302574805634,0.11896640075618807,-0.032399065454838734,-0.21143155515564466,-0.7634841995902216,0.019470550412032113,0.1105809929580954,0.04963985868189901,-0.07796910462282292,-0.06502488158394414,1.703125
0.04980434281385256,-0.3083951604850582,-0.09996005795982219,0.7836960026547924,0.006167755422234807,0.06016964995022299,-0.01630846460207406,-0.10735453584456207,-0.38689139264853317,0.009858342374730612,0.056089318463363964,0.02522507727250229,-0.039326326627279314,-0.03281592175578046,1.7109375
0.009310882299474792,-0.05924330217853792,-0.019055502083564654,0.1498480285804911,0.0015236455719633154,0.011343182769124653,-0.002956033789476638,-0.020960382392175424,-0.07422161325232678,0.0018775053702957216,0.010842102073612393,0.004954976513304713,-0.007250632205783028,-0.006087738879943561,1.71875
0.0017344913318403557,-0.01258981617624481,-0.0039284237585809215,0.031517935770414465,0.0006557579899641359,0.002223963383533955,-0.0004612790214715671,-0.004812494150164198,-0.0157930935419291,0.0003867226623331315,0.0023822449855254286,0.0011681687974568747,-0.0012578215493263532,-0.0011018187882358237,1.7265625
0.022893325908234105,-0.14263469754397756,-0.04621387238460914,0.3628335743310934,0.003082211946291904,0.027765772112474746,-0.007436843279673279,-0.049940746436623516,-0.17921549804008105,0.004559728537274275,0.026041260916596365,0.0117652895773776,-0.018018354924315395,-0.015076292085690063,1.734375
0.034513614663234896,-0.21405898679156507,-0.06944110340737374,0.5445973383132112,0.004414751150381592,0.041789618388154,-0.01126798219787855,-0.07469853725565412,-0.2689813589073173,0.006851406841306944,0.039040106807430024,0.01758627865452069,-0.027220907965408745,-0.02274277723273322,1.7421875
0.0016542475632942248,-0.012038837264254993,-0.003795157065078918,0.03021429495895125,0.0006486421698699566,0.002151508990594298,-0.00043841466256464294,-0.004594863692267546,-0.015346741843913504,0.00037610680974618766,0.0023207349643882807,0.0011461234668184229,-0.0012017390648475933,-0.0010448848959247223,1.75
-0.024072051577083812,0.14609563656949906,0.04761448767801507,-0.37234521483300737,-0.002299554101328341,-0.028892913258585392,0.008039415547413624,0.05024344773952158,0.18327223271205131,-0.00469473860896362,-0.02644258095413494,-0.01172567305446322,0.019164921629262893,0.015937505284585613,1.7578125
0.015995634800605636,-0.1003663769144925,-0.032423396275707714,0.2548435604326782,0.0022939521646795275,0.019407092247422493,-0.005173133668354693,-0.03527983022864973,-0.12601289924966314,0.0031986948037163025,0.018314749257709137,0.008323730460307885,-0.012574197496260098,-0.010520483763522496,1.765625
0.05407589901532238,-0.3346306464060409,-0.10850768011691522,0.8507839267825303,0.006658654162377919,0.065316574378945,-0.017730507585673655,-0.11651035837608606,-0.41999870798904365,0.010700742310307857,0.060866341530384456,0.02737394727985904,-0.04273763400676684,-0.03566366324052412,1.7734375
0.008062084947718146,-0.05171734818118519,-0.01658875403506561,0.13050816774316717,0.0013822797819859785,0.009831214626475671,-0.002558546392228607,-0.01830146017656952,-0.06477935605827874,0.0016326045819223633,0.00945849880821271,0.004338894570489989,-0.006294729445115776,-0.005282840651178533,1.78125
-0.05581750994919846,0.3411860152412106,0.11103911637533465,-0.8693818340213513,-0.005942848822609209,-0.0671840176495587,0.0185112304481238,0.11800088161884555,0.4284517254323628,-0.010956259695695098,-0.061923029408795204,-0.027637440615698807,0.044307979467721956,0.036893465256332324,1.7890625
-0.05115873989713418,0.31266813226176304,0.10174660209749604,-0.7965603392618539,-0.005410570157592662,-0.061554516013380814,0.016983568796076473,0.10804892474556627,0.3925882120030017,-0.010039538243417068,-0.056727350743077325,-0.0253109463107812,0.04063039498494591,0.0338175768755717,1.796875
-0.03230504789804657,0.196784073144503,0.0640846114851951,-0.5013992818098361,-0.0032485576667373017,-0.03882420549470984,0.010764822760390388,0.06780964656515312,0.24702069297298526,-0.00632269773514702,-0.03565425329486514,-0.015867174070083992,0.025695464742027486,0.021371476570864023,1.8046875
-0.05706915133977016,0.3490389127503191,0.1135514499162714,-0.888666436540373,-0.006084086426409883,-0.06869130098331065,0.018919969477841168,0.12064082516653996,0.4380911684511556,-0.011197158558104806,-0.06330182896846143,-0.02824033486315772,0.04529410870160208,0.03772589815412108,1.8125
-0.05449593981167222,0.3331550222131153,0.10839882426886628,-0.8481792474536491,-0.0057864107126059175,-0.06557853046835622,0.018068004115061945,0.11515832723223904,0.4181772297132864,-0.01068636325974643,-0.060416690429040465,-0.026943960377741365,0.043252418600702947,0.03602909565037448,1.8203125
0.014388659535348017,-0.09049669982522238,-0.029229465747570765,0.2297586547452041,0.0021095065894863167,0.017494322089519083,-0.004639364464056126,-0.03179581361975935,-0.11356263029690807,0.0028853372720200206,0.01653743030043949,0.007514542038301125,-0.011290625696637527,-0.009453730883319312,1.828125
0.048170642781707594,-0.2982332769531609,-0.09671851282378803,0.7582067401939314,0.0059798579830309,0.05821912503770476,-0.015775792216774304,-0.10386280116012205,-0.37430232881659664,0.009538202915482047,0.05427372775309553,0.024404439026409562,-0.03803445699796301,-0.031760203758632144,1.8359375
-0.0013223147095819314,0.0061739112167817235,0.0021677504294754066,-0.016361036754036554,0.0003061622166978827,-0.0014741596200246222,0.0005379420187600145,0.001730406002635166,0.007780505435659308,-0.00021402893421141543,-0.0010132032927568965,-0.0003594919760973055,0.0011594958721218493,0.0009186760744269869,1.84375
-0.01991968928582173,0.12053351524181956,0.03931959139814969,-0.307211434744708,-0.0018236540582405598,-0.023890205729675672,0.006667527044276551,0.041402472881701596,0.15128360179273642,-0.0038759071512134784,-0.02178343940862606,-0.009653177961279616,0.015878143621989294,0.013197632402592658,1.8515625
0.05259761604873793,-0.3255011146245003,-0.10557001403249114,0.8277485602920456,0.006490225033236597,0.06357003868952381,-0.01723680625101348,-0.11332677020394173,-0.40864852277690866,0.010412435271707482,0.05922072424064202,0.026636864144694936,-0.04155775431467781,-0.034686376188011174,1.859375
0.09485530682377225,-0.5853882142708706,-0.18999062585450047,1.4889648091714143,0.01133300293737891,0.11452021506076658,-0.03116406976759445,-0.20350268010930528,-0.7349253778946554,0.018734884731909554,0.1064123679467258,0.047775417645724766,-0.07502156068646867,-0.06258913840843144,1.8671875
0.027487948905775456,-0.17100266057142155,-0.05537701669411187,0.434624827755899,0.003609515832106804,0.033265079998403065,-0.008954436283260923,-0.05978387603465346,-0.21480621148274173,0.005459064252605942,0.03115406221242028,0.014064861933837646,-0.021666333032238933,-0.018102877181543253,1.875
-0.028582042031064025,0.17384014785091056,0.05665668512272207,-0.4427774569822622,-0.0028163822976467767,-0.03435614601680214,0.009526062318229112,0.05984570466016696,0.21810525635519903,-0.005586282955741336,-0.03146711937045838,-0.013983465574131935,0.022735606720146566,0.01892605780978224,1.8828125
0.026805892958598625,-0.1669232996727295,-0.05401399779577305,0.4240547024215995,0.003534631703596287,0.03243778503994697,-0.008737978372905218,-0.05832056392649125,-0.20948891528474956,0.005330020181130055,0.030411994848753687,0.013734881683164231,-0.021134095476376995,-0.017644830787996783,1.890625
0.07627781549551378,-0.4712550522751089,-0.1528708248759531,1.198120239709216,0.00920384409816903,0.0921002765920987,-0.02504518629365005,-0.16386194677788085,-0.5913560494014027,0.0150776938779506,0.08566111219620459,0.03847937431669753,-0.060308861406900276,-0.050316566277532136,1.8984375
-0.0049996156840446905,0.02874120932790382,0.009510695214757689,-0.07407615111588486,-0.00011787876275259914,-0.005898308962042372,0.0017579297602751856,0.009572486979658124,0.036281744383932724,-0.0009382418000233612,-0.00514661321519033,-0.0022045230839323453,0.004073609173497763,0.0033431117875904856,1.90625
-0.11555857728496495,0.7088834016284913,0.23040411644295178,-1.8044128941746955,-0.012794014913181427,-0.13920171079172083,0.03821198498128784,0.24548325281008176,0.8899166418449115,-0.022723192649850926,-0.12864532905218434,-0.05753061198839489,0.09163939408061389,0.07634071112161736,1.9140625
-0.10950062926102493,0.6716443599711407,0.21830359236951377,-1.7095753312293525,-0.012098079683966183,-0.1318928228042789,0.036213482705389315,0.2325548447438013,0.8430547272409592,-0.021530996206916418,-0.12187280372732526,-0.05449471526589966,0.08683477011741564,0.07233961662811632,1.921875
-0.04080931287438715,0.24904109058820648,0.08105627279268296,-0.6344668005559614,-0.0042219522498174785,-0.049075408044018026,0.013563289205084823,0.08597203593901397,0.3125837158946263,-0.007998223895392426,-0.04515057398451131,-0.020119885878838114,0.03242340149965259,0.026982056107436023,1.9296875
-0.014468384777904603,0.0869159524659925,0.028413936903558125,-0.22210954272714106,-0.001201949682738913,-0.017324060838320623,0.004875257233624541,0.02976537079691279,0.10915492103952933,-0.0028075587314666498,-0.01573246628369108,-0.006939382534264845,0.011557500592077096,0.00958813046587014,1.9375
0.013719192479374174,-0.08646216697352231,-0.027910363419762347,0.21917341014671565,0.0020312789932024075,0.01667476184906875,-0.004422473466493927,-0.030363522357667316,-0.10849950138261641,0.0027501270009778265,0.015778489889042933,0.007172941186342515,-0.010771257832708029,-0.009022425920752364,1.9453125
0.07464041782612159,-0.4610781185388177,-0.14961110344473777,1.1727007218075909,0.009018351551027641,0.09015013758054223,-0.024509635223811256,-0.16035245283853783,-0.5788953888880862,0.014756742309367103,0.08386173573199092,0.03767275370834921,-0.059026003146614485,-0.04924224936509703,1.953125
0.05873634228274187,-0.3631824380802675,-0.11780940933174848,0.9237938836462705,0.007195204282025451,0.07096667763456489,-0.01926111838787108,-0.12644512608589256,-0.4560907300935741,0.011622049726838666,0.06608821986945815,0.029720397697223743,-0.04642727946578811,-0.03873328963504756,1.9609375
-0.04329402783092658,0.2643484704638993,0.0860463115250356,-0.6730335211040059,-0.004504461907275233,-0.05208063847962011,0.014384324134993548,0.09124243796677403,0.33175501135698443,-0.008483766400122772,-0.04791963313221594,-0.02134588062719278,0.03439295464210867,0.028639690682295153,1.96875
-0.05849457278895866,0.35777066742595015,0.11639938772365609,-0.9108195726250867,-0.006247502104811008,-0.07040959011128403,0.01939393339804093,0.12368634222110178,0.4491613465007045,-0.011477638254756764,-0.06490325911340959,-0.028961164294890793,0.04643809753638146,0.038672746962537266,1.9765625
0.03829798015370843,-0.23758430181835957,-0.07699270512925328,0.6042168695583993,0.004851806854749546,0.046313709357893626,-0.012526991502579968,-0.0828456155938342,-0.2982448838599586,0.007596667984155564,0.043249461242002886,0.019481012485464418,-0.03023243398920375,-0.025245455500009787,1.984375
0.05709139855342392,-0.35314213338905404,-0.1145280804481154,0.8983577348702397,0.007007090455244999,0.06896721798039605,-0.01872671578780234,-0.12297412323985486,-0.4434404053078347,0.011298184816704578,0.06425125820878072,0.02889257195006867,-0.04512961794635161,-0.03765965785790486,1.9921875
-0.02401969159677976,0.14575572519874888,0.04752976961005416,-0.37139838264002145,-0.0022947289227851376,-0.028849303996794418,0.008021063799431063,0.05010344892805833,0.1828882068708477,-0.0046884045164767,-0.026377831063864203,-0.011707917145309462,0.019119430171891945,0.01589814394609757,2.0
-0.017265700458822864,0.10419351918617459,0.0340185330551299,-0.266159617952474,-0.0015229240044778542,-0.020694971022576093,0.005801138342998118,0.035765352936905276,0.13095603475445314,-0.0033589642082048825,-0.018840572054134877,-0.008347788865774319,0.013796331251516481,0.011449005096213612,2.0078125
0.06921478893865952,-0.42774706625381403,-0.1387713806162566,1.0870861718417686,0.008391372498028089,0.08359239082969844,-0.02270927059302635,-0.14870530272421312,-0.5366290822154564,0.013683658756124392,0.07777692661486062,0.034924634195227844,-0.05468394938127273,-0.04563724064295239,2.015625
0.044343960834291145,-0.27482500169876783,-0.08906562598756655,0.6979585016858265,0.005539773449850545,0.05357991635791549,-0.014509988825847713,-0.0956687972284708,-0.34467216733580813,0.008783754603396263,0.04998535467899664,0.02248917328156334,-0.035000206168301795,-0.029209642859252316,2.0234375
-0.0509004147781536,0.3109693818566463,0.10123510310956527,-0.792483946158636,-0.0053801867435466465,-0.06128115098850719,0.01689126817221258,0.1074991365948105,0.3905859227887088,-0.00998589335887699,-0.0564329352692065,-0.025168918768196318,0.04041644442107435,0.033663702462991926,2.03125
-0.027596290371233238,0.16776161237139603,0.054662287616015,-0.4276864712257514,-0.002707571762263136,-0.03314286331740674,0.009207100767835328,0.05776785453212334,0.21062305356886926,-0.005394889398537575,-0.03038995630772361,-0.013511089216621894,0.0219603493577689,0.018252320520229334,2.0390625
0.04148024081934272,-0.2568864546870009,-0.08335444698032374,0.653481198692707,0.00521324190958047,0.05019408121568424,-0.013567557750817198,-0.0896111111640811,-0.3227244037970034,0.008218588892600178,0.046804945016009195,0.021060020145078347,-0.03274228932329976,-0.027367541488111144,2.046875
-0.015532288082701698,0.0938256070447597,0.030564033513385408,-0.23861390481455336,-0.0013229929418717217,-0.018565606330882962,0.0052293755345118155,0.032016246971179295,0.11739535300430322,-0.003013224954402245,-0.016883939622026535,-0.007458035983467741,0.01240406714371237,0.010285625810239226,2.0546875
-0.08552114184121935,0.5241220481448693,0.17039609428403954,-1.3338165432990816,-0.00934672628103093,-0.10299554084623029,0.028301142916339287,0.181337730886095,0.6577048774043105,-0.016803511371815995,-0.09508808383114477,-0.04247495685724118,0.06782178965172285,0.056507510563478386,2.0625
-0.021089868701078575,0.12768667027951014,0.04164526593884927,-0.32536005546453695,-0.001957380846765401,-0.02530173208509817,0.007051400941990886,0.04388152806441378,0.16021249546043098,-0.004106430483140322,-0.023105907114954936,-0.010230578243748777,0.016788638859460376,0.013963196718759112,2.0703125
0.01903078128967599,-0.119053668677477,-0.03851887639920822,0.30263025284767997,0.0026447820635635425,0.023090608099491806,-0.00617948155928076,-0.0417228374608484,-0.14959858049380323,0.003800307309766907,0.021727738560273626,0.00985172872660878,-0.014985131736711923,-0.01253099757261251,2.078125
-0.07907691068444757,0.48434999157906733,0.15751577443220577,-1.2327644938953086,-0.008603677333724104,-0.09523004608654485,0.02617112925559644,0.1675749723254432,0.6078243965361446,-0.015532765522788556,-0.08788495308406322,-0.039241337501654885,0.06271463519960299,0.0522548234332706,2.0859375
-0.0896489814363169,0.5492069038005487,0.17865163630439349,-1.3984297813642441,-0.009818368207613988,-0.10799937349627298,0.02966375196936198,0.190144065309356,0.6895162067049955,-0.01761803081160449,-0.09971378657128507,-0.04454441806552173,0.07109227227913757,0.05924866385622218,2.09375
0.10109841251140704,-0.6240696401763254,-0.2024599792440958,1.5864815516573967,0.01204862968352712,0.12203166402836008,-0.03322255779750043,-0.21677659987809728,-0.7830076607569298,0.01996834608155196,0.11339279324498812,0.05089098897688756,-0.07996223426293483,-0.06669268203356148,2.1015625
0.2165937885512853,-1.3342667632228238,-0.43321746773608527,3.393860772869287,0.025289266233369592,0.2613276015024182,-0.07130196587624667,-0.46317420284753114,-1.674555707554766,0.04272675870232644,0.24243983513265865,0.10868022162348955,-0.17142081088327443,-0.14295816596615063,2.109375
0.08756003743995426,-0.5404793058138533,-0.17540162831070077,1.3745361605909658,0.010494999283122875,0.10571766117442594,-0.02876004388782076,-0.1879113391159872,-0.6782995308720231,0.017298284315158532,0.098276153560779,0.04411225728870166,-0.0692295426809559,-0.05776717099385113,2.1171875
-0.07180081825833749,0.43966889503429996,0.14300121440858077,-1.119427763997151,-0.007776324022386579,-0.08647673678889145,0.02378206391431671,0.15206381869588637,0.5520242047027961,-0.014106461288646318,-0.0797813260495269,-0.035633993207353436,0.056977223071593655,0.04745491530328233,2.125
-0.10071101753000018,0.6174854661021223,0.20075431502856306,-1.571911808985928,-0.011090744052527341,-0.12133518211254725,0.03331391198693855,0.21376031125302053,0.7751902180327253,-0.019802199345377,-0.11207488551692094,-0.05010068504388068,0.0798772494473222,0.06654480734748963,2.1328125
-0.09204203742024474,0.5642593992017493,0.18342476804525845,-1.4361863904927803,-0.010095100369824932,-0.11086209126174543,0.03045280679187837,0.19527629352484832,0.7081951468952111,-0.01809065429670426,-0.1023684282924464,-0.04575302875181793,0.07301229841891417,0.06081730106354541,2.140625
-0.06936319651060815,0.42476566230636575,0.1381092228074972,-1.0810688360537355,-0.007492181506155978,-0.08351004029748792,0.02297045238763167,0.14686811129840302,0.532952898647486,-0.01362014141746083,-0.07702680626942164,-0.03438926085742248,0.0550373125250538,0.04583853948776463,2.1484375
0.031162779437342043,-0.19363356733026177,-0.0627442894016386,0.492288691481941,0.004034661317544646,0.03771474020827868,-0.010175348531776074,-0.06761875964662381,-0.24330059680024588,0.006188566863064555,0.03527468898358446,0.015921518456849103,-0.02459086001311966,-0.020537581453202523,2.15625
0.09957775602855308,-0.6144124570652812,-0.19944205708588345,1.5629119366260957,0.011877053298160694,0.12023251207633612,-0.032728419695968666,-0.21355731578577453,-0.7714662416774604,0.019669695147975542,0.11171199781190555,0.05014837254170641,-0.07876809252476198,-0.06571197417029982,2.1640625
0.030083654544731584,-0.1869010042490116,-0.06059282950349647,0.4751765234336085,0.003906655375290467,0.03643323789767534,-0.009811422933183761,-0.06526933061331618,-0.2347626548203413,0.005974254373036204,0.03407209690346743,0.01535733664739317,-0.023714879512341882,-0.019828760319427995,2.171875
-0.017539062013469706,0.1059206329485085,0.03456802821886194,-0.27021710573709845,-0.00155486435703422,-0.02102566815384009,0.005890351147184152,0.03631731859952343,0.13302645886389886,-0.0034128086735344424,-0.01915268830540245,-0.0084810018162649,0.014002338005164752,0.011620710204294267,2.1796875
0.07271577302384861,-0.44934802704605703,-0.14574695568870275,1.1422504190233491,0.008793171520861908,0.08778901284505651,-0.023868703894180308,-0.1562585086219275,-0.5637771006945324,0.01437218852435928,0.08167170765746379,0.036688942178611024,-0.05748821825390628,-0.04796106943017041,2.1875
0.104557860265026,-0.6451376865871931,-0.2093651599845669,1.6406488176837701,0.012444581759688688,0.12620860688748708,-0.034366572477835304,-0.22417256384847462,-0.8096148202123371,0.020651417922979295,0.11727131567255951,0.05263189664042019,-0.08270884527985857,-0.06898232628661925,2.1953125
-0.05246408905781619,0.32076801380039927,0.10435155156201117,-0.8165947192456193,-0.005557310369241294,-0.06311533166481025,0.017405773247374915,0.11085770742865811,0.40264863658757416,-0.010286659609181457,-0.0581348228638885,-0.025940421827611592,0.04165401490912291,0.034687647337312826,2.203125
-0.19075835750021267,1.1712609727386258,0.38065022153888184,-2.980791416348686,-0.021411411415865916,-0.22989509118940737,0.06300098666568223,0.40589001618416704,1.470219950806418,-0.03753981683208619,-0.21266074687914907,-0.09514354455461181,0.15117529420536313,0.1259947239577199,2.2109375
-0.13710292614212674,0.8410651592770674,0.27344752028477365,-2.1411157848026767,-0.015258440138273799,-0.16521725642479565,0.04530838217212996,0.2913815582242655,1.0558414450405655,-0.02697015331444682,-0.15274675019439488,-0.06829069928255371,0.10867072135632058,0.09057059268076065,2.21875
-0.008641868450594595,0.05100573662109686,0.016792813701889633,-0.13079317460028128,-0.0005303774440430942,-0.010301356544465847,0.0029540396595541447,0.0173084842878021,0.06408955780034717,-0.001656817631321161,-0.009220301192695646,-0.0040077195443096484,0.006935706288236943,0.00575332211754899,2.2265625
0.0657558265997383,-0.40640205391921236,-0.13184637959128903,1.0335069079942438,0.00799841249362104,0.07943279627547202,-0.021574778808751315,-0.14139916385676404,-0.5101761507455967,0.013004109817554373,0.07392609473086295,0.03321488847593911,-0.05197074751064841,-0.04337183575628725,2.234375
0.10351278152271112,-0.6386147808255322,-0.20728358777831513,1.624441458463543,0.012326969925504805,0.12495759588965476,-0.034025122915172325,-0.22195490564364612,-0.8016529588619312,0.020443357541807802,0.11611359334540683,0.05210565695847627,-0.08186964309420713,-0.06830199000586883,2.2421875
0.09255082337486474,-0.5712716776079326,-0.18538262259192878,1.4528907171958665,0.011070200281037784,0.11172166917838829,-0.030412560979747056,-0.19858455971097846,-0.7170662258508431,0.01828283827400895,0.1038527133354666,0.04662584905617761,-0.07319795128486775,-0.06106233318007737,2.25
0.006755686140065268,-0.043509941083315205,-0.013966288297415929,0.11013931905882889,0.0012328717064337086,0.008266793431015168,-0.002123981789462373,-0.01553905390238383,-0.05466053389209319,0.0013776006126737428,0.007998412489752006,0.0036962369413436136,-0.005253109068312514,-0.004417154467824668,2.2578125
-0.04423603807917724,0.27026325058528927,0.08791084730946207,-0.6879271123470608,-0.004614280008544131,-0.05320589968462854,0.014690146835521868,0.09326645760242563,0.33908097770018664,-0.008670462601810562,-0.04896178491175107,-0.02182684071479196,0.035140555410854826,0.029244984639184058,2.265625
0.014074509712096325,-0.08838920475971837,-0.028597924011084373,0.22464128121823598,0.002071439968464507,0.01711409768207864,-0.004536133679903085,-0.03113872924702137,-0.11111958404997353,0.0028186289245856018,0.016184634291357792,0.00734637649510158,-0.011034137649068635,-0.009257794777722867,2.2734375
0.03984706294276452,-0.2470061211493743,-0.08009369717341439,0.6279469376502141,0.005026388415971124,0.0481861522934447,-0.013033093199864986,-0.08612414805453078,-0.31011155904428817,0.007896906360192638,0.04497109761933289,0.02024187189525837,-0.03144542162091539,-0.02627115413971544,2.28125
-0.06598807748728887,0.40394494957318366,0.1313657056644007,-1.0285361592304896,-0.007109845412833853,-0.07943945041313089,0.02186760016578019,0.13970465290320672,0.5070962405850816,-0.012958016792649156,-0.07327339516700829,-0.032725175888507804,0.052380796482998454,0.04361400033501626,2.2890625
-0.13599131700844377,0.8345559284675085,0.271236614439583,-2.124203406923584,-0.015137717982808295,-0.16385233576810782,0.04495343336413848,0.28908758242193133,1.0476752777134486,-0.02675271689145766,-0.1514803132509458,-0.0677631849378718,0.10783032197139154,0.08984002209538991,2.296875
-0.02851481036525314,0.17342558837649058,0.05650368217347511,-0.44202167310786633,-0.0028132430703350347,-0.03425246858070596,0.009512813143384976,0.059767626609516636,0.2178234449016733,-0.0055730106810578306,-0.03140184327367026,-0.013972071648107692,0.02269975982283426,0.018878795444935016,2.3046875
0.10584037954880815,-0.6531075920209242,-0.2119379578193212,1.660954647835077,0.012595294757174738,0.12775651186308276,-0.0347954887000586,-0.22693047375882908,-0.8196941716256867,0.020905285095273195,0.11870456870014102,0.053283511167223685,-0.08373349189956049,-0.06983435009384908,2.3125
0.09756867818322967,-0.6022832234158307,-0.19541603585569423,1.5315832661833397,0.011648582820887377,0.11777960154983161,-0.032071832150898545,-0.20930358087040812,-0.7559621714831403,0.019276461601648864,0.10945972019231326,0.04915538753666293,-0.07719588100153042,-0.06437715452037214,2.3203125
0.035500863574881664,-0.22047120296994674,-0.07140778141162678,0.5600987046913478,0.00453090490040609,0.04293323323483111,-0.011604082434243736,-0.07686681012707103,-0.27674014618545195,0.007043296532479932,0.040108092062977635,0.018088410897682577,-0.02803322577862918,-0.02339669247751893,2.328125
0.03538120311238069,-0.21973901435652482,-0.07116758858830549,0.5582599430340832,0.004516775198820921,0.04278305294959016,-0.01156371758973927,-0.07660728373963632,-0.27579224782618617,0.007018084336152007,0.0399716258958708,0.018022635740996606,-0.027933208217101844,-0.023314320674692947,2.3359375
0.004852374913595976,-0.032016515797865096,-0.010168665801706014,0.08063690553914533,0.0010174921638356595,0.0059601116249045575,-0.0014999801735344793,-0.011484066732805734,-0.04010236610611711,0.001003626202566869,0.0058715368349855175,0.0027482099088427265,-0.003755620482860007,-0.003152456777573182,2.34375
-0.1222683298883405,0.7499522110595921,0.2438212453984153,-1.9089064948524719,-0.013558855558400336,-0.14732963420013445,0.04041693239935603,0.25974190747566916,0.9414384234482032,-0.02404574227033047,-0.13614222498891987,-0.06086990471485954,0.09693119174650594,0.08078277880013433,2.3515625
-0.18533066776424031,1.138061075305377,0.3698233817711759,-2.896145119136565,-0.020792962020114512,-0.22335475738341729,0.06121837617637893,0.394316800708859,1.4284981398463739,-0.03647507474025384,-0.2065970364995984,-0.09244227553373575,0.14689508179176866,0.12241553520809584,2.359375
-0.07129313692803209,0.43678200495388064,0.14197658838830404,-1.1115729363696194,-0.007719343902556571,-0.08581669733404725,0.023622633371529464,0.15102122794541153,0.5481076262935909,-0.01400511023951023,-0.07919825822723915,-0.03538182236542643,0.05658874752944931,0.04711055897087906,2.3671875
0.06344526731338264,-0.3920294975246698,-0.127235704821974,0.9971714542251421,0.0077311736693436725,0.0766652420999013,-0.0208068431452939,-0.13646709034629365,-0.492276843819109,0.01254680758270861,0.0713295356399734,0.032051715946209286,-0.050128610846016525,-0.04185878385826363,2.375
0.07023997549733614,-0.43392060937160903,-0.14081428301184976,1.103504081190227,0.008511581225437624,0.08484727697047753,-0.023052559415510467,-0.15097368854241972,-0.5448046708659985,0.013886822255544043,0.07892420118560106,0.035457541129634465,-0.05551888766105625,-0.046344002827395314,2.3828125
0.05087287964402458,-0.31479772102972264,-0.1021156091992763,0.8003962249721459,0.0062903406082848775,0.06148586332407007,-0.016669643883203883,-0.10964672947415,-0.39522260728412595,0.010071095124960456,0.05729981203704108,0.025764128320005925,-0.040184649076149236,-0.03355347150735757,2.390625
0.11097448505040777,-0.68449829933559,-0.2221988666438161,1.7412073711528837,0.013181836463341787,0.1339598173413942,-0.03648944273153565,-0.23787857446020097,-0.8592515399651539,0.02191644104701834,0.12445662691761168,0.05584231401582545,-0.08778900859163913,-0.07323489869869779,2.3984375
0.12986660943985187,-0.8008419109818375,-0.2599545459645249,2.0370825804366435,0.015350137358855051,0.1567315671575171,-0.04272207247663085,-0.27819647486509413,-1.0052153448702261,0.025640564661092737,0.14555447606468824,0.06530211562170439,-0.10275631313968314,-0.08570595785346356,2.40625
-0.0052482531481877585,0.030135365778302396,0.009999652118016988,-0.07760527739167,-0.00014138821125326802,-0.00621593433870938,0.0018291855898253538,0.010084322226090169,0.03796935322037577,-0.0009866186709711201,-0.0054186536577923,-0.0023141493981573822,0.004254131468340128,0.0035111328015793686,2.4140625
-0.1569740362960391,0.9634509999806999,0.3131572742510035,-2.4523735396402753,-0.017540096274327933,-0.1891831078670804,0.05186218831540098,0.33382086615460904,1.209548383626919,-0.03088747696541969,-0.17493523808033282,-0.07824799239494018,0.12442519230960335,0.10369668640293019,2.421875
-0.1385253474542346,0.8500548678068246,0.27630783536553427,-2.163644110460573,-0.015426029746663404,-0.16692823507200713,0.04578372166074377,0.2944692564096252,1.0671654926139944,-0.027251609947047083,-0.15431306807604692,-0.0690164259628956,0.10981765535606548,0.09152030889142418,2.4296875
0.002543815470746754,-0.017683947858445664,-0.00555221323575495,0.04421111097789038,0.0007496471784177384,0.0031945798358590074,-0.0007286584462310893,-0.0065179102374997135,-0.022112025050808486,0.0005471075580274207,0.0032937153378712856,0.0015804751636610528,-0.0019076093355543011,-0.0016238180674777198,2.4375
0.07572148217062337,-0.4678145984049487,-0.15176755653801452,1.1894089848186837,0.00914064421289162,0.09144590529437183,-0.024855999319973662,-0.16265871814652194,-0.5871821160876893,0.014964904500319119,0.08503731059843339,0.038198363450384104,-0.05986389603466208,-0.04994710356997584,2.4453125
0.026584486307470033,-0.16551028708568455,-0.053578128673324434,0.4204380159865339,0.0035064631562106495,0.032188251787553725,-0.00865518292592036,-0.05783706271959693,-0.20775963794324584,0.005282333061029305,0.030143228454956324,0.013610786508511755,-0.020950614303298743,-0.017504490647172546,2.453125
-0.02005643642991589,0.12136057725596391,0.03963235623118222,-0.3092158889630414,-0.0018401579080853307,-0.02407656761351286,0.0067174582954845925,0.041654932413578274,0.15236449201686983,-0.0039032128243550496,-0.021941465822932677,-0.009716520336789512,0.01597970143690704,0.01330111202620726,2.4609375
0.019804108555283962,-0.12393193587272966,-0.04001598595041349,0.3147510820293992,0.0027316895458350935,0.023981457654355123,-0.006431495218147777,-0.043393466138064066,-0.15546375769298254,0.0039551634560773255,0.022602497017881574,0.010239532852815642,-0.015597830227205725,-0.013016095992345707,2.46875
0.05510758595817282,-0.34102369570336744,-0.11059397910434232,0.8669138367401908,0.006778107997532382,0.06658764940893853,-0.01807035524879651,-0.11869056017200771,-0.42807277856832004,0.010908274737483351,0.062026301178449844,0.02789529307732688,-0.043553959151296465,-0.03635160429635067,2.4765625
-0.012265096116451463,0.07363998699819468,0.023979937884098402,-0.18793032674567636,-0.0009499605732650036,-0.014610480617109114,0.00414929970130464,0.025083873418672836,0.09213194928454711,-0.0023734124111919053,-0.013263150508298682,-0.005837655134916924,0.009818342643893597,0.00810202470598497,2.484375
-0.09654197541381944,0.5921106802068491,0.19236833498028352,-1.5068779479931833,-0.010613516059305782,-0.11624153245788602,0.03193794391297584,0.20490107991850107,0.7428240824801341,-0.01898054691221335,-0.10741545537924137,-0.04801374286265857,0.07657194544441841,0.0637513679494671,2.4921875
-0.0665319163311685,0.40731114396445406,0.13244424186353376,-1.0368477566415506,-0.0071699637086977165,-0.0800949737567762,0.022040861514698588,0.14085584686915026,0.5111163765008285,-0.013062776226233612,-0.07387322901708487,-0.03298280681145654,0.05279875358032187,0.043970642572175735,2.5
0.022461918715585484,-0.14023339257039855,-0.04532835651063664,0.3561347681559741,0.0030354812738435776,0.027199867117129607,-0.0073000659729452536,-0.04904049259868071,-0.17590129470557445,0.004475322083138387,0.02555762716593222,0.011558488121336816,-0.01768744877503008,-0.014767333182418763,2.5078125
0.0400943700319722,-0.2485860596157113,-0.08054301520436416,0.6319176450392832,0.005055464883570601,0.048472709833094416,-0.013108621538861089,-0.08666754404832536,-0.3118964861675334,0.00794641076515387,0.045251213372595404,0.02037100196622093,-0.03164349170789662,-0.026415701015246703,2.515625
0.01196989560279838,-0.0755129181015072,-0.024357155366541646,0.19147734615680442,0.0018282208721421484,0.014561157310122988,-0.0038330944585225606,-0.026646200167303985,-0.09468572121460127,0.002400340234856872,0.013820898115438733,0.00628062072013511,-0.009357451960093341,-0.00785460621418261,2.5234375
0.023082250103505772,-0.14396629995489682,-0.0465699264057361,0.3653513845945686,0.0031019865717976155,0.02794859650813462,-0.007498298273697045,-0.05034178517636156,-0.1805025908876391,0.004590584923692146,0.02623033387921401,0.01184017864075322,-0.01815786548491435,-0.015185764818994245,2.53125
0.04182178702956109,-0.25929814275288654,-0.08401438963063938,0.6589008827231231,0.005252370155254222,0.05054231919274201,-0.01368056407114147,-0.09034414612250248,-0.3252419109371315,0.008287713772363113,0.04717025634316548,0.02123237839850341,-0.03300970937300025,-0.02755496286013813,2.5390625
0.026548796981312142,-0.16528522535902412,-0.053509254567224156,0.42015170779058586,0.003502954665947867,0.03213715756975678,-0.008650924318465564,-0.05778577872169353,-0.20742799581927404,0.0052807733133332,0.030116961729767154,0.013600564923091255,-0.020925814265295734,-0.017484219952353927,2.546875
0.011563036278365373,-0.07311130170083341,-0.023597666117813998,0.18565056781711145,0.0017856962689083826,0.014080807015483313,-0.0037159327497109373,-0.025794488837496892,-0.09188314735017913,0.002326447926972807,0.013380394850862383,0.006100163887173372,-0.009067739530053496,-0.007606452979669053,2.5546875
-0.0162642085838655,0.09790502856444368,0.031976523191680886,-0.24992832193017497,-0.001403590282257613,-0.019470407580584888,0.005457855211869404,0.03362120141361974,0.12285492742324207,-0.0031574834019213916,-0.01770915897587753,-0.007823418822665098,0.012962680779553811,0.01076906622692881,2.5625
-0.07803369628368623,0.47775870391120484,0.15540281461781966,-1.2166127693376259,-0.008484384366929113,-0.09396685833597156,0.025827063312213624,0.1654155579104635,0.599765288596942,-0.015326289037326347,-0.08671989186111474,-0.038721202764809746,0.0618815293804466,0.05157230795697627,2.5703125
-0.06000515234535801,0.3669628250201609,0.11941149659667996,-0.9344876862661742,-0.006417860898209534,-0.0722396717703255,0.01988625592367635,0.126922210376124,0.4606285719648325,-0.011772346640693702,-0.06657950166111598,-0.02969372822316082,0.0476113469807803,0.039680699314967705,2.578125
0.07699288758830683,-0.4755234199585065,-0.15429845022744607,1.2093454554415242,0.009286977383121502,0.09297079603688861,-0.025280169660534868,-0.16537911968796742,-0.5970445902231116,0.015219703926183997,0.08647260535699106,0.03885000397076571,-0.060876734449106636,-0.05078259417032697,2.5859375
0.10692618564201636,-0.6595115637750041,-0.21410715387777446,1.6776474644547676,0.01271697214407314,0.12908514031172175,-0.03514604436004861,-0.22923923288320278,-0.8280756150822892,0.021114383861147303,0.11991188988521265,0.05381631628910143,-0.0845753099857375,-0.07056066064186818,2.59375
-0.07067120329438764,0.4328857269184625,0.14074045745952807,-1.1017443770382087,-0.007645902815484868,-0.08508469727657555,0.02341072637188405,0.14965602119635127,0.5432243224524751,-0.013881557156234129,-0.0785039638706233,-0.03505930397647909,0.05608317711246102,0.046699529351449096,2.6015625
-0.15523779295269444,0.9529501144745982,0.30971354954211994,-2.4252827549305667,-0.017343460028682166,-0.1870897725299323,0.05129263747541829,0.3300750622666734,1.1962572155504214,-0.030546053081718972,-0.17299080810314615,-0.0773874979812052,0.12306391850946193,0.1025417006897803,2.609375
0.025700998782977942,-0.16006235033129995,-0.051813431836422986,0.4062020691103442,0.0033992278367068625,0.03110627681909577,-0.008363108370233067,-0.055929717684851644,-0.20066119053272555,0.005105498088160047,0.029148866614975483,0.01313907736570756,-0.020232867534432184,-0.01693079533698831,2.6171875
0.15036940344940547,-0.9268376904086454,-0.3009182535349261,2.3573091200430185,0.01769332597190792,0.18147890745725268,-0.04946607217081161,-0.3218864241250058,-1.1632326188034088,0.029672339431640448,0.16843904360605666,0.07552681967054835,-0.11897417544337147,-0.09925583469557113,2.625
0.0040461159837290855,-0.026754701801457927,-0.008562421457238586,0.06773982908705142,0.0009210431365086519,0.005039279506456325,-0.0012254797719174137,-0.009729297721064567,-0.03365909805048944,0.0008444362046932854,0.0049820042320623615,0.002331216688252575,-0.00310132670466359,-0.002641125787351373,2.6328125
-0.1002890839722131,0.614940559802859,0.1999116299351277,-1.564878451654306,-0.01103808493281748,-0.1208052769939111,0.0331699579085502,0.21283152162996316,0.7717270717013425,-0.0197128743713533,-0.11158305429151305,-0.04986232951409749,0.07952390991469341,0.06626085596550789,2.640625
0.045936739036317155,-0.2845921786295357,-0.09224589465455485,0.7234065050118225,0.0057270962834228695,0.0555146139349329,-0.01504122180216041,-0.09914330285062643,-0.3572747169163339,0.0090978109492272,0.05176799281418434,0.02330375207764846,-0.03628183090083505,-0.030281768364046537,2.6484375
0.11779237042921871,-0.7266082076769752,-0.23581829591480125,1.8478689099175543,0.013965267554537676,0.14218334743745412,-0.03872853070881645,-0.252419334056688,-0.9119741187970799,0.02325674933021528,0.13204821930955923,0.059255508266648715,-0.0931871457731349,-0.07772514875678144,2.65625
-0.08231350632039568,0.5042291339539124,0.16399319373601753,-1.2835784764711429,-0.008976182887922752,-0.09911615064653702,0.027248525209735565,0.17452987018163568,0.6330302583493874,-0.016168945839182807,-0.09149225949808251,-0.04087098215432174,0.06529499617990753,0.05440821311612233,2.6640625
-0.19073241594618073,1.1710943195686003,0.38061307109373255,-2.9802302324859467,-0.0214061506595127,-0.22988009760913106,0.06299049562842331,0.4058412926110012,1.4700452338056078,-0.037531214838547496,-0.2126128955673942,-0.09512202082870042,0.1511642309408008,0.12600268004350038,2.671875
0.030050002072530106,-0.18691744861364165,-0.0605169244780298,0.47482722571194774,0.0039062139184088316,0.03633855232184575,-0.009809850649195553,-0.06522615278907982,-0.23462815004512888,0.00596803317975692,0.03403006063440539,0.015349824523406148,-0.023693313607212954,-0.019783804235237717,2.6796875
0.20820312771205154,-1.282707381488961,-0.41646987002432406,3.2627779462307163,0.024331394581577837,0.25116980812627,-0.06855230866347026,-0.4453474676309923,-1.610104920635288,0.041068408924588976,0.23304908590371665,0.10449624592181167,-0.16479868227339825,-0.13742958333803526,2.6875
0.028200975979923208,-0.17552386682769083,-0.05682274053290839,0.44578584976751323,0.003693237480081384,0.0341157276984371,-0.009200796437414033,-0.06130185467847715,-0.22029866428188535,0.005602118862336461,0.03195157665597181,0.014429701236086638,-0.022247960252954623,-0.01857837737163636,2.6953125
-0.20057585362774238,1.2317087461000675,0.40027165409702936,-3.1345791989990803,-0.02253879940190085,-0.24174751726473537,0.06623676571003485,0.4268414906242018,1.546107777047761,-0.03947353195247036,-0.22363101577098093,-0.10005129101808917,0.15894424140621896,0.13248341463947041,2.703125
-0.09869283655987511,0.6051438910852025,0.19670277262969324,-1.5402106716137804,-0.010860048501540012,-0.11886736271350813,0.03264765155835079,0.20949219774230962,0.7595617915706505,-0.019397889877007895,-0.10980205300248495,-0.04907805200886295,0.07826104611284009,0.06520190939819451,2.7109375
0.15085081020440336,-0.9296978272490558,-0.30188652859513954,2.365126407838927,0.01775091841979415,0.18206610454820743,-0.049633097409566375,-0.3229385812640828,-1.1670835290231212,0.029771985596622027,0.1689921551371366,0.07579044267034973,-0.119373218844691,-0.09958245520444568,2.71875
0.16593965435666458,-1.0225195344762374,-0.3320303755279182,2.6012618159381913,0.01948209663820904,0.2002621176948796,-0.05460779793505443,-0.3551457423629779,-1.2836064233373221,0.03274459899973914,0.18584785707548063,0.08334212097039376,-0.13131963066838886,-0.10954488029863202,2.7265625
-0.01802054292634768,0.108944341214609,0.03552173271399187,-0.27781251281416564,-0.0016099565766605312,-0.021577794748094237,0.006051933854002673,0.03735271243514086,0.1366820120720813,-0.0035056269524658765,-0.0196847304016841,-0.008717694162191168,0.014382317707836125,0.011929201719355478,2.734375
-0.09930499493459607,0.6088510300601673,0.19792928579939606,-1.5498837706425983,-0.01092999760236689,-0.11961228982505223,0.032852833721013774,0.2107676808460959,0.7642598049969762,-0.019525443550072255,-0.11050892244628896,-0.04939975609063623,0.07875789889785471,0.06560004784637329,2.7421875
-0.015178083471965522,0.09135778480214019,0.029860567167183546,-0.23304807873230632,-0.0012825893942017615,-0.01818460221439692,0.00510998892932479,0.031240659896827606,0.11474926750269972,-0.002948752795228063,-0.016520512410976677,-0.007296528743926082,0.012126134687473124,0.010055711204290142,2.75
0.052804620970625146,-0.3267362848403127,-0.10594141095905452,0.8309127369269231,0.006513789263361987,0.06379346608051226,-0.017300600933806608,-0.11380448071347701,-0.41008643705971887,0.010449963190712697,0.059443953189627564,0.026733753534328206,-0.0417026927090261,-0.034810042882050994,2.7578125
0.016414948447536493,-0.10282244844711501,-0.033220712620650475,0.2610020538352377,0.002340075594299128,0.019924172178674482,-0.005289309281506225,-0.03610891956919909,-0.12906003714365463,0.0032800511239743065,0.018796448451797995,0.008522414748626618,-0.012860764648334019,-0.010756964627045902,2.765625
-0.046864664888165396,0.2863069254993365,0.09319944268616495,-0.7295740445808385,-0.0049169910260683436,-0.05639361885399436,0.015575225705666607,0.09893320330819835,0.3594964523235394,-0.009191199277090499,-0.0519055771075893,-0.02315149191137073,0.03725199037862972,0.031028839069629933,2.7734375
-0.06806555925587099,0.41647298239844033,0.13553043476493373,-1.0609155602126341,-0.007344904432889206,-0.08198500372140523,0.022546378262808836,0.1441216193744026,0.522992396207964,-0.013366651012226212,-0.07559318451805612,-0.03375122662192917,0.05400761085139836,0.04500834337061951,2.78125
-0.052173046358843234,0.31865545103965887,0.10375041666764148,-0.811558295195049,-0.0055177972788137295,-0.06281070868851195,0.017289804743750206,0.11015932105810922,0.4000396905937263,-0.0102282110068348,-0.05782602424237569,-0.02577536950533631,0.04139091438395325,0.03449141098865921,2.7890625
-0.019077207159071102,0.11526219688776247,0.03760838100022148,-0.29357846041094865,-0.001722836136110253,-0.022857721625703892,0.006379187264935746,0.03955922612265908,0.1444530484624792,-0.003704742426816718,-0.0208403236709251,-0.009209779262355574,0.01517977066315845,0.012623359882597378,2.796875
0.020589990654359475,-0.12861276384972373,-0.041649201641688824,0.32682659954372645,0.0028211365962354227,0.02499160794833129,-0.006691590960291443,-0.045025505220607456,-0.16164927103461718,0.0041059469449331075,0.02347381775794321,0.010618483594414349,-0.016221123923812995,-0.013572059443563728,2.8046875
0.055156077300137114,-0.34129459340439056,-0.11069914308505846,0.8676983557960752,0.0067818484565491605,0.06664944511904738,-0.018086808327169857,-0.11876278126592664,-0.42836582278222,0.010913563297713959,0.06208643952601972,0.027901200786845083,-0.0435898756031333,-0.03638864932552333,2.8125
0.06572665958820238,-0.40634118211982834,-0.13180012692618082,1.0332834985046593,0.007994227146744751,0.07938301868886533,-0.021570637436167016,-0.14133557748668876,-0.5099323152135081,0.012999519756249179,0.07389396524247918,0.03319912420022977,-0.051960045618275115,-0.04335861769950129,2.8203125
0.026407482200389933,-0.1643934425472103,-0.05323213831020429,0.4177574512140092,0.003485247931091012,0.0319790597711603,-0.008599331645772436,-0.05744686364707899,-0.20631302382379166,0.005252869898722742,0.029953024911806504,0.013528689701601784,-0.02081223314329449,-0.017393182625344113,2.828125
-0.048677586612919696,0.29750211153881534,0.09678454561432732,-0.757723487263316,-0.005125943725371122,-0.05857009123791484,0.016161416409817154,0.10276274292569731,0.37348734704456166,-0.009547582853385294,-0.05395438852980417,-0.02405671809326261,0.038663881436785216,0.0321826420119691,2.8359375
-0.07466666168894191,0.45735122657152416,0.1487132447280295,-1.1644402817182677,-0.008105440936328027,-0.08992963399266296,0.02472577398537757,0.15819210164872705,0.5741414660889487,-0.014671627114263572,-0.08299114427974735,-0.03706706915133423,0.05924814937682998,0.04934192907786847,2.84375
-0.005180631620865571,0.030033934923934344,0.009893792667798083,-0.07666213181760487,-0.0001362003969266719,-0.006129729121054377,0.0018123134772483288,0.009905937156870923,0.03757038151766922,-0.0009761240152665247,-0.005338726458574256,-0.002282595140915231,0.004212314947416671,0.0034621569262746838,2.8515625
0.07040967820288375,-0.43479913998123826,-0.14112922266662112,1.1062333269896625,0.008529972148668616,0.08505441303984144,-0.023104041831299917,-0.1513557215533283,-0.5460223530235818,0.013920541065040187,0.07912211463274627,0.03554670816606203,-0.05565068660472837,-0.046448766173565074,2.859375
0.06304692433464563,-0.3895672421128096,-0.12643015233366894,0.9905085711622806,0.007682597356633156,0.07618534712121694,-0.02066903248533276,-0.1355878171051302,-0.4890449252339902,0.012465790845766395,0.07088352124282554,0.03184363323637896,-0.049809831969720796,-0.04158640199302368,2.8671875
0.030676380075127935,-0.1906477478580618,-0.06176773180029993,0.4838601768034145,0.003971640815012284,0.03713382531226613,-0.009999227433975463,-0.06649755957345549,-0.23914650350912933,0.006085825327771568,0.03471370556331749,0.01563715415763241,-0.024172944005299818,-0.020208908885068884,2.875
0.04038271850581662,-0.25048263022356865,-0.08116071060871957,0.6364504592929285,0.005090114093964773,0.04882693587677921,-0.01320945272440633,-0.08724798670671581,-0.31435147420785226,0.008004508553958043,0.04557524358008657,0.020517484469462662,-0.03187677128520583,-0.026612829518258795,2.8828125
0.024796997525532813,-0.15467717406495643,-0.05001270024448124,0.39317399224466976,0.003307567203328761,0.030028870695482567,-0.00807653211495923,-0.05404622261287403,-0.19423523026382591,0.004939475262391862,0.02817630010065791,0.012743515204158264,-0.019552078170083725,-0.016318649887587293,2.890625
-0.05704078404280716,0.3486413210644624,0.11350043543974205,-0.8876586669459153,-0.006076619359800358,-0.06866911448568683,0.018906845315728338,0.12055575122215047,0.4376563467580334,-0.011187661566366707,-0.06326149307308837,-0.028212314851741607,0.04525750537048518,0.037717455704089825,2.8984375
-0.10129359590175109,0.6208407014805483,0.20191121199934464,-1.580696799431648,-0.011154014784838228,-0.12204287113751641,0.0334994158252542,0.21500019336726345,0.7794807277609408,-0.019912981200998436,-0.11271338537561607,-0.050377962409873106,0.08031517412826036,0.06693356165252218,2.90625
-0.05715110486403615,0.3494355940377285,0.11370768779805066,-0.890142332599639,-0.006094623591476614,-0.06880521823326803,0.01894594759906743,0.12083661942729486,0.4387500967114932,-0.011217846750818791,-0.06339816153393973,-0.02830097072614167,0.045367958474361376,0.03778226266221868,2.9140625
-0.027461697582265573,0.16693082805549975,0.05438690795958235,-0.4254758054101812,-0.0026906140883493374,-0.03298888803680837,0.009158488322353624,0.05749133319792635,0.20955704337963968,-0.0053666777382049185,-0.03022498314280452,-0.01344207344818223,0.021860368856486245,0.018176472649907675,2.921875
-0.05757659674620573,0.3522037439320108,0.11456173202876928,-0.8967164945079165,-0.006143910568601358,-0.06929606497794076,0.019091169483114064,0.1217453615780666,0.44212343378127716,-0.011298185566995817,-0.06386824660787133,-0.02850554212685999,0.04571020205973055,0.03806212179937795,2.9296875
-0.05812645120649953,0.35560712415369744,0.11566446076709268,-0.9053569367257,-0.006207938162446496,-0.06995336371252535,0.019275801045623056,0.12293088945421017,0.4464039525385215,-0.011404941393499674,-0.06448350865355348,-0.028777634982708227,0.04614462381000391,0.03842594891630003,2.9375
0.0009434735394872471,-0.007698700303269435,-0.0023620036890519285,0.019054089027433805,0.0005649256180836412,0.00128324336460488,-0.00020146854669136056,-0.0030952725184715973,-0.009701947669713266,0.00023413471576680427,0.0015070490373495467,0.0007814979592832128,-0.0006386343081743031,-0.0005808249273892016,2.9453125
0.053796673509874174,-0.3328016995641638,-0.10796810238739366,0.8462718981151511,0.006626678964054636,0.06501110858446245,-0.01763517523927215,-0.11588864614753765,-0.41785376411433345,0.010647037708881818,0.06055108007461282,0.027232501688152246,-0.04250538896065166,-0.03548605985834063,2.953125
0.08623302775359616,-0.5323405145366669,-0.1727705543919214,1.3540423875851857,0.010347396087934212,0.10410900564344944,-0.028337522038743623,-0.18514013602743867,-0.6683669226179391,0.017037259606647145,0.09678597624571127,0.04347151946120921,-0.06820927790662851,-0.05690952899174683,2.9609375
0.11077684061701347,-0.683303216146067,-0.22180239159648527,1.738235318068555,0.013161034496293805,0.13370200069361782,-0.0364295442457837,-0.2375222758140716,-0.8578949177690298,0.021872894688555303,0.12420423359508291,0.05575550493777486,-0.0876537385425341,-0.07311766601637165,2.96875
0.087637554302359,-0.5409594567312158,-0.17557433495585575,1.3760059689644843,0.010505764293016794,0.10581528241120972,-0.028791422752681043,-0.18811127181006304,-0.6791564222474423,0.017312948397185234,0.09835507563533631,0.0441642109232098,-0.06931350592137966,-0.057834165127773146,2.9765625
0.031865195710702,-0.19790246777969167,-0.06414289756305756,0.502956169023022,0.004109461364697454,0.03857646011277959,-0.010393759157159503,-0.06905794822510414,-0.24836758459132427,0.006323568918168015,0.036057396086349475,0.016240634639793878,-0.02511966894504977,-0.020995602231626387,2.984375
0.028521759205400732,-0.17733785859513346,-0.057449212980504274,0.45053574292786075,0.0037263687146617207,0.034539924220353874,-0.009289616776481366,-0.06190940246420649,-0.22245801319600636,0.005666335409826978,0.03233440631849083,0.014568628801767023,-0.02246252788101084,-0.018774937249201002,2.9921875
0.04424797958921785,-0.27412877794288704,-0.08886037027062754,0.6967870458850014,0.005531011149315483,0.0534845238287627,-0.014478838068829155,-0.09549245579304458,-0.34400137364639255,0.00876686033024641,0.049901335594860714,0.022451256242775757,-0.03492798699153393,-0.029155986626869267,3.0
-0.03609148450570007,0.21988776571915314,0.0716490110692729,-0.56031924959919,-0.0036789899161817925,-0.04340847318040116,0.01200674530390082,0.07589058744553842,0.276087514031923,-0.007063158680284478,-0.03986814327423218,-0.01774503000817826,0.028685425426210363,0.023885071189854154,3.0078125
-0.15337585844063703,0.9412088707878391,0.30597511438650576,-2.3957930600039554,-0.017126153775622842,-0.18483695549228962,0.0506787613005805,0.32612477875905055,1.1815809141178286,-0.030174552758189116,-0.17090709551920355,-0.07644117137569079,0.12157244423853841,0.1013227112076921,3.015625
-0.14656065291910791,0.8993806943603427,0.2923605762509195,-2.2893116373512408,-0.016345689627973194,-0.1766081385365394,0.04843537328802829,0.3115948915556152,1.1290455619691615,-0.02883339293109075,-0.1632945461821196,-0.07303785042311266,0.11618569979989296,0.09682292304571406,3.0234375
-0.05312685379532481,0.3247955903960571,0.10566674382378466,-0.8272075738609892,-0.0056334066297909725,-0.06392996248589501,0.017626427929887348,0.11225851676757378,0.4076563414887631,-0.010423125698620844,-0.0589119756557478,-0.026281978967518892,0.042190292056360226,0.035125007435130064,3.03125
-0.02945422020406418,0.1791530922045263,0.058338614156852375,-0.45664118225520633,-0.0029179343392490556,-0.0353812651047372,0.00981162735235392,0.0617618342091021,0.22479708968028364,-0.005756384622178664,-0.03246078532311361,-0.014429101637280893,0.02342829620979985,0.019485741982466876,3.0390625
-0.05648502880991425,0.34534245784306894,0.11234378990809273,-0.879507215780073,-0.006015666776632529,-0.06798265484314164,0.01871754415782819,0.11942747920997156,0.43351077282235817,-0.011080584319196285,-0.06264592543117567,-0.027949126703610782,0.0448226041052576,0.037333704761617445,3.046875
-0.016613589489139616,0.1001659377985076,0.03272119717540615,-0.2555075212941715,-0.0014446595905145624,-0.019916007808174804,0.005574708605726643,0.034323873575959396,0.12578916594450504,-0.0032259590406632497,-0.018095681247655378,-0.007996153088450331,0.013247301135033173,0.011015073002302382,3.0546875
0.06674746874609232,-0.41244619734009996,-0.13379908038590135,1.0490414401180082,0.008111506577336768,0.08059761202663185,-0.021904132672965326,-0.14356899346859991,-0.5177703829628021,0.01319611480947873,0.07502667408826165,0.033715092910103196,-0.05276349021318665,-0.04402491586962178,3.0625
0.11059052016968342,-0.6820920926558871,-0.22140145264619573,1.7352932577910234,0.01313796589270405,0.1334762076027499,-0.03635826225531516,-0.23711186051545918,-0.8562994290267936,0.021835257408472666,0.12400762976053269,0.0556528519629959,-0.08748411318754913,-0.07297967786225672,3.0703125
0.12377461338229401,-0.7632334132184152,-0.2477605242875101,1.941753373030472,0.014650123447355284,0.14939571957444878,-0.040705723873294276,-0.26521358810895485,-0.9580817305232403,0.024436620029886124,0.13875075675437293,0.06225136420742293,-0.09792843425115345,-0.08168775801047583,3.078125
0.10615135116285182,-0.6548512200473373,-0.21255512208247182,1.665797793766135,0.012628935542811378,0.1281540055822209,-0.03489247032374684,-0.22759364287161604,-0.821993375892709,0.02096452445418197,0.11906096285571524,0.05343097881902534,-0.08397054439872986,-0.07005037327074405,3.0859375
0.013581935584364596,-0.08546696103997321,-0.02760956506913452,0.21680236278086376,0.002014257355008603,0.01652228069149112,-0.004368402828446181,-0.030086528558937238,-0.10734627981483388,0.002721240404867776,0.01561953134726113,0.00710405835987327,-0.010655101884716491,-0.008931369060008569,3.09375
-0.07709704426946183,0.4722671805077911,0.1535499993483569,-1.2023405446537407,-0.00838223485367939,-0.09282597930652747,0.025528445670284908,0.16339408669434793,0.5926897827116215,-0.01514663367882308,-0.08569551946178966,-0.038273935182667564,0.06116309944024395,0.050939593462161044,3.1015625
-0.029082336565330883,0.17691213929130767,0.057611235926811326,-0.45073939401493046,-0.0028763759893935315,-0.03492302200761172,0.009695400614769988,0.06097401115338491,0.22202187598027948,-0.00568243343427108,-0.03203666029449739,-0.014247453211967721,0.023142833722059115,0.01924336196322733,3.109375
0.08187538190560317,-0.5056107892332541,-0.16407002701603673,1.2857020354947317,0.00984441729879535,0.09886696046390167,-0.02688763909522231,-0.17574920546463307,-0.6345447143727257,0.016180939698898805,0.0919294517262942,0.041270054656127805,-0.06472622334113297,-0.054009076104333524,3.1171875
0.04292075276253303,-0.2660782201980974,-0.08622907330644454,0.675846245824129,0.005376637446183278,0.05187229423858901,-0.014041529768601688,-0.0926437520683692,-0.333749368351551,0.008501424377055767,0.048388186985209726,0.021769583470685763,-0.033875661019346644,-0.02828470924923051,3.125
