AF3,AF4,F3,F4,F7,F8,FC5,FC6,O1,O2,P7,P8,T7,T8,time
-0.033975433115572065,0.2069684507102471,0.06740852007670944,-0.5275654250968114,-0.003438646721726784,-0.04084881871249322,0.011308871320669352,0.07139293602902348,0.2599564943023363,-0.0066506553497952614,-0.037511699555005266,-0.01670857437627284,0.0270267015837111,0.022479124001652983,0.0
-0.03803806137426478,0.2319832316713112,0.07552549083826884,-0.5910122386948123,-0.0039044954559182407,-0.04574586641853431,0.012645957400052173,0.08005537421255415,0.2913308916277811,-0.007447469354988607,-0.04204106299530029,-0.01873137294800341,0.030234817999491327,0.02515926915827494,0.0078125
0.015560843490633611,-0.09766349665963533,-0.03158723509508546,0.24790005927446473,0.0022411700646999284,0.018921022803270897,-0.0050246328681780375,-0.03427631330849669,-0.12262488455196291,0.0031155790940789224,0.01784519709576034,0.008095109146448285,-0.012223202821678731,-0.010241861014731108,0.015625
0.013037429422184213,-0.08221006848635685,-0.02654633504512618,0.20850236723329452,0.001953260710888718,0.01588293691652643,-0.004189588447904426,-0.028898560369464366,-0.10325368467426004,0.0026168691848793405,0.015016018171492448,0.006832927915495427,-0.010225571524563623,-0.008574029957065205,0.0234375
-0.09330420226694731,0.5718089555251366,0.1859550474919693,-1.4557597055619862,-0.010238270619958365,-0.11239582001883625,0.030871889401264983,0.19793843303066125,0.7178290540783334,-0.018340658884717784,-0.10380617770516394,-0.04638131529901267,0.07399933982876551,0.061655449514975515,0.03125
-0.12470411210822394,0.7649597239671309,0.24871343317284095,-1.947278450957371,-0.013838043469951714,-0.15029416227651657,0.0412194229994505,0.2649069958018214,0.9603412928763378,-0.024529289700298006,-0.13888311353201488,-0.062090911220659524,0.09886701031949717,0.08239690322377712,0.0390625
-0.0037139522994752575,0.020804379462868075,0.006968531195255243,-0.0537433512325747,3.4683787484882844e-05,-0.0043827142550619475,0.0013228136630156842,0.006791848123173457,0.026179540402813402,-0.0006862298767545389,-0.003688464531853851,-0.0015396518624271169,0.003036602674762307,0.0025080443542318484,0.046875
0.08231739631855968,-0.5083280917796643,-0.16493241765826763,1.29273053929624,0.00989796339343861,0.0993864437606527,-0.027039767406800697,-0.17672981177020028,-0.6380803978496896,0.016267962047158344,0.09243703360186849,0.04151198177873638,-0.06510106581915676,-0.054299200014683184,0.0546875
0.043505448465872724,-0.26952376365443625,-0.08738880161958322,0.6851009562427677,0.00544490881742736,0.05259399735326256,-0.014234275286040814,-0.09390533377125514,-0.3383501038815244,0.00861798214256943,0.049061298915625814,0.022078360074241275,-0.03434945119086297,-0.028673355888297,0.0625
0.04081492208771419,-0.2529404315237355,-0.08201891639850681,0.6427173307449153,0.005134583259961295,0.04934949968965996,-0.013344472577890294,-0.08815743141563678,-0.31753490757175096,0.008084942919201607,0.046043714143849446,0.020721828394168466,-0.03220876152741242,-0.026900280387243753,0.0703125
0.1282484978100652,-0.7908442897737267,-0.256716466010977,2.0113110812330675,0.015161993922152483,0.1547793264738314,-0.04218103288102665,-0.27472038175729147,-0.992699987316947,0.025314983270320203,0.14373584284547078,0.06448240023922336,-0.10146925134002291,-0.08463692400887268,0.078125
0.1336568424973411,-0.824209808370053,-0.2675184468788724,2.096540572583336,0.0157858046255545,0.1612967542690652,-0.04397327592424196,-0.28629947767033265,-1.034569084968552,0.026384840760363303,0.14979418891271434,0.06720448136170339,-0.10577389461795109,-0.08821412863987253,0.0859375
0.012240300161956671,-0.0772941551911558,-0.02492747475491694,0.19651782700195475,0.0018645745558468557,0.014893902021994287,-0.0039385030807915404,-0.027259364366228448,-0.09708360938944811,0.0024622554994346234,0.014148401616672933,0.006448072053170726,-0.009609480647860689,-0.008048963636944738,0.09375
-0.0577547336792857,0.3533722779373475,0.11491212834131544,-0.8992746863473277,-0.006163411334314092,-0.06949152052073176,0.019148932853185797,0.12211702817090961,0.44347335648888614,-0.011330189039355863,-0.06406252716897798,-0.02858942032352116,0.045849525554905,0.038170516965911554,0.1015625
-0.01689361595594335,0.10198146916017523,0.03326608403534814,-0.26006005610315674,-0.0014796419603445878,-0.020217365996416378,0.005681274234933154,0.034965210653236135,0.12805447776007697,-0.00327918906473677,-0.018428591626054636,-0.008149297700998143,0.013498453450994173,0.011199329756786995,0.109375
-0.01758286644642076,0.10609520291690511,0.034649665654422374,-0.27075930309812174,-0.001558145907118899,-0.021066369780611344,0.005906858200279036,0.03641723669136927,0.133328122537228,-0.003415809418770162,-0.019209053839074307,-0.008492806301312316,0.014034942284962064,0.011656887286531218,0.1171875
-0.1079813334584408,0.6621650186596173,0.2152694101668757,-1.6853759683083183,-0.011922251149543492,-0.13008230607348228,0.035709636574203264,0.22925670373135765,0.8311824921231286,-0.021229655645783087,-0.12019901275307707,-0.05372633641168906,0.08562288819179056,0.07133747170347049,0.125
-0.1319482370316004,0.8096884118553961,0.26315425318073205,-2.0605118658007933,-0.01466974005742423,-0.15897843454893712,0.04361083661415557,0.28038439741920973,1.0161768718067496,-0.025953157253348232,-0.1469649299758412,-0.06571862417515792,0.10460945536333599,0.08715905644843795,0.1328125
-0.022124072609716987,0.1341409457841817,0.04373295729777793,-0.3419139752651954,-0.002077728034379163,-0.02655093638298027,0.007401066645121076,0.04608389449226677,0.1683150661788349,-0.004313721785102034,-0.024267811062449452,-0.010761832473736842,0.01763396066990379,0.01465596152856766,0.140625
0.06643786320894676,-0.4106775501431894,-0.13320587443269657,1.0439360722833084,0.008075440562274026,0.0802337148647951,-0.02179735965670219,-0.14283987585354674,-0.5153407492843379,0.013135894939183539,0.07467201732642,0.03355342291543249,-0.05250929535664653,-0.04380768134888581,0.1484375
0.009293760767673912,-0.059155227426258984,-0.019041339141627374,0.14958080012496516,0.0015226967446029791,0.011335085656688653,-0.0029561117324160644,-0.020895171452597297,-0.07416051267066245,0.0018756381389977601,0.010841190681137316,0.004956036868182691,-0.007255917086339801,-0.006082569162118521,0.15625
-0.0944565036476744,0.5790777457852114,0.18823805651247075,-1.4740282884359739,-0.010372357204189468,-0.11376071706264869,0.031249096842181294,0.20045520217289622,0.7267326823308929,-0.018567750513246408,-0.10505681716302218,-0.04696140974102034,0.07491063553155382,0.062404853276741355,0.1640625
-0.08566930723820369,0.5249938547221991,0.17068948851278715,-1.3364081286373308,-0.009364230260378715,-0.10317581570706788,0.02834972920640387,0.18167005924454968,0.6588328813767733,-0.01683750814548426,-0.0952481764056833,-0.04256400983662723,0.06794806610567808,0.05659697820656803,0.171875
0.026374771945448357,-0.16426982876996307,-0.05315320269347515,0.41710089010121676,0.003481692513350216,0.03191171755335279,-0.008591913313819378,-0.05740914856983476,-0.20614061803319322,0.00523885972806421,0.029909533197658624,0.013502720688346249,-0.020791780743857922,-0.017374574111487143,0.1796875
0.10444836697961743,-0.6445143888559698,-0.2091399757396446,1.63896730297325,0.012432693666251828,0.126055814830849,-0.03433281354480272,-0.22397692539590952,-0.8088499776884839,0.02062421755702752,0.11713123513078129,0.05257154633845623,-0.08262357253774007,-0.0689172205324131,0.1875
0.08414124046841469,-0.5195658774664886,-0.16858115722810782,1.3212338353231308,0.010104970252405775,0.10158551771390328,-0.027637872122951015,-0.18063246892571824,-0.6520857168377548,0.016625973779165255,0.09445437233006061,0.042412192716646674,-0.06653697610053225,-0.0555108993069715,0.1953125
0.03900509219477013,-0.24189797946794064,-0.07840854360412451,0.6149304516771962,0.0049307150989035525,0.04717187047339937,-0.012755618853473732,-0.08432450116300187,-0.3036287334506796,0.007734296513096029,0.044034400159799404,0.01982904287441706,-0.030786966518233424,-0.025711361044422627,0.203125
0.052478013787234976,-0.3247465152564298,-0.10532353435930289,0.8258555375837292,0.006475684209984722,0.06342311561758364,-0.017196342198896077,-0.11306585650860414,-0.4076320953181089,0.010390662456758648,0.05909185931299929,0.02657462818092278,-0.041455966811494764,-0.03460290334493432,0.2109375
0.09575753993057294,-0.5909668238756568,-0.19179575990176345,1.5032360944885366,0.011438027789324637,0.11561335576024803,-0.0314667008255168,-0.2053941769884378,-0.7417731226659743,0.01892058940689082,0.10745175458621552,0.04823389266267608,-0.07573231600391296,-0.06317384626253922,0.21875
0.0844667513797512,-0.5215725977018003,-0.16924698542534686,1.3264290104844598,0.010143722958814294,0.10199490258638584,-0.02774622746523979,-0.18129524097794067,-0.6546143329807165,0.01669512416377944,0.09483193008594852,0.04258034407676383,-0.06679017735554925,-0.055720050893523,0.2265625
0.015780319180813043,-0.09912096071973167,-0.032013677598799715,0.25125956398438026,0.0022685630210444617,0.019156479638334816,-0.005100210704075377,-0.03476128532779629,-0.12432479704773582,0.0031562167473718106,0.01807510437455055,0.008204491578809413,-0.012393436460158584,-0.010372780508102175,0.234375
-0.044938046251770856,0.2743889808946952,0.08931861258655942,-0.6989404389239672,-0.004692513764894123,-0.05407707590852065,0.014918790861353127,0.09474436614796498,0.344403934430509,-0.008810956456036781,-0.04976540728946639,-0.022173919315638217,0.03568673425448194,0.029716749938123684,0.2421875
-0.0885665750947099,0.5427867196312771,0.1765016496960828,-1.3813158041216524,-0.009693164518560678,-0.10668966994174005,0.02930115804149466,0.18779155381235635,0.6811496843369845,-0.017404125447173128,-0.09848887384059832,-0.04399087095271743,0.0702285363165568,0.058524025295425545,0.25
-0.1444498310417466,0.8865259816067728,0.28814075420066515,-2.255704150683044,-0.016099730253206792,-0.17405533963762937,0.047727340648541824,0.3070350703210184,1.112589143669579,-0.028410725701566584,-0.1609106090600235,-0.07194912686863165,0.11448698595917803,0.09541883697446854,0.2578125
-0.16402177823352715,1.0069552864472016,0.32721768473927015,-2.5625035477076294,-0.018346206442205613,-0.19762633217750078,0.05418878871236117,0.3488502279500397,1.2638167286921345,-0.032270042080843504,-0.1827947376275028,-0.08175954843470443,0.13000666658990223,0.10833453331288806,0.265625
-0.08770902425067528,0.5376572937686982,0.1747403874768211,-1.368878902412881,-0.00960105004119288,-0.10559906961851215,0.02903548937379024,0.1860693633542218,0.67477391788168,-0.017242123004596478,-0.09756307916289375,-0.0435995734345433,0.06958969444118346,0.05794135697264528,0.2734375
0.00812760812708949,-0.051816157404037326,-0.016722482218934447,0.13091723567896768,0.0013845861013354387,0.009940883613131142,-0.002564804205299949,-0.01841791679799911,-0.0650898621631428,0.001637408788023909,0.009505153790635532,0.004343206979191714,-0.006308632234120863,-0.005337049951612191,0.28125
0.02253624791692602,-0.14056998413561908,-0.04549557077342977,0.3569020197367499,0.0030377792959332835,0.02729309898840322,-0.0073220000341514616,-0.04918042048979649,-0.1763275623440517,0.004481403818051052,0.02562432860414006,0.011559594292413869,-0.01773090072206496,-0.014841854605105722,0.2890625
0.019669152064428836,-0.12304725829549108,-0.0397587725506974,0.31233786132439617,0.0027115224448777077,0.023835233549150785,-0.006378189070215679,-0.04305640791383102,-0.15419585268987043,0.003923103886546634,0.022441309949759715,0.010139133081373987,-0.015466893826963873,-0.012934016683486095,0.296875
0.09258092494047611,-0.5715226033512725,-0.18542462614449828,1.4533154418794803,0.011072535930759023,0.1117582985784159,-0.03041724477412675,-0.1986134095093238,-0.7171833864583737,0.018290733108162288,0.10390245809942249,0.04663512708147868,-0.07321680605421893,-0.06106672653083732,0.3046875
0.1491282090832991,-0.9193308364819203,-0.29840368610683504,2.3382186512158962,0.01755658195352256,0.1799394457790668,-0.049065028484814914,-0.3192803154594018,-1.153889183390529,0.02943104748305629,0.16706945166205492,0.07493923924300727,-0.11801518417822195,-0.09840835489337779,0.3125
0.07949070941787066,-0.4910345338440098,-0.15928861564280916,1.248562568093002,0.0095734163807974,0.09597155111473887,-0.02610835760225555,-0.17071772081974879,-0.6163283864186225,0.01571084561941359,0.0892633549589213,0.04009899912467123,-0.06287432919676235,-0.05243946284850515,0.3203125
-0.004948857233008252,0.028363227647381698,0.009400925418667421,-0.07279301635634458,-0.00010679107988869883,-0.005829344111302503,0.0017337213136440828,0.009447954092295072,0.03560823842573732,-0.0009242918340022562,-0.005071876139550057,-0.002152839521638247,0.004008550988369195,0.0033091247319409008,0.328125
0.030422735115666417,-0.1891093533712512,-0.06126834901807932,0.4807012211101229,0.0039492488850315045,0.03683064914083989,-0.009928414593128657,-0.06602200910409049,-0.23744829592993155,0.006045066485341875,0.03444889995827861,0.015543992759539793,-0.023991091059887146,-0.020045614247635027,0.3359375
0.07075844859460566,-0.4371817610735452,-0.14184983203719806,1.1119023676521502,0.008573927455989599,0.08545007913730922,-0.02323265219729158,-0.15210255105486836,-0.5488552476766201,0.013990251059051292,0.0795098988160544,0.035724914769286395,-0.0559363191964501,-0.04667931272274158,0.34375
-0.03764055998424312,0.22949602182306394,0.0747255515414927,-0.5844822420670237,-0.003854962608794588,-0.04528063893146999,0.012506244984483257,0.0791726332045465,0.28808951014998796,-0.007369265179733946,-0.04159946168695795,-0.018519759824716923,0.029909970201553397,0.02489615588095807,0.3515625
-0.1704851550375114,1.0466033195442452,0.3401448659206739,-2.663543981587812,-0.0190874978431162,-0.2054633950312877,0.05631503187842849,0.3626349295270811,1.3138159641406917,-0.03354391456788602,-0.19001415314207068,-0.08499882485395209,0.13513053733372235,0.11261891188492706,0.359375
-0.11462771322754893,0.7031775574079732,0.22855505901233417,-1.7896211714740995,-0.012685047233385184,-0.13808547774940375,0.037907137019159085,0.24347745689784842,0.8826063881917725,-0.022539088654477124,-0.12760616789278587,-0.057052161187034385,0.09090336812259689,0.07573995635534544,0.3671875
0.06121700709748534,-0.3782948596768948,-0.12277208660935984,0.9621542376665337,0.007475180992603892,0.07397036622796964,-0.020071259156587445,-0.13171375123389353,-0.4750827219482996,0.012105700683840774,0.06884588945540963,0.030939506706079603,-0.04837102388957322,-0.04037866892569218,0.375
0.1110431711085925,-0.6848442052181735,-0.2223329486806374,1.7420222421017433,0.013188364269412852,0.13404810508112225,-0.036504992057019375,-0.23804043677751008,-0.859869410248903,0.021921792726505993,0.12450272590696881,0.055873477150961824,-0.0878492689277648,-0.07328950597491621,0.3828125
-0.004365930941891755,0.024819947466633515,0.008245346929037872,-0.06392171621406867,-4.263570031831729e-05,-0.005135706924189594,0.0015447596497370716,0.008195025885727115,0.03113590382943844,-0.0008167744450927523,-0.004437988368446226,-0.0018798847538935883,0.003551511819584228,0.002917746063775732,0.390625
-0.09527545654983081,0.5838898618422674,0.1898851868365763,-1.4866514969943383,-0.010465608991562762,-0.11476970123313798,0.031520969648092916,0.2021756904995341,0.7330775981584849,-0.01872822342848982,-0.1060002927101639,-0.04737739561034455,0.0755621749781279,0.06295458846832992,0.3984375
-0.056234871268570116,0.3438262113619888,0.11188161699439729,-0.8758351204125997,-0.00599047031915404,-0.06768137990153433,0.018651126267054063,0.1188980118695069,0.4317123095211024,-0.011036271669143033,-0.062381303956827866,-0.027843891577332223,0.044646703431153095,0.03717559594609337,0.40625
0.01651085549135205,-0.10353687277090791,-0.03347312599109654,0.2626562431901777,0.0023499125859508287,0.020057182314898024,-0.00533481606727477,-0.03630922665547854,-0.1299615146518211,0.003298351360698666,0.01889374173415615,0.008565968156668012,-0.012976289327393396,-0.010865408554659199,0.4140625
0.016293988325331958,-0.10222940876864726,-0.03303890305619952,0.25954915847972543,0.002326769636738812,0.01979252340947714,-0.005267405553369864,-0.035865644838388513,-0.1283266996675369,0.003259644894645524,0.018662058423643157,0.00847025499701558,-0.012813080386217349,-0.010720400733831553,0.421875
-0.030150860150164722,0.18339702685416756,0.05977315228507137,-0.46716307518619343,-0.0029969692152114658,-0.03623459422942431,0.010042604371276222,0.0632105489137472,0.23032397850201267,-0.005888937197549368,-0.03321378657589564,-0.014766440673356604,0.02397566929636732,0.019957500310637564,0.4296875
-0.03659913687542984,0.22311528642026407,0.07266747459546828,-0.5682817983495614,-0.003737476853371368,-0.04402097875317633,0.01217019632590987,0.0769722370711961,0.2802266893672519,-0.0071612739771423975,-0.04041753138492631,-0.018000963361590697,0.029096581891869994,0.02422123140256663,0.4375
0.02362452167744621,-0.14721644117649424,-0.04766254109101801,0.3740143591178841,0.0031656481029966196,0.028609539040103354,-0.007682257045266937,-0.05150819381842322,-0.1847375382746966,0.0047022623969315905,0.026854168984156088,0.012127364332516103,-0.018591764722852535,-0.015546149727592454,0.4453125
0.09570767723526111,-0.5905862337444047,-0.1916909525773163,1.50218227870069,0.01143062905596491,0.11554249950657434,-0.03144824932688173,-0.20530394996300416,-0.7413860062324475,0.018905400837110748,0.1073794165994136,0.04819932715224353,-0.0756843368454873,-0.06314514365147739,0.453125
0.1022406398719375,-0.6308228991319274,-0.2047464979294816,1.6044968584784858,0.012180883938678572,0.12341960448789731,-0.033604744469615706,-0.21924801777606864,-0.7918998218998649,0.020192659182063255,0.11467841388531791,0.05147147183445884,-0.08086541262160761,-0.06746089632457232,0.4609375
0.03445680492473834,-0.21390060387394402,-0.06931824513003541,0.5435787712274542,0.004409172977387184,0.04167614199806224,-0.01125746024845463,-0.07462500080347984,-0.26854889057795667,0.006833826149111732,0.0389487282377622,0.017549938040471943,-0.027185975273955883,-0.022708741062577798,0.46875
-0.022727638634528546,0.13784124851995033,0.044930403233014726,-0.35133320735659707,-0.0021471434050765884,-0.027281033677398977,0.007595414943300198,0.04737959698131918,0.17293189756821517,-0.004435511870632851,-0.024939847001413596,-0.011065688701166428,0.018097441616355955,0.01504328635134194,0.4765625
-0.011203587179329939,0.06690705390486854,0.021904146565316095,-0.17072365428074673,-0.000824083995517417,-0.013381563272052798,0.003793474215499034,0.02277739490002087,0.08387429997050601,-0.002162750977182804,-0.012063344655006114,-0.0052925687285827845,0.008963320490097175,0.007432133294360839,0.484375
0.0016425993244347666,-0.012174117203200087,-0.0037566264027363004,0.030379039140023986,0.0006499611514403224,0.0021069425650456675,-0.0004417592353179388,-0.004643013298588253,-0.01531704079695839,0.00036984732779222855,0.0022859146397035536,0.0011387623450933738,-0.0012100472558617147,-0.0010457266975909922,0.4921875
-0.051257336761426485,0.3131940304473614,0.10194312588171266,-0.7978364776710721,-0.005416923176996721,-0.061691730868538436,0.017004925783905993,0.10823374435974645,0.3932175653052444,-0.010055729865120286,-0.056824598735810035,-0.025339830875941362,0.04069591114146448,0.03389126830438759,0.5
-0.09324359310427648,0.5714625738000209,0.18582884919937132,-1.4551974161783492,-0.010233443562077227,-0.11232202163489238,0.030853458571174726,0.19784942198753638,0.7174831880672519,-0.018329403983784076,-0.10373474452409964,-0.046357548653915094,0.0739564420524219,0.06162148188390969,0.5078125
-0.041501698267649406,0.25322053036645054,0.08244102438327736,-0.6453213607949492,-0.004301751357090695,-0.04991355394760684,0.013794865284353955,0.0874848224604132,0.3180006963856801,-0.00813013445544319,-0.04591666925892107,-0.020463202472070438,0.03297687134130851,0.027459570988627592,0.515625
0.021851925511162534,-0.13641789327991685,-0.04413912562257143,0.34641912964246563,0.0029627027922136183,0.026495010217402346,-0.007094668248767867,-0.047695044911323654,-0.1711819132352884,0.004356889576125848,0.024870317265999444,0.011248030207062637,-0.017203514717551785,-0.014376640249579001,0.5234375
0.002866919817177084,-0.01956909440868482,-0.006199410741434189,0.04938818398541666,0.000786223872491767,0.003601342735991783,-0.0008363082898907175,-0.007229558664518642,-0.024624713850721215,0.0006157941369064247,0.003655175836299374,0.001753464831073799,-0.00217234340152872,-0.0018520484790670384,0.53125
-0.021529201495214374,0.13056536529843618,0.0425424030297529,-0.3324710614839947,-0.002011284402856972,-0.025811329577630597,0.0072060732101170534,0.04481020616132476,0.16374764016941473,-0.004192613544598431,-0.023598776489317356,-0.010456415008014246,0.0171486530023652,0.014244912487735375,0.5390625
0.029665214142948964,-0.18427065970665288,-0.0597550011052036,0.46865428372638346,0.0038583495877121078,0.035937540293736275,-0.00967462527669551,-0.06438475823836677,-0.23148162575875356,0.005894156560219936,0.033612027212437126,0.0151535183861892,-0.023388535204408593,-0.019560568403237392,0.546875
0.06477095339978345,-0.40021454039632004,-0.12989217911738676,1.018065180298904,0.00788411025438425,0.07825895612460801,-0.02125048839679201,-0.1392772998513677,-0.5025166714599426,0.012809041902210851,0.07283863774111025,0.03271320005592706,-0.05118081970080955,-0.042729782666489226,0.5546875
0.002791403585950904,-0.019105597058033042,-0.006035179584261888,0.0482045836460136,0.0007789448496689609,0.003475808223310074,-0.0008168118014827537,-0.0070870332881582945,-0.02402741684986026,0.0005929012489427003,0.0035781276425199122,0.001698227925852185,-0.00209501602772246,-0.0017932526050525213,0.5625
-0.05922002374554592,0.36216685264005105,0.11786962601308779,-0.9221675584346446,-0.00633042690294193,-0.0713237534776812,0.019627135790042043,0.12518468310396566,0.45469555446541265,-0.01162662874439094,-0.0657180663820773,-0.029328238934079594,0.04700262557318429,0.03915014378500482,0.5703125
-0.02911555185231223,0.17695134398886025,0.05770055206087306,-0.451151626440891,-0.0028793956373198443,-0.03499849809292968,0.009701193760419138,0.06098330616604777,0.2222750540216382,-0.005692854898092835,-0.03208380820420827,-0.014263746481120488,0.023151622011948418,0.01926200293782959,0.578125
0.033973751904096884,-0.2110323549928649,-0.06836157744131127,0.5359205655399715,0.0043530436668080714,0.041096833383954055,-0.011098229874811027,-0.07358264951447255,-0.2647429628640308,0.006739003475158446,0.03840772829308881,0.017302496689115373,-0.026805916593685312,-0.022392835795207736,0.5859375
0.06671025999396234,-0.41232389922518276,-0.13375225410535926,1.0481210845855462,0.008106213429138243,0.08055987257212013,-0.02188996872252117,-0.14342308208169874,-0.5174357950677928,0.013188941849620828,0.07498334446374465,0.0336848601525751,-0.05272218527187023,-0.04399248554366555,0.59375
0.07696572909170131,-0.47541996155644284,-0.1542365025342177,1.208731301338612,0.009283109347626835,0.09292518613432296,-0.025270435738945052,-0.16530075356257196,-0.5966712819386883,0.015211234284368167,0.08644068900329938,0.03882473629540533,-0.0608477456974639,-0.05075719703771331,0.6015625
0.032130169046660606,-0.19970003558576924,-0.06467765471656048,0.5072366003703781,0.004144145621925887,0.03888312584654868,-0.010487388249687321,-0.06962452052436738,-0.25064493641083946,0.006379892678386331,0.03634848270745993,0.016397453199332748,-0.02534890699710888,-0.021161427643374205,0.609375
-0.08574881613984543,0.5253509372409768,0.17083154408566203,-1.337437078102618,-0.00937043631401833,-0.1032578369437482,0.028378770949924036,0.18186963836678083,0.6593911814248231,-0.0168455604834049,-0.09535102246865942,-0.04258567836223453,0.06800828605412282,0.05666713058209712,0.6171875
-0.13978430404231745,0.8578040292942929,0.2788139404137935,-2.1830765280470876,-0.015567258298755526,-0.16843542877516823,0.04619588331528758,0.2971265772854974,1.0766617398811118,-0.02749352695707799,-0.15571971830297,-0.06962793115596445,0.11081073148184109,0.09234988575747911,0.625
-0.021354202484367788,0.12945574345297114,0.042209031694420335,-0.3297911394692914,-0.0019915319199311035,-0.025624397529816358,0.007149884265841386,0.044440413532976,0.16243651611508078,-0.0041599251203493165,-0.023404871881134263,-0.010374264040981481,0.01701848195814366,0.014149734511305401,0.6328125
0.1095088671552219,-0.6754902925158665,-0.2192649592553379,1.7181166250609525,0.01301164520343792,0.13219394937567397,-0.03599833977909298,-0.23475887181884084,-0.8478980477760925,0.021623446413775473,0.12279241482310946,0.05510244909774741,-0.08662925400820233,-0.07226955202434923,0.640625
0.05477998567806469,-0.3389672598842882,-0.10993482904730868,0.8618258215490879,0.006739469250548345,0.06619426954532436,-0.017959856059781617,-0.11801252358843627,-0.4254839019642494,0.01083956355128717,0.06164490115376583,0.027719882848549354,-0.04329185853871008,-0.036141714982950233,0.6484375
-0.07302429831579793,0.44715933229467864,0.14541259621683486,-1.13803148235201,-0.007911300645861695,-0.0879247156478364,0.024173729834715635,0.1546519393872878,0.5611563383014412,-0.014340803168526981,-0.08112282636954016,-0.03622518493700374,0.057927710013058784,0.048243045123206714,0.65625
-0.04336242974096984,0.2648820332169067,0.08615204916290793,-0.6739923358192902,-0.0045124720767674665,-0.05213253389570211,0.014398256174676298,0.09140842374427162,0.33224987396856603,-0.008495164096541254,-0.0479622152793963,-0.021387077337434196,0.03444584981376023,0.028656578189771405,0.6640625
0.07874170223974546,-0.4860989943984551,-0.15780195998053315,1.2364585391079446,0.009482821152326895,0.09511976827754799,-0.025851209692315153,-0.16906221386954293,-0.6102718129719016,0.015561485457367175,0.08844487956207177,0.039697733479412106,-0.06224611533810361,-0.05196076612979547,0.671875
0.04886521702543155,-0.30248950232101324,-0.09809457593802581,0.7687308799840389,0.006056291755082724,0.059052302994080055,-0.015997749728031106,-0.10533966138449723,-0.3795430771165792,0.009670808905613977,0.055033388079734624,0.024741401154469166,-0.03858087320663351,-0.032218276497491816,0.6796875
-0.1134757308107677,0.6958850453814855,0.2262665984137359,-1.7716920339082003,-0.01255381123659609,-0.1367518391831921,0.037522152039632974,0.2409806475821144,0.8737114575756444,-0.022318089571227252,-0.1263489871744139,-0.05648366505862836,0.08998137245840422,0.07498232034366092,0.6875
-0.14338597481399917,0.8798626389987526,0.2860183610608124,-2.239691991385846,-0.01598069890538274,-0.17280937478883937,0.047379928714605835,0.30480609261197855,1.1045204062659413,-0.028210485900029367,-0.15974830377022886,-0.07144053882232483,0.11365990840655339,0.09472921153297732,0.6953125
0.022814725985668007,-0.14236633970999382,-0.046052810423577,0.36127604469525115,0.003075044364680963,0.027638103060674,-0.007415901892181812,-0.049757538304679765,-0.17865308621585557,0.004540014689531646,0.025947822659194115,0.011727639029812584,-0.0179676402986899,-0.015009276230858234,0.703125
0.14212299782692855,-0.8762400807466343,-0.2844232683989562,2.2285872091394214,0.016754502345307867,0.17151266655045905,-0.04675145491465745,-0.3043168130097236,-1.0997718331330517,0.02805167142841944,0.1592382192189014,0.07143102335911594,-0.11245275398062955,-0.09377970491918748,0.7109375
0.07002161205367789,-0.43275533326541815,-0.1403682249517475,1.100515371508938,0.008489056948220408,0.08456288565703347,-0.022981946288670504,-0.15051847180523192,-0.5431649004604261,0.013847023779307964,0.07868334348397318,0.035357182080626305,-0.05535172306157554,-0.04617743566217972,0.71875
-0.017215508411621908,0.10391259067693022,0.033918160696920135,-0.26462244095226234,-0.0015125151787632918,-0.020619578958758333,0.005778242576198205,0.035600885103833246,0.13029264208916538,-0.0033419683647345315,-0.018772329154140583,-0.008292397162594101,0.013730972426756449,0.011407996113631849,0.7265625
0.04660712551259531,-0.2886144596166518,-0.09360136558733242,0.7340873823086872,0.005804246230860905,0.05635478291547755,-0.01526429777549591,-0.10055270791707958,-0.3624479409352303,0.009233888296965352,0.05253476550196604,0.02364479252479015,-0.036820031265254016,-0.030737559838458182,0.734375
0.11979883053816276,-0.7388842978253639,-0.23983447799467267,1.8793583340996742,0.014194638002391308,0.14460194044805913,-0.03939607058288206,-0.25670416955201036,-0.9274630038010929,0.023655900659561857,0.13429681578105312,0.06026606533494782,-0.09478508407219313,-0.07905778599911838,0.7421875
0.01634885828136289,-0.10262582345779546,-0.0331506734745976,0.2601593804438593,0.0023317611177959387,0.01983484673099596,-0.005288537799029055,-0.03598593099358114,-0.12867703659797625,0.0032692606796536315,0.018708057584691677,0.00848760382866036,-0.012848207192781392,-0.010753511355213153,0.75
-0.1457978681087005,0.8947955562837207,0.29081115449184375,-2.277557947332349,-0.01626062516627004,-0.17569751339139014,0.04817340421407186,0.30996305055068146,1.1232667005817574,-0.02868461005320118,-0.16244704006700703,-0.07266313658757859,0.11557671307650176,0.09629896343465046,0.7578125
-0.14835455231114056,0.9106032395719451,0.2959361489512738,-2.317442612818823,-0.016553006934604715,-0.17877591023253173,0.049018281274058426,0.3154063559163607,1.1430089263100918,-0.029188517073990478,-0.1652922112252742,-0.07393933746333592,0.11760410412417563,0.09798947095871932,0.765625
-0.048927123966657875,0.2990026279133628,0.09730138794868395,-0.7612596299071904,-0.005150992189335926,-0.05887860460193423,0.016237869692083302,0.1032681918864579,0.37530880359790725,-0.009594121239164578,-0.05420034387680553,-0.024172146628095612,0.03885642282015305,0.032355767395306455,0.7734375
-0.03336088363376118,0.20319383049479275,0.06619890838216017,-0.5177962880507814,-0.0033660184664578586,-0.04010623650321894,0.011108979903726524,0.0700798856754612,0.25508761490132315,-0.006527037672009985,-0.036812893887134525,-0.016380069499816477,0.02652781347746031,0.022087655755698262,0.78125
-0.052264784414717776,0.31951398273112985,0.10395822579019717,-0.8137928281349658,-0.0055353622990576105,-0.06288889251778265,0.017346282979846552,0.11042919128919022,0.4010349517829403,-0.010254473893075232,-0.057939398632063474,-0.025847780551721048,0.04150254309285491,0.03456166964033533,0.7890625
0.048684337791100596,-0.3013152726682193,-0.09774074454150052,0.7662813917560435,0.0060383294779234814,0.058862378292422385,-0.015938328862222313,-0.10497257774784524,-0.37838515162584346,0.009637511747671728,0.0548457643020491,0.02466633794610315,-0.038449360038235944,-0.03210990486313664,0.796875
0.17504070838389413,-1.0785280144255,-0.350207740515173,2.7439842540964228,0.02052730487720266,0.21123759749779772,-0.05760638440494122,-0.3745797362945483,-1.353984645236768,0.034537611315330424,0.19601693529628803,0.08790077173060636,-0.1385277372409594,-0.11554939506300707,0.8046875
0.11734125077261924,-0.7237496675763289,-0.23493906648928015,1.8407851645100346,0.013912909123488608,0.14163979965511936,-0.038587405617968175,-0.2514538130694163,-0.9084944822860452,0.023167132621107853,0.13154576683461902,0.05902526482499993,-0.09283041276106577,-0.07744342327845456,0.8125
-0.06110902807512798,0.3737917441359571,0.12160611819162143,-0.9521805547717607,-0.006547622629680792,-0.07357469872677866,0.02025108330526765,0.12929366298608666,0.4693169612037176,-0.011998149467285764,-0.06783131743843486,-0.03027806414182572,0.04850422770194157,0.04039798509909375,0.8203125
-0.10472319950822613,0.6420959941659021,0.20876699601156387,-1.6344917257645866,-0.011548368808663893,-0.1261713064522068,0.03463337572522463,0.2223119570868867,0.806061999761319,-0.020591039086507112,-0.11655384726072086,-0.052099002808463066,0.08304268148283782,0.06919545284487184,0.828125
0.024144342965493795,-0.15047501781306016,-0.04870406010935148,0.3826006997428529,0.0032272300527618,0.02924578296842879,-0.007857283204179,-0.052662564195781775,-0.18890588626318228,0.004805312666386364,0.027428737216631503,0.01239579973138919,-0.019026822348390662,-0.015905665838817053,0.8359375
0.10394926207327,-0.6413297573454098,-0.20816683201797806,1.6314090620237012,0.01237696800073984,0.1254920585286761,-0.03417092132743787,-0.22289805465887527,-0.8050415346177611,0.02053273634535876,0.11659263592083488,0.05233265507808821,-0.08222937662230599,-0.06859898433956453,0.84375
0.009205081298643007,-0.05860734525742454,-0.018867225882717886,0.14837913144235798,0.00151369504798153,0.011228356568735016,-0.0029304073091981015,-0.02071529948908518,-0.07350781576112915,0.0018641731423865424,0.010747080501821651,0.004920291941232475,-0.007183523029861763,-0.006022370294962002,0.8515625
-0.11353936885296417,0.6963357865370658,0.22639647403532967,-1.7725527388492424,-0.012558985652503452,-0.13680945612302642,0.03754074881595392,0.24114949825452023,0.8741702644374172,-0.022322934275154954,-0.12637990697833437,-0.056500538303688695,0.09002946698845515,0.07503552378594044,0.859375
-0.07250836053130559,0.4439134763268703,0.14442248936087593,-1.1303146185994388,-0.007853876140114374,-0.08733638084298712,0.024009781370777587,0.15357289049394454,0.557334822088823,-0.01423979483273718,-0.08054386746684164,-0.03596684483932636,0.05752368307083608,0.04793520531854755,0.8671875
0.08536457306970276,-0.5271830431481743,-0.17102783949756115,1.3402986351309334,0.010246714111768323,0.10305641863479166,-0.02804356016501943,-0.1832443826752271,-0.661615107877677,0.016867381414059447,0.09582107450234757,0.043032829460025825,-0.06751644668867741,-0.056316953221869,0.875
0.12160725158839493,-0.750089027126168,-0.24345622919724796,1.907437241961846,0.014401587166168999,0.14677903103792597,-0.0399899328196132,-0.26054277352142124,-0.9414675948345294,0.02400939265904035,0.13630437226069794,0.061167951892258376,-0.09621775996183632,-0.08024976268131404,0.8828125
-0.05156361108238669,0.3151542881073668,0.10254629470261671,-0.8025200045586679,-0.005453022956245294,-0.06204349822802718,0.017109080677284918,0.10890583639345015,0.3955505745824788,-0.010113860229056,-0.057163272218579676,-0.025490272387082763,0.04093876587897303,0.034089320972727925,0.890625
-0.20234694098919917,1.2427086149557856,0.4038182883258371,-3.1621806326804274,-0.022741007471165947,-0.24387425400081297,0.06682403722694216,0.43057850960018956,1.5597672399336218,-0.0398275013200213,-0.22561721292746925,-0.10095076130946505,0.1603677995903061,0.1336419237907318,0.8984375
-0.09406869799109548,0.5767753283765122,0.1874661854205896,-1.4677861442422744,-0.010327801366613156,-0.11328680855017283,0.031124491148697923,0.19958959091966813,0.7238475865107398,-0.01849204895569129,-0.10464109153142169,-0.04677638073718109,0.07462396972549043,0.062144518125247114,0.90625
0.13758873231959112,-0.8480865359380507,-0.27539725040379853,2.157520984888525,0.016231147970616755,0.16608945608488784,-0.04525402246476177,-0.29461312499606684,-1.064690309538084,0.027157232721836393,0.154178975752119,0.06914407675922234,-0.10884480831635117,-0.09081445757986183,0.9140625
0.16536341324797463,-1.0189666378163675,-0.3308785465003533,2.5923117994513283,0.019415881962577906,0.19956989803888409,-0.05441483205370773,-0.3538912325280478,-1.279160642546804,0.0326300649162247,0.18520877241589742,0.08304781340211966,-0.13085664601734695,-0.1091549047169865,0.921875
-0.030892245075571482,0.18803987328718133,0.061264380979294326,-0.4789541141565823,-0.0030840728738714706,-0.03714198363839763,0.010286956002711354,0.06476162850191654,0.23602238642000678,-0.00604382241817641,-0.034065315482170684,-0.015152335192210781,0.02455933135139674,0.020432599931914014,0.9296875
-0.1445041702702492,0.8867366728996079,0.28826514483631077,-2.2570772753847614,-0.01610978012655609,-0.17416895293444387,0.04774639945159123,0.30714855830104343,1.1131702688885916,-0.028430255122590682,-0.1610041910179566,-0.07200070433634397,0.11453868620395201,0.09545942954229865,0.9375
-0.023276065585738047,0.14111953769217403,0.046032636993622006,-0.36004549828724386,-0.002211711919659289,-0.027946430538206855,0.007782759586223632,0.04856513055096621,0.17723402793592635,-0.004539068128738321,-0.025558914082017603,-0.011338759329975976,0.018539205629431697,0.015418989716661466,0.9453125
0.13178132852496027,-0.812512007572775,-0.2637858085553899,2.066588989460797,0.015566054277843107,0.15907310279705955,-0.04333903929783906,-0.28222010240448325,-1.0199068837694674,0.02601581749017855,0.14768427789022506,0.06625223853474307,-0.10426100802423881,-0.0869695528149149,0.953125
0.11310671656615053,-0.6976853617731611,-0.2264673359629038,1.7744895774279685,0.0134269124584305,0.1365367986823656,-0.03718728799023671,-0.24240655831355545,-0.8757817230434696,0.022334039021263075,0.12682003286057322,0.056912762543978944,-0.08948145001277873,-0.07463921113203524,0.9609375
-0.016417010828087105,0.09884801117617888,0.03233283083531114,-0.25241281989622555,-0.001421725698252652,-0.019692938467887233,0.005513649254489111,0.03390719442643876,0.12418110179222368,-0.0031886152084205153,-0.01788850921769602,-0.007894502890478503,0.013090702137103947,0.010896050831734994,0.96875
-0.09475970616027209,0.5807021881282091,0.18886301599102825,-1.4784266617337078,-0.010403866715387603,-0.11416547012323859,0.03134571468002646,0.20106168025672957,0.7290687829048401,-0.01862297722901869,-0.10540659154121278,-0.04709549747422827,0.07514138898508699,0.06263155115170856,0.9765625
-0.09116299914371374,0.5587168846653808,0.1816742260202544,-1.422146693456839,-0.009991152088658434,-0.10980225813529497,0.030161490009838532,0.19339223232527583,0.7013346443902201,-0.01791251533876144,-0.10138056554017824,-0.045296860010385256,0.07230303346341788,0.06024945166054757,0.984375
-0.052359464814867404,0.32011216897767836,0.1041472774333733,-0.8149345700032852,-0.005541414822558219,-0.06300820806940428,0.017365324623944633,0.11058338903011487,0.4017162206242168,-0.01026870649240531,-0.05803623849148014,-0.02588166044454466,0.04157436236227468,0.034620785247606076,0.9921875
0.014062431718730587,-0.08849773148174798,-0.028561361866215038,0.22445213692047294,0.0020722899997496036,0.017071409030070386,-0.004535310804665442,-0.03113796470491967,-0.1111029178440736,0.0028155441683057098,0.016155507726392418,0.007347790222648918,-0.011034886056529416,-0.009239750280889015,1.0
0.08867307577054992,-0.5474026263415488,-0.177638114895043,1.3920500874217165,0.010622420899216351,0.10705179424346967,-0.029130878599853773,-0.19030151199635534,-0.6870414600835267,0.017515868904341817,0.09950983210558265,0.04467072266453034,-0.07012701393391428,-0.058514097415504944,1.0078125
0.09640279847269961,-0.5948100154566831,-0.19308967332824853,1.5131182157578427,0.01150718579796767,0.11640605369771131,-0.031675778855624066,-0.20677323685384047,-0.7466483274189706,0.01904154858651477,0.10816348377469177,0.04853575857187749,-0.07624318734489621,-0.06362893298303353,1.015625
0.017908769418641484,-0.11197552906236515,-0.036262244975066145,0.2848206472062405,0.0025105814272385197,0.021761557811729906,-0.005796813250890358,-0.03930109666050376,-0.14068774652703359,0.0035782377032432975,0.020483939447647617,0.009265396818032283,-0.014069247697077264,-0.011794349684688083,1.0234375
-0.04855872051540556,0.2966943364865579,0.09654178541433911,-0.7554530381786836,-0.005108210777313001,-0.058417657869432836,0.0161165280126607,0.10250794003548427,0.37242635413375497,-0.009519190870534835,-0.05378505207982762,-0.02399347462314173,0.038575668485558406,0.032109859326468995,1.03125
-0.02740883133629667,0.16649126630242664,0.054290604846059846,-0.42467260182761607,-0.0026856774042553315,-0.03293933949240953,0.009145736470866247,0.057383106750739175,0.20919067702841182,-0.0053563078443096,-0.0301812384093886,-0.0134199918739601,0.02182336458168897,0.01814969728067793,1.0390625
0.012019381129425483,-0.07595499805703157,-0.02448033418256436,0.19232456821643476,0.0018333633330074616,0.014609091403271785,-0.0038515932190015135,-0.026746499343324032,-0.09521701087799612,0.0024102601043287865,0.013861412866113875,0.006310151688660683,-0.00941027139498517,-0.007889232309242196,1.046875
-0.02816752986138579,0.17129305033238637,0.055813930618481195,-0.43639253499304204,-0.0027708034477244613,-0.03383966045422791,0.009395742179755914,0.05898074288796416,0.2148895326794889,-0.005504951494190062,-0.031021592852454028,-0.01377892030156266,0.022406080733929808,0.018648389531724083,1.0546875
-0.09562192001552006,0.5861383230501689,0.19058034404502033,-1.4919553204652236,-0.010501291245284807,-0.1151815334982287,0.03163162884699549,0.20289021844691857,0.7355602515562923,-0.0187929044019537,-0.10637891427182458,-0.04751753638814455,0.0758207275117227,0.06319176622786139,1.0625
-0.055574594262724354,0.33982046993272536,0.1105533190771658,-0.8654913225935983,-0.005911780640004052,-0.06688692177039404,0.018426854258373503,0.11745116250412103,0.4264699669842616,-0.010904517263408665,-0.06165443965454106,-0.027488359746937592,0.04410613930026617,0.03673561699314628,1.0703125
0.07265798624787335,-0.44876636034947676,-0.14566633091041,1.1410770521285374,0.00878674263822811,0.08776217101528586,-0.023852231732692186,-0.15612804904434666,-0.5634199985511816,0.014358409858690795,0.08160453980607994,0.036660800055868616,-0.05744351334811635,-0.04795466863257202,1.078125
0.10441902596184978,-0.6440682994562307,-0.2091248218186105,1.6383289628652193,0.012428656848840923,0.12606658440182197,-0.03432638870059396,-0.22388292792617978,-0.8086421494738467,0.02061823796499604,0.11711234816404906,0.05255322776430071,-0.08259369016795357,-0.0689226264761267,1.0859375
-0.023669375158524682,0.14360269817266078,0.04681267958487741,-0.3658560891699083,-0.0022545646554991135,-0.02841742908189503,0.007905007678946275,0.0494010148838356,0.18024043167991144,-0.004615401649560577,-0.02597093078306693,-0.011533487615953327,0.018849724274323534,0.015678542485858437,1.09375
-0.1208385743410539,0.7410842455357676,0.24098012894539766,-1.8864573896680952,-0.013395423820106011,-0.145614853756518,0.039947235031110945,0.2567141946165462,0.9305282953949578,-0.023759974347108154,-0.13453598680421222,-0.060158019573932325,0.09580679756447295,0.07985469027051684,1.1015625
-0.030565995713337107,0.1858408125395692,0.06062591966469954,-0.4737731896894473,-0.0030464336585859686,-0.03674611484215905,0.010186159144884698,0.06411176894618974,0.23364251698627456,-0.0059732956947831425,-0.03368447481446786,-0.014989445295042722,0.02431036906399095,0.020241442991164336,1.109375
0.11088932070218235,-0.6841135658339488,-0.22200949528749514,1.7401004677712815,0.013173221652587658,0.13385825082254904,-0.03645716540838494,-0.23769269664498224,-0.8585509540049584,0.021900033628135897,0.1243695002358401,0.05580172293285193,-0.08772736321031441,-0.07317301975202387,1.1171875
0.09928315108347807,-0.612654145729596,-0.19883383284049774,1.5585122440635795,0.011843698020453028,0.11987133294439094,-0.03263260541164328,-0.21293058205619586,-0.769036705650216,0.01961320219902585,0.11140696451302405,0.04999994573500114,-0.078536105638386,-0.06551321637210454,1.125
-0.007496431390167236,0.044158329446490285,0.014502905645971575,-0.11290679843831443,-0.0004008694214531223,-0.00889936947130994,0.0025795008594322348,0.014891713086675938,0.05537027206609781,-0.0014305037704626525,-0.00792006774998798,-0.0034402629327065243,0.006042990281628355,0.0049926493722864925,1.1328125
-0.019724261218955857,0.11937426484919583,0.03893124408470181,-0.3045828514256144,-0.0018044387893552997,-0.023653553999909645,0.006614603529767442,0.04097157334733543,0.1497632352033856,-0.003843249711195494,-0.02161149607486424,-0.009565143625174754,0.015733018896207478,0.013065473343031427,1.140625
0.05681146700634847,-0.35140778868462785,-0.11398499021406809,0.8933134000655792,0.00697225056536131,0.0686283968939788,-0.018626134133101595,-0.12234186834737383,-0.4412250729859843,0.011238413771062165,0.06390007365242054,0.02874114801264181,-0.04488980053045213,-0.03746806803924626,1.1484375
0.07247436042739061,-0.4477429734905149,-0.1452768210009018,1.1386360095012271,0.008769000564303141,0.08750557585732549,-0.023795460062680684,-0.1557612142772501,-0.5621484958053193,0.014326180794054857,0.08141679421244247,0.036581625923966354,-0.05729496290522667,-0.047804988000220365,1.15625
-0.0015513055052916,0.007632251560894379,0.0026231976914407955,-0.019956547223087397,0.00027929619208350606,-0.00175746699307738,0.0006159537094185836,0.002200779548913565,0.0095168017913744,-0.00026129789229037024,-0.001286708670880364,-0.00047506440991418206,0.0013474492179168672,0.00107232659576755,1.1640625
-0.08482341491896427,0.5198532126626455,0.16899575890366497,-1.3232435206314288,-0.009269478258912988,-0.10215803709767289,0.028076816115520976,0.17987763407321936,0.6525101480660574,-0.016670009011485853,-0.09432698732181666,-0.04215181006589848,0.06730298128454486,0.056048471660629755,1.171875
-0.14673318630959792,0.9006250565494748,0.29269378793401574,-2.291949688098266,-0.01636514164936648,-0.17679990290322709,0.048487705056444494,0.3119519762291696,1.130425575379314,-0.02886612620319801,-0.16348225287843893,-0.07311698304026486,0.11631845812410403,0.0969236237921974,1.1796875
-0.1733009507105907,1.0640048775201971,0.3457800354368037,-2.7076465748135856,-0.019409465572401585,-0.2088326696317113,0.05724556442003529,0.3686390375029034,1.3354871195480225,-0.03409904329784108,-0.19314772577919276,-0.08640078080354327,0.1373474854318753,0.11446993526910795,1.1875
-0.1077091047016386,0.6604713367467373,0.21472096353884731,-1.6813207419332505,-0.01189120219993988,-0.12974316539028374,0.03562059806376132,0.22872359058212607,0.8291007258163714,-0.021176146707338864,-0.11987554230342493,-0.053590346381823216,0.0854032492127663,0.07116196220996301,1.1953125
0.037665423371460234,-0.233856935644129,-0.07574416542501011,0.5937055866294983,0.0047745248726902565,0.04554552636633553,-0.01231222320207844,-0.08143645864266551,-0.2932813933511551,0.007467000361962083,0.04251660804542324,0.019144287866975935,-0.029733864911205814,-0.024831076558275742,1.203125
0.147026462066766,-0.9065285281651505,-0.2942353427373849,2.305383482478214,0.017314388699560212,0.17741459480221192,-0.04837404586142008,-0.3147940114883701,-1.137656629478386,0.029016428554728413,0.16469920078908049,0.0738793918715315,-0.11636038265497535,-0.09704165791351985,1.2109375
0.16200927084878322,-0.9984500909677219,-0.32415007835416976,2.5399864106882704,0.01903422530971538,0.1954965019121803,-0.053315060150804866,-0.34677634732249657,-1.253323890850742,0.03197016883903948,0.1814712723929065,0.08139124105504095,-0.12822649184599638,-0.10692878553286915,1.21875
0.1324205194420858,-0.8162759636081827,-0.265029836835349,2.0768668209020866,0.01564236172366141,0.15983138380620932,-0.043557499575429266,-0.2836364670307704,-1.0248507552759203,0.026140473677077496,0.14843422904949577,0.0665830679435506,-0.1047733972229319,-0.08738737046143691,1.2265625
0.0840446533897647,-0.5188506613258155,-0.16838972600728921,1.3197599876709947,0.010095896546611619,0.10148666958068295,-0.0276070187766615,-0.18042421583006799,-0.6513821452747333,0.01660810102879336,0.09436818279645916,0.04236696473909482,-0.06644937107498401,-0.05544713391317332,1.234375
-0.0009913860350002422,0.004006488712917302,0.0015070667319104605,-0.011018328312938896,0.0003457109686145882,-0.0010756594132854743,0.0004315421901089029,0.000991074860804739,0.005144432967368765,-0.0001486939970794793,-0.0006641986892983785,-0.00018782960954506463,0.0008918841840748884,0.0006994029967080108,1.2421875
-0.08319993099948172,0.5097048318261661,0.16576607359465062,-1.297634848045488,-0.009081339525626553,-0.10021054853399068,0.027540385867262242,0.17639362453499377,0.6399211521876897,-0.01634856373235489,-0.09251021490292384,-0.04132647115451713,0.0659976990389925,0.05498307447926331,1.25
-0.10335150354519985,0.6337741222550013,0.2060259645551687,-1.6131265979563967,-0.011392888069749542,-0.1245017677056721,0.03418608185574837,0.21940933243670324,0.7955493869629162,-0.020319016179127226,-0.1150120234979945,-0.05141415914386275,0.08196692045520969,0.06829093957695266,1.2578125
-0.08647152669000228,0.5299071226823137,0.17228978508617718,-1.34900942479094,-0.009456895716451343,-0.1041478733640755,0.028618855461733605,0.18339643736959305,0.6651657613916218,-0.016991517414933342,-0.09615930990855924,-0.042966903056182844,0.06860337785408142,0.05714439262797387,1.265625
-0.07705476012422216,0.47190812213889494,0.1534792615712039,-1.2015594250366632,-0.008375988631294753,-0.09279861630853005,0.025513731138817886,0.1632858061354604,0.5923947939729273,-0.015135868107822767,-0.08565131923149295,-0.03824851371413234,0.061138568584381485,0.05092646621516221,1.2734375
-0.040902684960137915,0.24959385990861407,0.08126037059430546,-0.6355857245156886,-0.004230143079530266,-0.049200434676277535,0.013593371443121506,0.08614100638413832,0.31326274956231864,-0.008013030253612049,-0.04525193161586726,-0.020152374513512275,0.032497144579992907,0.02705723135431812,1.28125
0.047447164328227556,-0.29376338104204175,-0.09526503393637013,0.7471970332413282,0.005900100087467576,0.057346359366212886,-0.01554130129139123,-0.10235191221995348,-0.36887470051180543,0.009396544490415656,0.05347483958144023,0.024059910059202914,-0.03747878456067494,-0.03127997905184469,1.2890625
0.1099709624747197,-0.6783661806691837,-0.2202010223779415,1.725473141799617,0.013068097108468386,0.1327451478124818,-0.03615864876305795,-0.23573527907220268,-0.8516173541545228,0.021717092460488148,0.12332584641425905,0.05534464543085422,-0.08699603517019205,-0.07256818232254597,1.296875
0.07185865136763105,-0.4439875342920755,-0.14405441789858292,1.128689786865218,0.008696450993906707,0.08678584804471266,-0.02358798293387477,-0.15441311357837922,-0.5573258880776069,0.014204729435676616,0.08072554275402258,0.03626677011399227,-0.05681131337415019,-0.04740873446239599,1.3046875
-0.019831418710519442,0.11997336681024282,0.03914682952899558,-0.3061697198479386,-0.0018167004382500403,-0.023782665019873573,0.006645474588628157,0.04120603595771443,0.15062254871350864,-0.003864789464063225,-0.02171754321955072,-0.009619468633811041,0.015801254814825832,0.013127851486967615,1.3125
-0.07365168628108854,0.45098815907209083,0.14667191806313817,-1.1480455485007828,-0.007985546669934247,-0.08868515271948141,0.024384610892250528,0.15602851941262808,0.5661354354448672,-0.014467058537760575,-0.08182856054178127,-0.03654794439210116,0.058422278325750567,0.048663244919704314,1.3203125
-0.07017161518035604,0.429586512680286,0.13971115811746868,-1.0935225859103503,-0.00758597439101231,-0.08448520043398788,0.02323544613795457,0.14861857698699502,0.539287161501014,-0.01377677437479606,-0.07792597952832274,-0.034803456492634346,0.05567482486178118,0.04637201951115661,1.328125
-0.029469309371166177,0.17932650001262976,0.05840072774087095,-0.45694191198952666,-0.0029220682295809323,-0.03539522028280853,0.009825175293791467,0.06180020419422148,0.2251333189885993,-0.005758272571935791,-0.032459584359487516,-0.014443199282713814,0.023454717602429846,0.01950522505815148,1.3359375
0.04711418043321311,-0.29165478770606473,-0.09459700159870121,0.7413332665223951,0.005856201251569723,0.056955848263903264,-0.015418629732888019,-0.10160029602731012,-0.366117230530239,0.00932530651665739,0.0530833174117915,0.02386936795343896,-0.037197080479481594,-0.031064675467073328,1.34375
0.1251771246493257,-0.7718662353991077,-0.25056973835714913,1.9632172373925205,0.014807887790792777,0.1510815050751485,-0.04116351099880785,-0.26818276667515295,-0.9689128334162643,0.024705013577375926,0.14028932143074566,0.06293491241217924,-0.0990360168355029,-0.08261848992245663,1.3515625
0.11602338939659086,-0.7156503656899885,-0.2322839042335241,1.8202559711071773,0.013761424761833533,0.14003658810196817,-0.03815252613175243,-0.24867197621019382,-0.8982922915442363,0.022907149485170763,0.13007390478474648,0.058368983407094885,-0.09179357751414736,-0.07657042341660673,1.359375
-0.0046189342930855045,0.026391122597531652,0.008776355069911264,-0.06767566099335257,-6.932766265659746e-05,-0.00544673630875726,0.0016280091792748603,0.008729065857399076,0.033209920215804156,-0.000858516248137338,-0.004692345317799651,-0.0019887168081469913,0.0037599340026817202,0.0031085783804721836,1.3671875
-0.12521560909083554,0.768148817227083,0.24973908777024106,-1.9549950246785355,-0.013896340818457817,-0.15087979159587597,0.041394641080823205,0.26603424162628764,0.964319134240685,-0.024621302562480896,-0.13942452600122787,-0.06233461264859522,0.09927416008639749,0.08274858163659077,1.375
-0.1294928300648032,0.7943887377161053,0.25826142451575623,-2.0220042886925733,-0.014386961909286016,-0.15604115645609132,0.042802033819418744,0.275160217060979,0.9972546190034698,-0.02546742599967904,-0.1442237346818455,-0.06448117597074798,0.10265728662516928,0.08556093044368614,1.3828125
-0.04101248809304349,0.2501509164326799,0.08144771149194255,-0.6374436752578074,-0.004242500867382429,-0.049329254483484186,0.013626019229029585,0.0863902947318126,0.31406046336640037,-0.008034382832738104,-0.045387021876374396,-0.020211221982371567,0.03258309839499371,0.027121641353579178,1.390625
0.03913694608233161,-0.24274018698643704,-0.07868860470222752,0.6168736276982686,0.004946824703076172,0.047339782165345096,-0.012798563260531238,-0.08460338106744297,-0.3047345629998819,0.007758997574321153,0.04416878138345069,0.019894573167106633,-0.030888513431554736,-0.025802839988490537,1.3984375
0.06948338017982421,-0.4293222225690915,-0.13930152125222797,1.0919862166387082,0.008426278597788295,0.08393070630818412,-0.022805229632904347,-0.14935621373297012,-0.5390255474428711,0.013738438226949423,0.07809249544650088,0.03508227808670152,-0.05492622733719354,-0.04583790935751628,1.40625
0.06067860910660762,-0.3751639496847286,-0.12171001242542018,0.9542777754067788,0.007416602215142071,0.07330084665923212,-0.01990765825961649,-0.13058421361346562,-0.47106281064832367,0.012003046016287626,0.06825830015718796,0.030677538524003976,-0.0479621715894552,-0.04003046472274338,1.4140625
0.009488632685613839,-0.0602807044946253,-0.019446289023120827,0.1529324768638156,0.0015463781727971858,0.011577522693841609,-0.003029386386406964,-0.02135706713880775,-0.07579689922684753,0.0019167329087897281,0.011059999591719438,0.005059192709151324,-0.007417328521178229,-0.006235594587058079,1.421875
-0.06324795833439321,0.3871560493529115,0.125884643245387,-0.9856860673467573,-0.00679479067695326,-0.07612325319997752,0.020961639801050744,0.13386222943013149,0.4858704458196074,-0.012415978617069185,-0.07020397058724713,-0.03134439684285387,0.05020317188637337,0.04180099516475671,1.4296875
-0.07900475821802264,0.48404190537905295,0.15738478965535424,-1.2324039972174787,-0.008602785102110221,-0.09513772144544962,0.026163085532062445,0.16749361062530246,0.6075766361666588,-0.01552387522266317,-0.08781190527168495,-0.03923635398653692,0.06268873378830456,0.05221850759412805,1.4375
-0.004556444411539657,0.02604251376753249,0.008643422322057344,-0.0673101272173615,-6.771987771148351e-05,-0.005387037023098151,0.0016132146659485864,0.008632629226662882,0.03279319258854507,-0.0008579854939610689,-0.0046538288870778925,-0.0019874739210033916,0.0037201773600431037,0.0030596539581779947,1.4453125
0.07466741926575181,-0.4612544177452683,-0.1496541966795802,1.1726007989514011,0.00901615779879285,0.09014612539442576,-0.02451421601603034,-0.1604218435205195,-0.5788721124265384,0.014752645249254024,0.08384908070009486,0.03765747180248122,-0.059030866712984735,-0.049262343493274234,1.453125
0.07130423523296309,-0.44052517635240157,-0.14293823222143553,1.1202528276490473,0.00863267070089996,0.08610898481063309,-0.02340764650252118,-0.15325326059796393,-0.5529408146192013,0.014094482908803338,0.08011132784482423,0.035983394758405944,-0.05636842710740492,-0.04704401430541967,1.4609375
0.016649598226355505,-0.10438908995385761,-0.03373355717328315,0.2653237506506886,0.0023688094510241468,0.020210532769383734,-0.005387193171462362,-0.03664601525825547,-0.13103721040927416,0.003330256296207511,0.0190715319215579,0.008645706622901483,-0.0130853733717957,-0.010949048967739964,1.46875
-0.014578565660528198,0.08759964334350594,0.028659533572327475,-0.2232613891994694,-0.001210494851293175,-0.01745097384177292,0.004908689690627498,0.029977508403548854,0.11003347208714603,-0.002820983783680105,-0.01582116553669853,-0.006973710076490391,0.011640197933639932,0.009673653798802508,1.4765625
-0.021424685061038517,0.1296757816800799,0.042330714702936346,-0.330671589078533,-0.0019956981163435764,-0.025705961421363895,0.007166140154337115,0.04459512273271169,0.16291176145800262,-0.004170776615331429,-0.023482353200139593,-0.010399075498665467,0.01705958089199813,0.014193007188735602,1.484375
-0.03700354525202046,0.22552164036467318,0.0734570402470628,-0.5747329897483566,-0.0037820511081747754,-0.04448600282868249,0.012304879219858783,0.07785180251283653,0.28319069702253086,-0.007241759391084415,-0.04088348305057873,-0.018197581704780672,0.029402688619695194,0.024482620297649478,1.4921875
-0.045583317478952466,0.2783229005982334,0.09060725195585913,-0.7089057699780681,-0.0047657012324189285,-0.054827983723587666,0.015136638769623931,0.09615100241556578,0.34938281632218315,-0.008932841560109475,-0.05046035716275539,-0.022492929577115562,0.03620231583020767,0.03014956058865314,1.5
-0.01671733588015018,0.10082905994555143,0.032933471814469775,-0.2569669458428056,-0.0014572147020877183,-0.020014212323572575,0.005621167298416612,0.03454402261641304,0.12649319542241202,-0.0032454592733172456,-0.01821721144161449,-0.008049777427913116,0.013339976423446628,0.011081922130148884,1.5078125
0.03361328549772423,-0.20867334324992007,-0.0676383030119883,0.5305815478353357,0.004311418092905938,0.04068334694515551,-0.010972905208043034,-0.07282778349250081,-0.26206023735223144,0.006670642141319011,0.03800104053011028,0.01713260888870237,-0.02652135666138283,-0.022157886504880094,1.515625
0.05990913480800519,-0.370411615487241,-0.12018404318611892,0.9418096819404693,0.00732570781961604,0.07238746449113646,-0.019643434820089647,-0.12889949493218728,-0.46505232550772513,0.011850519841998985,0.06737646498525371,0.03028665292152249,-0.04734082472082511,-0.03951459745407588,1.5234375
0.024443267922367392,-0.15232345990861665,-0.04931486474175635,0.3866729029368132,0.0032601305560910946,0.02960345475905537,-0.007950093184090049,-0.05323446939840032,-0.19122797502439975,0.0048606894347696826,0.027752248403726268,0.012535105198744121,-0.01924367888893005,-0.01608766387361865,1.53125
-0.06574064474146299,0.40238289964546337,0.13088267048012306,-1.0246271340481021,-0.007080181752315064,-0.07916154650118389,0.02178470395917501,0.13914304667888058,0.5050805092785647,-0.01291114957555873,-0.07300984091729018,-0.03259767173293933,0.05218351362552956,0.043456052605554955,1.5390625
-0.11900157779656788,0.7300467383805304,0.23729417796687008,-1.8581708442920635,-0.013188187477324172,-0.14338942928988183,0.039343505339794166,0.25277051278951307,0.9163330313289635,-0.023406703131166873,-0.13251442792678292,-0.05925167590722187,0.09436045638171202,0.07861297925610171,1.546875
-0.03746768202070238,0.22856922695079024,0.07438099264681099,-0.5821931410119247,-0.00383961128669363,-0.04505976359147574,0.012456705905802792,0.07883773948232196,0.28683199250618413,-0.007339193225381576,-0.04140856644987883,-0.018446747104160673,0.02977908464507376,0.024775702575280587,1.5546875
0.11044627931539217,-0.6812645167928228,-0.22114414460964496,1.7328040807851595,0.013121500044682212,0.13331443847579005,-0.036314929798907776,-0.23673923085276732,-0.8551760965291062,0.02180932688321634,0.1238603166704514,0.055577490398732,-0.08736979626710975,-0.07288219562494096,1.5625
0.13735012681876962,-0.8467958810565507,-0.2748813440653442,2.1540010987716807,0.016206903545659186,0.16574647214594188,-0.045186211347105654,-0.2941595595796056,-1.0628357534019826,0.027110990855337604,0.1539223770976505,0.06903910125017267,-0.10867459765931584,-0.09064129394849003,1.5703125
0.022918383033061478,-0.14299958277538918,-0.046247329386244075,0.3631182602737058,0.0030861099577948765,0.027734283036451805,-0.007459486866633349,-0.05001659036374955,-0.17930001218700486,0.0045609328698622545,0.026074455706421085,0.01177048843534132,-0.018046625910638173,-0.015085697167719975,1.578125
-0.04898644243840581,0.2992364162511517,0.09739728337944542,-0.7621839807734632,-0.005157230575781379,-0.05897035193641719,0.01624534281760754,0.10341294434828126,0.37576106420801175,-0.009607283849866458,-0.054259002885592954,-0.02420686147380112,0.03889197418212469,0.03238733977043001,1.5859375
-0.007472032891415751,0.043923627892590335,0.014439089673159659,-0.11228321077083732,-0.00039538179181373333,-0.008870962599209773,0.002562091777430074,0.014841864830777353,0.05509285161125684,-0.0014235240462568508,-0.007880365395421482,-0.00341854930817646,0.006005415373581573,0.0049737965167325334,1.59375
0.008109723971576777,-0.05186430467966099,-0.01668270080074281,0.13167838836429366,0.0013909421557777798,0.009948683269321223,-0.0025637334169355793,-0.01841795569257615,-0.06523866737810763,0.0016497000232253889,0.00951373630126356,0.004385064937575175,-0.006331662076288601,-0.005312617944199456,1.6015625
-0.057846943631113236,0.3537752414786792,0.11510897066925449,-0.9007047176268551,-0.006173549509931983,-0.06959302500834288,0.019190628892049963,0.12230069270473073,0.44405869531745784,-0.011346426751250213,-0.06419374020166273,-0.02862556017870792,0.04591172815157938,0.0382413160107207,1.609375
-0.07639865941313913,0.46781240779495314,0.15216806264371321,-1.191177276111764,-0.008301673901947844,-0.09197774351784987,0.025305664902912785,0.16189423993092536,0.5873240642130003,-0.015002444830930791,-0.08492490552385722,-0.03791345518261432,0.0606050165858944,0.0504912403403813,1.6171875
-0.0022602742165091366,0.01188444658934099,0.004031942337500051,-0.03088810618773684,0.00019888986665714785,-0.002574238501818205,0.0008567071016918632,0.003720539522375605,0.014933841959497563,-0.0003956198198415498,-0.002083625065316408,-0.0008166310602237781,0.0018917375563252004,0.001534536069664761,1.625
0.04852630615090875,-0.300336341498223,-0.0974319234328214,0.7637900051258909,0.006020922483264903,0.05866069483125598,-0.015890229068153537,-0.10464292941402462,-0.37712701618456895,0.00960608769399548,0.054663929915100495,0.024585538078202383,-0.03831686722689253,-0.03200259596796384,1.6328125
0.03182199303520633,-0.19759428300511864,-0.06404601986760855,0.5020080062300114,0.004103850722335398,0.03848802041677157,-0.010383240977502754,-0.06900042268101028,-0.2481204462125474,0.006308224998339806,0.03599443518053717,0.016210556217013797,-0.025076310842699703,-0.02096931442254684,1.640625
0.009500240064347182,-0.06043177548159662,-0.01944683531988471,0.15255857459071606,0.0015445200085331488,0.011553065478252486,-0.0030252356078275355,-0.02135775802078248,-0.07579343935375617,0.0019096609096637793,0.011056370540563245,0.005040148274398331,-0.007403726482875212,-0.006222221230748305,1.6484375
-0.02506299220974074,0.15211899929806652,0.049606171955104875,-0.38798217901922527,-0.002415585127832945,-0.03011314920727222,0.008366310555906748,0.052386870103263976,0.19103793271634292,-0.0048942134096702635,-0.027535327255496584,-0.012236594915952591,0.019952680812594215,0.016601406570365105,1.65625
-0.0869055459117708,0.5325672855806752,0.17316578804604804,-1.355406349781915,-0.009502905556144053,-0.10467263155873228,0.02875024708513917,0.18430055808850992,0.6684805790917313,-0.01707424627668283,-0.09660798668511,-0.043163899627314324,0.06891762007512338,0.05742695167650642,1.6640625
-0.06231115735270745,0.3813150639482224,0.12402753338863347,-0.970536266762765,-0.006682589751987175,-0.07501834602101373,0.020639683451810397,0.13180000288050558,0.4785541987740355,-0.012228953473327723,-0.06914550708577148,-0.030855400133998952,0.049439135062940794,0.04118227705728863,1.671875
0.09577302709387846,-0.5910520516304388,-0.19181898044713455,1.5031579267905788,0.01143947997445973,0.11560569454722198,-0.03147472340699602,-0.20546454041004994,-0.7419460213850572,0.018916407407905945,0.10744014798741769,0.048236742542597445,-0.07574802585742707,-0.06319004034369724,1.6796875
0.18692025846501745,-1.1516724884557812,-0.37392783570125626,2.929497470491524,0.021887083591169747,0.22552431674786144,-0.06151959117607855,-0.3998944258843876,-1.4455719803359657,0.03687585246031993,0.20927021265444118,0.09383639275272192,-0.14792366116466588,-0.12336399835735762,1.6875
0.05560786157017044,-0.3440102404677732,-0.1115769956392523,0.8747059045052582,0.006832766609887892,0.06719046379260694,-0.01822811942078254,-0.11972213630224608,-0.43172208398055567,0.011006410209288456,0.0625916357729368,0.028132670535191286,-0.04393223440976565,-0.03666713715378266,1.6953125
-0.11684758014905962,0.7166575351908674,0.23297321511732882,-1.8239574741718938,-0.012936666518163886,-0.1407584817316792,0.038625816556091735,0.2482060662874051,0.8996772005454126,-0.02296993267554576,-0.13006345927161872,-0.05815232413346346,0.09263663522435614,0.0771904094774307,1.703125
-0.08981260631485266,0.5503543855156459,0.17896118341500275,-1.4009051440271238,-0.009836768175033962,-0.10815497528115486,0.029715502262604186,0.1905160217948567,0.6909125869295628,-0.017644139334361028,-0.09987320235400765,-0.04462416027232581,0.07122733425292554,0.05934089556256231,1.7109375
0.05120111780696573,-0.3169194047486452,-0.10276910221673524,0.8057540108111777,0.006328466022386108,0.061879068580149875,-0.016772231371592932,-0.11035422204562663,-0.3978055499942615,0.01013491331160267,0.05764705910498514,0.025928329502282518,-0.0404444475521671,-0.033763087427252876,1.71875
0.06175073510478115,-0.38176971886539096,-0.12385012411692478,0.9708188290485151,0.007537622611785281,0.07458872466319695,-0.02025377876627302,-0.13288418980548372,-0.479346318045734,0.012208442987753388,0.06942435406391075,0.03120425786152592,-0.04880660198681046,-0.04073736284377604,1.7265625
-0.06381245048579844,0.3905210388984469,0.12701192993685342,-0.9941868526979409,-0.006856864861643243,-0.07681825852626079,0.02114236873982193,0.13500830782108011,0.49000594134960984,-0.012532472874005662,-0.07085262344731845,-0.03162168258817977,0.050627602920850306,0.04216084349050093,1.734375
-0.1301885084104314,0.7988065373062885,0.25963780812805565,-2.03312475575062,-0.014467899802536708,-0.15684575356256247,0.0430351929328241,0.2766574518352826,1.0026086820658386,-0.025608998366024573,-0.1450061861216205,-0.0648388348522838,0.10321015275666078,0.08599750133163403,1.7421875
-0.07213609647620361,0.4417752655719084,0.14366395773788543,-1.1248583683604947,-0.007815203515556401,-0.08684780479353629,0.023902007882002033,0.15282442087870524,0.5545921797578184,-0.014170071496439582,-0.08015432574869108,-0.035801092268433705,0.05725364360536004,0.04767993640737537,1.75
0.003674256626047905,-0.02457196373442085,-0.007812996993954833,0.06160162890482814,0.0008762558065783759,0.0045518480745858556,-0.0011004775718903748,-0.008932604066776465,-0.030762858049369412,0.0007675117273502313,0.004539636316513744,0.002132965076030901,-0.002793199731895217,-0.0023798867827129755,1.7578125
0.04980804906278812,-0.3084027891588877,-0.1000030274760571,0.783862364041202,0.0061684698622891596,0.060182138143954116,-0.01632170924824228,-0.10737447020825326,-0.387086824961433,0.009860516244399965,0.0560943183617946,0.025231264161353878,-0.03934949107975838,-0.03284762090876302,1.765625
0.10866974109631576,-0.6704153472759499,-0.21759731315994804,1.7051986698802177,0.012918837493046818,0.1311736111208452,-0.035729197391435694,-0.23295100391074355,-0.8414898263119495,0.021462914274170023,0.12187763506061683,0.05469703305583368,-0.08596866046034385,-0.07170366142166248,1.7734375
0.13343308897820919,-0.8226884628901354,-0.2670553859799276,2.092764882538704,0.015758053840062774,0.16103323657641963,-0.043891539288367344,-0.285787853612204,-1.0325944053764513,0.02634438420032645,0.14955365794626183,0.06709224913071224,-0.10557493040195867,-0.08804389402406852,1.78125
0.03551174029266065,-0.22046031040080588,-0.07141450685888508,0.5603463975070835,0.004532151796993669,0.04293988701074869,-0.011608948468593153,-0.07688774748347288,-0.2766883325766745,0.007049007070530489,0.04014759591465556,0.01809428632507489,-0.02802781830259391,-0.023391547595248387,1.7890625
-0.08611090183956696,0.5275878541020305,0.17157556034590427,-1.3431372650603224,-0.009411817647005624,-0.103720439700726,0.028492657650259975,0.18260641014813533,0.6622365620545976,-0.016918443224919158,-0.0957402632757753,-0.04276966581009654,0.06829657833584078,0.056909826539486764,1.796875
-0.05369504678433756,0.3283430850995229,0.10681828254515131,-0.8361435848146699,-0.005698420901553674,-0.06461597382639027,0.017814873931321158,0.1134774650844536,0.4121440643018194,-0.010534905614846797,-0.05952948369327399,-0.026563939154409282,0.04264267005964176,0.03550901521303995,1.8046875
0.05003766613484498,-0.30958970604608044,-0.10043188161549366,0.7872153090215365,0.006192113440657704,0.06047888440091373,-0.016383788585824934,-0.10784381439584548,-0.38860538172738707,0.00990286619829222,0.056356876155822515,0.025334038112001876,-0.0395053714036704,-0.03299078644160697,1.8125
-0.001096946890142066,0.004797599894833339,0.001720093466074002,-0.01256533155855021,0.00033244097457096547,-0.001195891457045946,0.0004646951918153642,0.0012062659641603186,0.005978105447752302,-0.0001704238128240156,-0.0007752838378010017,-0.0002410053203026773,0.0009688365237441592,0.0007581712294966675,1.8203125
-0.13702903940008707,0.840687341896215,0.2733067864043392,-2.139526365421881,-0.015248061845092035,-0.16513464311973977,0.045274649807266136,0.2911959227046446,1.0552237295655256,-0.02695191944962786,-0.15263810725482144,-0.06824365732857929,0.10860404064787062,0.090516576054478,1.828125
-0.09128585949587653,0.5593279929805486,0.18193122798968678,-1.423975956387848,-0.01000531161356904,-0.1099824662183594,0.030199818545005648,0.19363049242398603,0.702168646051074,-0.017941359821025946,-0.10153432038682272,-0.04536138191945731,0.07238661715314976,0.06033120550353257,1.8359375
0.08888204858027766,-0.5486889176579846,-0.17804825352926243,1.3950739531575391,0.010645770920622829,0.10730450857499257,-0.02919283239452775,-0.1907191736399238,-0.6886169051482841,0.017553418773614663,0.09973852359208217,0.044768446191797685,-0.07028235956769945,-0.05863948878746423,1.84375
0.11546078098114679,-0.7120481951234807,-0.23120208656390992,1.8109452351110096,0.013691872043539045,0.13940762365088602,-0.03795606268234553,-0.24740814150171012,-0.8938633738786715,0.022789977770283975,0.1294210181954873,0.05805762956317951,-0.09132778889462449,-0.07622673229560066,1.8515625
-0.011045445397406204,0.0660967735386321,0.021524445001566327,-0.16862300959831675,-0.0008094994456272038,-0.013117632104255816,0.003748634301491376,0.022489968340799388,0.08269381662320303,-0.0021318115774646013,-0.011908535893630322,-0.005234247654333734,0.008858134181835143,0.007285726840017137,1.859375
-0.05436176641349825,0.33250789934782327,0.10810191604275814,-0.8464707550259132,-0.0057750659285563275,-0.06538715987149726,0.018028137437515353,0.1148916584117021,0.41719322294162775,-0.010663412499216545,-0.06028800660980366,-0.02689763261128976,0.04316361989229655,0.035912973300909354,1.8671875
-0.01433553123421935,0.08623507438697717,0.028181543536513823,-0.22011149710775813,-0.0011866044966636555,-0.017177714973915223,0.0048301220825751065,0.029476022555031397,0.1083161624169606,-0.002776625871711609,-0.015557630918410397,-0.00686239755688301,0.011460504601300464,0.009521043888902464,1.875
-0.034772690240832814,0.21182268586527964,0.06903466173995514,-0.5397262356132289,-0.0035268638535908277,-0.041841273848517435,0.011565507568470891,0.073060594462384,0.2660348530965907,-0.00680175727856491,-0.03837649879421776,-0.017075228502614215,0.02763400532099395,0.023031649178707952,1.8828125
-0.024548725796240272,0.14888421139586802,0.04860935580083402,-0.3793890269657237,-0.002350895434275569,-0.029493607940975206,0.008194277112132603,0.0512379705937178,0.18695529624305612,-0.004782918051293062,-0.02694187425663191,-0.011943604161007114,0.01952787148488005,0.01628282146264702,1.890625
0.12440241520548381,-0.7672431303592718,-0.2489865777295504,1.9517014387274096,0.014724796242701092,0.1501370822980068,-0.04091099526422535,-0.26654565492409116,-0.9629566981916826,0.024567067871265513,0.13946417343032644,0.06258516355443136,-0.09843285416993566,-0.08206912639112414,1.8984375
0.1937326927264676,-1.1936272987994838,-0.3875126420007925,3.0364263716684206,0.022668232432962898,0.2337361887490913,-0.06376417649407524,-0.4144431994059803,-1.4980572073071534,0.03822238663047442,0.21689984849319233,0.09725344963442627,-0.1533283624025005,-0.12785516517004492,1.90625
-0.0022860735050704885,0.012059886618452384,0.004108341816444178,-0.031516865033060615,0.00019277538692538153,-0.0026446942888465243,0.0008663286240755719,0.0037817682745898565,0.015262637041506107,-0.0004079593063150912,-0.002113339737053546,-0.0008477460569887632,0.0019216511657974534,0.0015624973379020403,1.9140625
-0.2169757702674419,1.3325773224164263,0.43304175678313983,-3.3914698097632043,-0.024419063093636627,-0.2615336057084586,0.07164963818124849,0.46182337672965246,1.672592640155334,-0.0427134126668474,-0.24197066989069152,-0.10827348178234897,0.1719516885069318,0.1433152563316941,1.921875
-0.16589928773261545,1.018419550641789,0.3309862146915161,-2.5920549589539643,-0.018561549765754734,-0.19993353842325118,0.05480540942534444,0.3528465620457907,1.2782355686898648,-0.032647644913074945,-0.18489918489545795,-0.08271188156216709,0.13149898820190292,0.10958596392036182,1.9296875
0.014375759134610025,-0.09041581777507965,-0.029222089137231483,0.22935562096549938,0.0021065258963084113,0.01747576579430728,-0.004638764636477982,-0.03175986149915651,-0.11345957411689556,0.0028778028405588444,0.01651739437391323,0.007491936809753279,-0.01127597427860289,-0.009462445366904559,1.9375
0.0681491080830092,-0.4211348271596937,-0.13668273199675765,1.0709620212138748,0.008272000464146065,0.08234086153145896,-0.022372231017311832,-0.14647840193058645,-0.5286242262732588,0.01347587594903503,0.07659784767599115,0.034400609962413814,-0.05386625915935603,-0.04498294236267491,1.9453125
0.027222619700335713,-0.16934196156555809,-0.0548985204309502,0.4304582625845175,0.0035812354137455286,0.032989552384393966,-0.008876098560879838,-0.05919089930795207,-0.21278632788021237,0.0054107314009583865,0.030866168685172262,0.013931687825531959,-0.02145806959304241,-0.01795737045147755,1.953125
0.022126838020667883,-0.13797080398653735,-0.044683353246272886,0.3507512628183332,0.002997017459612346,0.026828113768780117,-0.007190759522630376,-0.04835750142177569,-0.17346826327340903,0.004405068226427174,0.02516321422854941,0.011388430409190752,-0.017424446132191174,-0.014580406512652121,1.9609375
0.031204855180876047,-0.1938483557661147,-0.06281319658293215,0.4928741848729509,0.0040359857326650195,0.037763466871411175,-0.010181798488073438,-0.06771665448381566,-0.24343109319750975,0.0061949317022391755,0.035306767530761174,0.015927321387540088,-0.02461143824952279,-0.020567176287622328,1.96875
0.026028458933860403,-0.16208201412295545,-0.05248368802396031,0.4117467789308975,0.0034409506889692926,0.03151670823625594,-0.008475619683569547,-0.056629012220440963,-0.20338285230409364,0.005176497251597243,0.02952780618050475,0.013331878482716752,-0.020509853653533673,-0.01714378551642686,1.9765625
0.05531956551615689,-0.34232361664715877,-0.11100098101191382,0.8699563172894439,0.006799162995260094,0.0668255093484342,-0.018132694897289022,-0.11910878432685441,-0.4295410770229486,0.010946965439436723,0.06224612182471798,0.027989880265932847,-0.04371234254581045,-0.03647303041521624,1.984375
0.08098486070677884,-0.500233494444304,-0.1622574208247445,1.2716543983330908,0.009742582962483728,0.09776202533243122,-0.026594005854291253,-0.1738907629809042,-0.6276834911416558,0.016003431175987258,0.09091853010765495,0.04083718911918118,-0.06404458847980511,-0.05341004069529806,1.9921875
0.011866412331818501,-0.0750269495019772,-0.02415339260495956,0.1901547267483875,0.0018185206965435049,0.014424227423500207,-0.003805079810723722,-0.02642917934025084,-0.09397353583864707,0.002386912646154179,0.013721173946372674,0.0062527109741801114,-0.009299909575466154,-0.007773773835356548,2.0
-0.09254240724454256,0.5673449900874163,0.18444259526654969,-1.4438567240017284,-0.010152720027937144,-0.11145390488463733,0.030620645911664118,0.19636195820981064,0.7121712907511993,-0.01818416851254371,-0.1029003352802498,-0.04599646813688071,0.07340240534429103,0.06115825317097852,2.0078125
-0.10689731242496553,0.6556846573717627,0.21311533606543104,-1.6686817243572396,-0.011798982992850364,-0.1287573450240748,0.035355058740488665,0.22700081804587433,0.8229367503642833,-0.021015344065072133,-0.11894468390686101,-0.05318520532809527,0.08477549954957388,0.07063175149816157,2.015625
-0.05970498338312633,0.365210494658833,0.11882255911825514,-0.9299912140738914,-0.00638672864293963,-0.07187045048771631,0.01979257463499166,0.12627528051834253,0.45843805925202913,-0.01171919599937017,-0.06625072834551833,-0.029570388843664648,0.04738947760758589,0.039469730980846066,2.0234375
-0.04515492240154071,0.2755205354426595,0.08974642109345696,-0.7019233969232896,-0.004716070666642535,-0.05434452705906608,0.014990111524343055,0.09518833772157916,0.34598968474120123,-0.008851458095962392,-0.05001054398409262,-0.022283545920640156,0.03585616036046792,0.029861420731366054,2.03125
-0.03926464047607087,0.23937685554523178,0.07797513450045113,-0.6097604950394375,-0.004040828088055952,-0.047237782291840606,0.013047699065513308,0.08262271020018742,0.30052412146498697,-0.007691063813528577,-0.04342474664141204,-0.019334494438543903,0.031195647869457402,0.025970105997390733,2.0390625
0.008594563052923332,-0.054780343950628245,-0.017647039653233762,0.13879497476822977,0.0014435669630960216,0.0104901836175346,-0.0027277625434582085,-0.019455909174619816,-0.06889747061813402,0.0017355740390855485,0.01004713250965643,0.004606567022707332,-0.006698409643434885,-0.005635150243468532,2.046875
0.05260661905853985,-0.32545585990077236,-0.1055915363797311,0.8274196153502738,0.006488434418802858,0.06357492804339984,-0.01723845536066712,-0.1133391459530927,-0.4086850326955549,0.010407394717286753,0.05921714230039845,0.026626047163903314,-0.041556299569372415,-0.034701253813822705,2.0546875
0.05527582765770828,-0.341983346658016,-0.11093868669207907,0.8695580657625507,0.006796763282334578,0.06680315866148173,-0.018123410201318975,-0.11903443093446307,-0.429358301832603,0.010939666813168235,0.062209654036916,0.02797139980891701,-0.04367940805383081,-0.036465794374686215,2.0625
0.05878493781755089,-0.3635750505756457,-0.1179505749442396,0.9247356985723795,0.007201188377081951,0.07104246390066066,-0.019283378797893092,-0.12652284088235652,-0.4564565440688807,0.011635970552726147,0.06614253701592472,0.029738130069231983,-0.046461657903656396,-0.038781478293869326,2.0703125
0.07992874272706493,-0.49352844558257825,-0.16018054162369896,1.2553445328426491,0.009623616063726434,0.09653462008109563,-0.026251403128116715,-0.1716306238194167,-0.619582156233986,0.015798752960239464,0.08975804076647756,0.04031268549419069,-0.06320053552153708,-0.05274083975295633,2.078125
0.08178806378010504,-0.5049409735211446,-0.16387924094481257,1.284030593581842,0.009833144624711411,0.0987608120816999,-0.026858241166462772,-0.17559223777512337,-0.6338072324946205,0.016159655719037675,0.09181893799981684,0.041228286246584485,-0.06466514489525123,-0.05396322682081916,2.0859375
0.05434756614471277,-0.3362366609516591,-0.10904344511010187,0.8545949997337315,0.006686078844270694,0.06565874776606306,-0.017807091995659042,-0.11704585210143499,-0.4219423671092166,0.010753570270218452,0.061160532972412224,0.027495927147501844,-0.042931370271809086,-0.035832026233575814,2.09375
-0.0028752738253918194,0.015661485326377282,0.005290935896625878,-0.04065294345150198,0.00012779780822285507,-0.0033517085628082246,0.0010582649475008473,0.005028766838124601,0.01974425442719262,-0.0005180316331592552,-0.0027603220634213003,-0.001125406168121229,0.00238333887172376,0.0019613763758869252,2.1015625
-0.10578822650623024,0.6486416363244631,0.2109031469039047,-1.6511147949839728,-0.011669411458661495,-0.12746015828586887,0.034984774154697584,0.22458278148809624,0.8142178671072453,-0.02079732408218063,-0.11773470526754244,-0.052619964473343495,0.08388592725741217,0.06990860217837094,2.109375
-0.1894093610886613,1.1629998357831255,0.37796365228755147,-2.9598730755555374,-0.021257920053753005,-0.22829532268751568,0.06255375478265869,0.403003814331121,1.4598934714101095,-0.03727808570107395,-0.2111580641365832,-0.09447914616681453,0.15011797045922398,0.12511021567404723,2.1171875
-0.1353976163040591,0.8308279073150853,0.2700455465007942,-2.114603266271777,-0.015067304710361553,-0.16314317168123316,0.04474938096464391,0.28779508383420405,1.0430036720138958,-0.026635064209482133,-0.15080531533069993,-0.06746173050574036,0.10734690017921657,0.08944295722915906,2.125
0.014716308138665412,-0.09248709703190222,-0.02987042423005901,0.23483364846614133,0.002144455171726423,0.017892712935464388,-0.00474221025258233,-0.032487506055399476,-0.11601901166343921,0.0029472831840811793,0.016910151640413856,0.007667077390152476,-0.011549082894042627,-0.009673044359298234,2.1328125
0.07322400337011797,-0.45241118867260177,-0.14676674441929846,1.1505663356576965,0.008855046259182046,0.08843943431818221,-0.024036602535862105,-0.15735722227226676,-0.5679207504614368,0.01447560857900803,0.08226175563364127,0.03695905078561012,-0.05790131724534891,-0.048309598631699015,2.140625
0.007194659238802081,-0.04628429506104796,-0.014856170669608586,0.11705964198967725,0.0012847589113913268,0.008807308472201729,-0.0022698368890683896,-0.016487631092933677,-0.05818497633137154,0.0014612465142289936,0.00847749520106699,0.003913373189275995,-0.005608464210108898,-0.004720542388524714,2.1484375
-0.011685845473964531,0.06994446541204882,0.022859995159288424,-0.17860777178703152,-0.0008821676931018984,-0.01395271556921399,0.003957230644839403,0.023830500017290743,0.0877298896418387,-0.002259494002396807,-0.012609989255158846,-0.005544881143649933,0.009356470092532787,0.007747287311285221,2.15625
0.07696788411406662,-0.4752989638961055,-0.15425222101605943,1.2088720581939874,0.009281973901281585,0.09295567149097003,-0.02527066888005941,-0.16530891934721886,-0.5966521140059654,0.01521400429552202,0.08644900590345726,0.03882606329298845,-0.060852904496816365,-0.05077604957481001,2.1640625
0.11988602730602396,-0.7393994275809997,-0.23998646893125697,1.8807493127955484,0.014205415945730757,0.14469330531278757,-0.039424285171855415,-0.25691125383000096,-0.9281101639256865,0.023675460807598366,0.13439722394535317,0.06032090487178492,-0.09485364613380082,-0.07910313400492315,2.171875
0.03567688307379394,-0.2215780406434329,-0.07174617173297185,0.5629412399394822,0.004552039613497051,0.04313507235302735,-0.011662847498049522,-0.07725329582346196,-0.2780290739026411,0.007082335164358309,0.040311124431936976,0.018182394435509813,-0.028164712744228635,-0.023501161586892447,2.1796875
-0.04773332535984078,0.2914956094180534,0.09489198717838601,-0.74256268893129,-0.0050133599701166365,-0.05744290507769978,0.015840308862560666,0.10074194921137282,0.3660378700394781,-0.009357409516849893,-0.05287340886565443,-0.023575745618885324,0.03790593305142459,0.0315678237450333,2.1875
-0.022328000266783544,0.13535698992300127,0.04413494197642995,-0.3450953406614081,-0.00210296727906596,-0.026803047748366553,0.007467713482206694,0.04655119745260443,0.1699441289141098,-0.004355664120051416,-0.024487772715591393,-0.010875599907009965,0.017795913167350137,0.014790094628440154,2.1953125
0.037064409049932995,-0.229895538670447,-0.07452634533755456,0.584381851013542,0.004707113895344798,0.04481968206069756,-0.012113333288163053,-0.08018479872178577,-0.2886901831844996,0.007346443708099161,0.04186035874982325,0.0188496020534105,-0.029240464468632925,-0.024426772194904602,2.203125
0.018668530160125204,-0.1167484994355525,-0.03778524348331521,0.2965202868019868,0.0025998562851636637,0.02265156853823946,-0.006049136942676724,-0.04093481422575828,-0.14672268238023584,0.003723937768603212,0.021307167848269793,0.009652352854322243,-0.014672759990669089,-0.01228393262011083,2.2109375
-0.060523705576674046,0.3703498847844852,0.12042887499549472,-0.9428063710803463,-0.006479736032223094,-0.07283468339393581,0.02005993086879937,0.12804271253199598,0.46475418757024706,-0.011879443259799569,-0.06715980901086419,-0.02997808645318166,0.048045060209184864,0.03999971457021096,2.21875
-0.09845554609347688,0.6036548025430146,0.19623181720216842,-1.5364512748343877,-0.010830881039136271,-0.11859188060670701,0.03256763102660096,0.20895869625650132,0.7576850192930683,-0.019356690499582475,-0.10954016658296051,-0.04896893917742252,0.07808470983472035,0.06504348337169948,2.2265625
-0.04356237831761283,0.26599073892553443,0.08657762869384517,-0.6774505054083112,-0.004539195100157786,-0.05241069523534157,0.01447346491225765,0.09181880983386059,0.3338924481439635,-0.008542531126738626,-0.048226618047065996,-0.021505045450815146,0.03460915707884216,0.0288013471556584,2.234375
0.0422595150361205,-0.2618974864790779,-0.08489563924457072,0.6656621846030333,0.0053011347637861184,0.0510978273132074,-0.013821317572245952,-0.0912750529680761,-0.32869775109968385,0.008372448070129518,0.04765609015924562,0.021449426891998153,-0.03336457367490412,-0.02786313151312378,2.2421875
0.049796815293524276,-0.3082726498662882,-0.09996654493250118,0.7838035895220512,0.006168125901032284,0.060201006268964796,-0.016313129742438866,-0.10734215204311004,-0.3868901647891437,0.009864238741561976,0.05609684670140725,0.025238548361555375,-0.0393460654328494,-0.03283918688717762,2.25
-0.030882831753280632,0.18792727897022923,0.06123844284476498,-0.47874821976964016,-0.0030805900777329375,-0.0371127137201875,0.010282376331136614,0.06477410492415941,0.23598795972848127,-0.006033409692294334,-0.034034934542724125,-0.01512735742331825,0.02454364550095837,0.020438187403935174,2.2578125
-0.07827587722411646,0.4794039671771282,0.15594240063696332,-1.2207417560884513,-0.008516498263018979,-0.09428807416217068,0.02591470694373787,0.16588507352272455,0.6019118247158796,-0.015378226349204977,-0.08700575810284303,-0.038857035176193676,0.06209137337959678,0.051741404363664145,2.265625
-0.01983678126741505,0.11998323528549672,0.03916875020406242,-0.3064783521736836,-0.0018188344909481609,-0.023804593460873588,0.006654502530618575,0.041239596547376044,0.15076564901924588,-0.0038661140043930293,-0.021731971245392508,-0.009630437329054319,0.015827597216880533,0.013156389903188298,2.2734375
0.05084218867007178,-0.31472106630310626,-0.1020727899853768,0.7998595184384999,0.006285823498418393,0.06144565628807591,-0.016655097728295383,-0.10954209941321875,-0.3949807291527165,0.010063631390842417,0.057246492754396326,0.025739066326309904,-0.04015110883021698,-0.03352414017583241,2.28125
0.051694761477367665,-0.31995941953011375,-0.10377545417323755,0.8137023332235598,0.006386705033931311,0.06246606297949905,-0.01694749812122218,-0.11140541089980256,-0.40169808735256207,0.010233663437701582,0.058220209315032356,0.026178516547083013,-0.040843029455430724,-0.034098126217723866,2.2890625
0.059592536199443796,-0.36849796009083213,-0.11953095101364782,0.9374430435406699,0.007293357268871838,0.07198260085541132,-0.019550952091583525,-0.12829355808183707,-0.4627083661198161,0.011788820950192815,0.06704773705102339,0.030137355787017702,-0.04710231220838041,-0.03931049981957208,2.296875
0.11695676401620271,-0.7212949452082962,-0.2341367010296145,1.8349763741446172,0.01386981457402436,0.14117431837044397,-0.038457218179026496,-0.25066281309233285,-0.9055203061555656,0.023093021541161725,0.131132086862184,0.05884354695274763,-0.09252621386640071,-0.07717895874179406,2.3046875
0.09300180242966087,-0.5740249929601186,-0.18629329265392086,1.4599789555169367,0.011123341125907809,0.11229576575695012,-0.030558873768197988,-0.19952080485045715,-0.7205453379175348,0.018376337860894525,0.10436682825486507,0.04685843622156431,-0.07355335709978551,-0.06135811156379702,2.3125
-0.05291330065959257,0.3233490313673529,0.10523243474810047,-0.823555560575748,-0.005606489514179421,-0.06368109398234033,0.017548183794503874,0.11179454432720692,0.4059713175064423,-0.010375184336680564,-0.058660836734749686,-0.026159152023041848,0.04200498354992838,0.034988006574554954,2.3203125
-0.12379775846511856,0.7593639768324052,0.2468700373228445,-1.932982832636188,-0.013734923816371739,-0.14917104534474407,0.04092283890856644,0.2630124473084336,0.953243059718317,-0.024346896797070573,-0.13786542020778408,-0.0616363714805426,0.09814570018872269,0.08178983731226998,2.328125
-0.04414656663782004,0.2695800180191657,0.08773809438776747,-0.6865347755173756,-0.004603063667312236,-0.05310508976592668,0.014662913811277377,0.09306297225244978,0.33830441410185436,-0.008655586556740098,-0.048874530602426615,-0.021781439273440565,0.03506234136936501,0.029187689361720715,2.3359375
-0.03871361300258116,0.2362167436599208,0.07687782537650241,-0.6014406311239822,-0.00397945559816084,-0.04654642453253384,0.01286678674359862,0.08146659910591648,0.29633699027659144,-0.00758537615392447,-0.042793217298213275,-0.019061793083674304,0.030753221398691306,0.025590052910090835,2.34375
-0.17429277225262158,1.0701002742467292,0.34775782338786665,-2.723270315349688,-0.01952521655430112,-0.2100537510936652,0.05756873989063006,0.3707411794151614,1.3431261819171303,-0.034299982850645616,-0.1942662752000055,-0.08691233976441572,0.13813708008902637,0.11511525946516864,2.3515625
-0.14738238466802933,0.904595440231404,0.2939946713194519,-2.302364312467863,-0.01644275733317769,-0.17760131629607132,0.04870590312483456,0.3133603771123235,1.1355114985909047,-0.02899651684755632,-0.16421269821850346,-0.0734577835717111,0.11684863721924248,0.09736211059424893,2.359375
0.13810870886989063,-0.8513642909124994,-0.27641139946027493,2.165419198468245,0.01628881324441098,0.16669288773883625,-0.045417996999344415,-0.29572133696916353,-1.068546124806729,0.027259963527399712,0.15474124734007608,0.06940050065542225,-0.10924469170522898,-0.09113685130023465,2.3671875
0.28325220698054315,-1.7441731189337244,-0.5664086562722518,4.436995390557474,0.03293137270758233,0.34172237917305726,-0.09327857779465024,-0.605398450237272,-2.189194859419101,0.05586039709090092,0.316902929727402,0.14203835582045848,-0.2242120225057574,-0.18697768405316237,2.375
0.07042117259432275,-0.4351824312169111,-0.14117114350302093,1.10626004091034,0.00853060450025156,0.08504371874031863,-0.023111238096906888,-0.15133303786095717,-0.5461150475866506,0.013921680938524139,0.07912351220877564,0.0355445188804206,-0.05567130596169258,-0.04644873735629133,2.3828125
-0.12213864517914379,0.7492161384950774,0.24356619285752035,-1.9072275383226025,-0.013545764359064004,-0.14717624184102607,0.040376126972231204,0.2594885172379374,0.9405021841225428,-0.024020831242515625,-0.1360079189236993,-0.06080577423133329,0.0968293267591058,0.08070016361189927,2.390625
-0.004530777597619194,0.025857163112932006,0.00858196705507427,-0.06636116905528557,-5.876433411537438e-05,-0.0053389510516328184,0.0015947854647279903,0.00854338361497946,0.03242914411167547,-0.0008436932637277598,-0.004608351517397644,-0.0019454545055722226,0.003682263384091907,0.003039389235673521,2.3984375
0.11287523471156703,-0.696316309709101,-0.22600069591804142,1.7713251261397813,0.0134035487811462,0.13624905108089683,-0.037119302067848525,-0.24197338296360713,-0.8740852806730438,0.022290903803962217,0.12656103551321246,0.05680604730160157,-0.08930910747008818,-0.0744950513984872,2.40625
-0.05160018140298136,0.3153489136506802,0.10262309218457538,-0.8028447606395013,-0.005456455878023178,-0.06209886661111209,0.017114933960486713,0.1089525993714845,0.3957943458631704,-0.010121549786688104,-0.057196026364895555,-0.025507449230428112,0.04095735239803113,0.034104965113244116,2.4140625
-0.2067495929160328,1.2697294598274806,0.4126128966247273,-3.2311763258073545,-0.023246526953520728,-0.24919133020863113,0.06827453845300678,0.4400061257736025,1.5937323495588296,-0.040693571695808124,-0.2305212186500559,-0.10314981639598318,0.16384661214914287,0.13655701109726545,2.421875
-0.057909733905690354,0.35426416761678325,0.11522404334091568,-0.901716879073682,-0.006179559710827287,-0.06969479145101024,0.019194457578345234,0.12245179437548137,0.44460970957755336,-0.01136210658962543,-0.0642198375443712,-0.02866432239934668,0.04596730437381912,0.03827954464582195,2.4296875
0.1437561387991017,-0.8862219197717419,-0.2877059499248473,2.2545350434983815,0.0169433150680829,0.17348734394561113,-0.047303702430016026,-0.3078426291583021,-1.112430236973422,0.028375255937228172,0.16107822599618082,0.07225160652928596,-0.11375948375330293,-0.09488563014376916,2.4375
0.09763368931941402,-0.6025504959577341,-0.19554218805487297,1.5324883984489748,0.011652530057403875,0.11785172753543974,-0.03209001358589744,-0.2094397726942037,-0.7563425841876703,0.0192829229422972,0.10952884252158908,0.04916341699242484,-0.07722683635843726,-0.06442748184163906,2.4453125
-0.025764555683523767,0.15650795407553272,0.051013613988080436,-0.3990207172202858,-0.0024976898254610008,-0.030949285649002473,0.0086067172994638,0.05387453611347723,0.1964109953731019,-0.005032614532771724,-0.028338182211134287,-0.012589111082332438,0.020518248853539162,0.017064517696702645,2.453125
0.005499788800893756,-0.0358113788495218,-0.01146004709549037,0.09035200842810838,0.0010885561357895479,0.0067722912291568365,-0.0017012082440771342,-0.012812927966946868,-0.04495530973088688,0.0011325112405243696,0.006599729484252388,0.0030639446036442018,-0.004242989755139353,-0.003575377462886279,2.4609375
0.0576548797950081,-0.3566963057971147,-0.11566826034944974,0.9068025882061003,0.007070103770901693,0.06966745030958478,-0.018902427896964825,-0.12411264492772661,-0.447619914188322,0.011411205059339697,0.06486471286354326,0.029168652936588532,-0.04556339431874485,-0.03801905292506336,2.46875
-0.007010539899136143,0.04106593007142482,0.013543504535544947,-0.10537845391353982,-0.0003456821719627619,-0.008327314518405194,0.0024204751608994865,0.013845692297593385,0.05169822939516061,-0.0013349074941375238,-0.00739284909862403,-0.0031973458460068287,0.005651366617102524,0.004678925507946935,2.4765625
-0.03427112778156233,0.2088680213951767,0.06801248797573572,-0.5323975003417437,-0.0034738149059128825,-0.04120118711807717,0.011414188920975434,0.07203802917943586,0.26224268294403924,-0.006710387399414311,-0.03784896587197991,-0.016851155807133675,0.027260470553699196,0.02268350350696783,2.484375
0.03703112671981322,-0.22964604554900084,-0.07446326661996451,0.5834002094493096,0.004701292489125112,0.04479477017343773,-0.012096484288812184,-0.0800751925699255,-0.28826456097177205,0.0073393725842983435,0.04181791408596176,0.01882479875846312,-0.029201818525706406,-0.0244025711643642,2.4921875
-0.01045443815269145,0.062347364656499454,0.020402362512598145,-0.15943518784044294,-0.0007407071572415807,-0.012470520941991945,0.003552058696598732,0.02120045828173443,0.07824690161048477,-0.002015876810982308,-0.011234322254019415,-0.004928766452548712,0.008389063590500272,0.006938365468180966,2.5
-0.2078350470391573,1.276311919315469,0.41477230039363144,-3.2480451720074646,-0.02336885454785262,-0.25050786264308605,0.0686247788649408,0.4422839792887118,1.6020421149512725,-0.04090689818481255,-0.23174897276604256,-0.10368622792659464,0.16469116366702935,0.13726390222912002,2.5078125
-0.24888775533213622,1.5288324894979302,0.4968015166715374,-3.890301789965396,-0.028075368280128785,-0.3000145332149466,0.0821604509135305,0.5298826279765108,1.9189876553606857,-0.04899344233908919,-0.2775978789685549,-0.12422463811553786,0.19720311118234835,0.16437893966463013,2.515625
-0.018163152039751114,0.1097801484549357,0.03581513005978731,-0.27951335559104645,-0.0016237383479849757,-0.02176628904401478,0.006091641489655057,0.037649891856065765,0.13772710355170673,-0.0035292848471810702,-0.01981720849565561,-0.008776463419449914,0.01448547984852251,0.012036396282198528,2.5234375
0.2079206541255782,-1.2807408333403867,-0.4158989756037135,3.2584539615710337,0.024295359879207123,0.25087801752879946,-0.0684478151155325,-0.44471142538695513,-1.6077350086298257,0.04101629801349338,0.23275562553935839,0.10434627152497211,-0.1645616500179217,-0.13725344395879474,2.53125
0.22639798130711122,-1.3944086391754111,-0.4528161416965968,3.5474289177961564,0.026413318956531425,0.2731496413366454,-0.07454043884849408,-0.48415159568656596,-1.7504349938677861,0.04465319792079706,0.2533787505472126,0.11358852346112748,-0.17919800179537437,-0.1494602651022377,2.5390625
0.13364355065730799,-0.82398951125489,-0.2674961842551588,2.095827982649784,0.015780129314160285,0.16128386678576295,-0.04396062780869647,-0.286250603551756,-1.0343574030580935,0.026376769661279723,0.14974964271949154,0.0671780246839829,-0.10574151314176544,-0.08820787619990296,2.546875
0.040770230504474994,-0.2528107515350869,-0.08193696001014593,0.642450848175705,0.005133779328419895,0.049288512772535154,-0.01334012119615073,-0.08807965589447261,-0.3172754159458782,0.00808107745771829,0.04600510138573405,0.020713124595764135,-0.03218679772633202,-0.026870920003884195,2.5546875
-0.03822958482651389,0.23309948404154304,0.0759096107460276,-0.5938395060972369,-0.003922720223328424,-0.045969503265977374,0.012708043886723766,0.08046947221847132,0.2927147261509025,-0.0074815998556596415,-0.04224414956578779,-0.018808948515872465,0.030378375863125324,0.025296882648072772,2.5625
-0.054397255884468365,0.3325252724293896,0.10821933149582776,-0.8467699436817401,-0.005776369119432039,-0.06546821041985566,0.018039375816744717,0.11493915958657364,0.4175201038157765,-0.010667696442398905,-0.06031160886560089,-0.026897272374442244,0.043177437805520386,0.035968326010418515,2.5703125
-0.00789994363686283,0.04647551691113488,0.01532126120392584,-0.11898784989420438,-0.00044612822689730456,-0.009410643997722512,0.002709117572902637,0.015724732141655564,0.05848288090989232,-0.0015091475309559053,-0.008373296145140404,-0.0036391991894795406,0.006352439999560153,0.005265903296945162,2.578125
-0.028938904326780618,0.17588346174271494,0.057358794931843086,-0.44837449219663106,-0.002859542287051339,-0.03478862785602308,0.009648746617856068,0.06063615353021246,0.22095535630578544,-0.005657402909546645,-0.031879917243688945,-0.014177862910988166,0.023025397877537407,0.019165024611965814,2.5859375
-0.13554555496632406,0.8316656290374324,0.27036035016133453,-2.1170881314706467,-0.01508315107963922,-0.1633356246711084,0.044802933109925135,0.28811529100189054,1.044110376274703,-0.02666244329399254,-0.1509790552304553,-0.06752308213393897,0.10746465490444282,0.08956382513914071,2.59375
-0.14779798917324902,0.9070645789525498,0.29484050441794646,-2.308934000080578,-0.016487445055874874,-0.1780969913334507,0.04884430244490336,0.3142530903780757,1.1386771130171724,-0.029073309421528838,-0.16466693614548145,-0.07364298055475084,0.11716385405037201,0.09765413679120923,2.6015625
-0.01180046237709419,0.07059466716680547,0.023111259728914074,-0.18031118928140652,-0.0008933513964351644,-0.014093244728259926,0.003999849669528547,0.02406569955281142,0.08852674446204865,-0.002275131178252641,-0.012730232721743989,-0.005582087384869548,0.009446864294742114,0.007847359225475341,2.609375
0.09437302481576447,-0.5823430690970433,-0.189039880700434,1.4814810587555618,0.011280335855004429,0.11394568718890578,-0.031013031523472116,-0.20247815151353724,-0.7313188740916166,0.018641704467978085,0.10588647467963162,0.04754205933043624,-0.07464138605304756,-0.062276275352739295,2.6171875
0.08238316696804382,-0.5084532367633023,-0.1651049965541041,1.2936499829432826,0.00990375318118996,0.09950089351960469,-0.02706179540298704,-0.1768850263296697,-0.6386986647151346,0.016274379730357107,0.09248702251748658,0.04152944902746,-0.06514125833371893,-0.05438146702208799,2.625
0.0583989852097114,-0.3609388827336311,-0.11719135136988466,0.9180778277070313,0.007151347727136054,0.07058433016503209,-0.019152351288579512,-0.12569863502580034,-0.45338890593930115,0.011546971733005932,0.0656858705889286,0.02951817498054455,-0.04614744549213366,-0.03855538257328473,2.6328125
0.06565399831899192,-0.4057126107149158,-0.1316691866384569,1.0316849987519943,0.00798268678570716,0.0793139510482441,-0.02154358729029566,-0.14118381090799884,-0.509304248997506,0.012977610979978273,0.07379083311214284,0.033146449601948465,-0.05189684474486108,-0.043335240810528974,2.640625
0.027429163501992218,-0.17072014303503025,-0.055267690289518945,0.4336387299690374,0.0036011355972291755,0.033192445528317675,-0.008939408660659096,-0.05963902884714403,-0.21412264254297453,0.005447561770344241,0.031092947193642556,0.014020895984842123,-0.021620081447058515,-0.018073607884751857,2.6484375
-0.05864096001798212,0.35862112951536385,0.1167161247973417,-0.9132421088151991,-0.006266220508818093,-0.07060360166375679,0.01944245699448829,0.12400450651366597,0.4504344379245672,-0.01150775606923341,-0.06505512498651697,-0.029042647480406508,0.04655111286034199,0.03877472395971185,2.65625
-0.10850635858520628,0.6652419772213254,0.21634247601145223,-1.6934515282129199,-0.011981934447883936,-0.1307242689240356,0.035885100627052746,0.23040494257121694,0.8353782624902303,-0.021327279539483955,-0.12075838186195839,-0.05398412629176851,0.0860395978408496,0.07170568766666563,2.6640625
-0.08929041806334771,0.5469672007322529,0.17793640241281386,-1.3925894204020506,-0.009776319851856126,-0.10755248576535684,0.029544616242092488,0.18939666214088297,0.6868856632363168,-0.01753911277558051,-0.09929296476067224,-0.0443593699823371,0.07081290080126301,0.059015983839878425,2.671875
-0.02661418172007172,0.16152547098968467,0.05270611845900158,-0.4119493497306869,-0.0025899581367985784,-0.03198765276666968,0.008875278711441758,0.05566177123690684,0.20291517792469124,-0.005194686091425992,-0.02928125040959151,-0.012998620235075585,0.02117603092064318,0.017631071324091203,2.6796875
0.045585736595487696,-0.28237939285535063,-0.09154246401040002,0.7175761593701209,0.005685221887078903,0.05507372058233284,-0.014926769789261744,-0.09836897135770407,-0.3544626785215498,0.009026220412659722,0.05137756732480063,0.023121959952416386,-0.03599642156954888,-0.030039585135334466,2.6875
0.08545232103739432,-0.5274634301139982,-0.17119752423914897,1.341459974445279,0.010253956358793417,0.10317130449225784,-0.028066421540088815,-0.18340462747847433,-0.6622111798166551,0.0168825141240612,0.09592835836931499,0.043069083191420145,-0.06756757003842839,-0.05636751867128347,2.6953125
0.07600045784041569,-0.4693069323191075,-0.15233060067760995,1.193764287799583,0.009170701898958758,0.09180193887348322,-0.024950199165312447,-0.16323180134219487,-0.589265584985561,0.015022656792275822,0.08537674402944405,0.0383398880717357,-0.0600847177535997,-0.05014228077108561,2.703125
0.03998756003354042,-0.2478275549373065,-0.08038932992129866,0.6301490803052487,0.005042330031118544,0.0483792083385326,-0.013077431778196664,-0.08640584059011382,-0.3112546331324368,0.007924797129699918,0.04513025122195472,0.020315053189078423,-0.031562102494006636,-0.026374398098194352,2.7109375
-0.017681073539982384,0.10681200963163186,0.03484391705351504,-0.2724350450800832,-0.0015687632387389417,-0.021183194608579262,0.005937536910133608,0.03661350922918241,0.13396195405861147,-0.0034400444745699785,-0.019313456222176718,-0.008539896078423006,0.01411080815681272,0.011713549767261612,2.71875
-0.08370753948519671,0.512841829270823,0.1667821055983181,-1.305441041111242,-0.009135966943407632,-0.10082273005715857,0.027704620697072368,0.17745848885733423,0.6436582886225112,-0.016446273502501017,-0.09307272809370928,-0.04156323691577168,0.06639406676917932,0.05532685038213622,2.7265625
-0.07138887980537136,0.43708471225761114,0.14216734101795214,-1.1123640622569337,-0.007721643618242061,-0.08596253763662334,0.023637377914842425,0.15116649134407859,0.5485079409337745,-0.014015469091113062,-0.07929349375796671,-0.03539049781253698,0.05663097239836915,0.04718922080382488,2.734375
0.053012258212566464,-0.3279657044980587,-0.10640004503975074,0.8342067442963841,0.0065379735332883335,0.06407256337157378,-0.017378156173607693,-0.11422478609778713,-0.41184798448747223,0.01049337692993073,0.05968759545926627,0.026841896632965236,-0.04188539165274546,-0.034972594000354906,2.7421875
0.1466524317853311,-0.9039046799884338,-0.29349658354497865,2.2992152733772135,0.017269223550790358,0.17700076850891888,-0.048245288692526186,-0.31398065044043494,-1.1346622194279592,0.028939293589308773,0.16428654377521895,0.07367624125864465,-0.11603733407677734,-0.09681216394114163,2.75
0.08458983952038922,-0.5223176755163812,-0.16948756920241104,1.3280199944067999,0.010153494513032763,0.10214492615754202,-0.02778050356616111,-0.18156854298571318,-0.6554656509022064,0.016711056689217706,0.09494254532252018,0.04261970455286643,-0.06688876573585253,-0.055821673746763424,2.7578125
-0.03784432947139104,0.23063939897004904,0.0751436420872839,-0.5877749504694267,-0.0038811832717538103,-0.045516641644822574,0.012583627715578178,0.07963476119168357,0.28976885707327465,-0.007410305576591855,-0.04183257777637049,-0.018632992185465883,0.03006892518998771,0.02503550374923978,2.765625
-0.08620593546993083,0.5281540026265895,0.1717753516411724,-1.3447161755228199,-0.009425502524819341,-0.10384112039534066,0.02852827421740006,0.18281732425130331,0.6631507437463423,-0.0169399352083,-0.09585322101478744,-0.04282776673213923,0.06837151092263617,0.056973615181234026,2.7734375
-0.09594832527823759,0.5881241174479432,0.19124450523268702,-1.497360916157098,-0.010542953077924409,-0.11559058064011729,0.03174211991926616,0.2036051465365652,0.738353424562913,-0.01886137870417386,-0.10673955491178622,-0.04770255061310214,0.07608957637991245,0.06340625594683051,2.78125
-0.11946858062710262,0.7327407323128329,0.23823753952619925,-1.8653375902090659,-0.013238667205294706,-0.14396062633488238,0.03949529305165877,0.25377524909458604,0.9198933653394192,-0.023494790903846763,-0.13302303055283674,-0.05946924559010502,0.09471538961765466,0.07893735669851293,2.7890625
-0.08778522493863045,0.5378965554475197,0.17492997328801735,-1.369470032589875,-0.009606771814069428,-0.10575114422837782,0.02904870316360429,0.18618500943752378,0.6753049975524404,-0.01725049158201464,-0.09762536457666472,-0.043619822708266774,0.06963043348309242,0.05801718109729541,2.796875
0.008988675807086151,-0.057164717760126785,-0.01842916753251396,0.14479009434774587,0.001485616033083912,0.010971915256057781,-0.0028531749925788654,-0.020252389123606655,-0.07176048756302582,0.0018171108788382715,0.010499344201043601,0.0047927148181654625,-0.006995867878135905,-0.005886302883425471,2.8046875
0.0467279181580587,-0.2892201166203138,-0.09383850011399432,0.7354999601056424,0.005812885486676313,0.05650149785513332,-0.015294887473028432,-0.10076750884245038,-0.3631654144943061,0.00925399832305783,0.05266824930527428,0.02367881352714402,-0.03688337766900722,-0.030811724969305856,2.8125
0.003958309880504436,-0.02627022866048245,-0.008391224774390435,0.06672693506501888,0.00091420831168682,0.004919029488579396,-0.0012023743243439718,-0.00956373389024123,-0.033115044930828015,0.000830598697049998,0.004887258372935867,0.00229808293303096,-0.003029908399144882,-0.002574469019108362,2.8203125
0.016020887175550898,-0.10052095541584966,-0.032493137556897374,0.2557204778956041,0.0022999770855632747,0.019452337994109326,-0.0051871211972881635,-0.03533105862765851,-0.12631976666462724,0.003208899431181218,0.01836606693016215,0.008347786357156616,-0.012596146842871326,-0.010539567168971697,2.828125
0.10221358636844484,-0.6305895041982009,-0.204702909971564,1.6041916912081544,0.012180034162159471,0.12339577135878346,-0.033602829399563015,-0.21920754039448043,-0.7917494541564498,0.02018809876307018,0.11466181710313594,0.05147024148885573,-0.08085518519378045,-0.06745363351216577,2.8359375
0.12071259273719236,-0.7443945978998295,-0.24166368675190444,1.8933817163309032,0.014299136745680592,0.14570703693810172,-0.03969692826084469,-0.25865745242855787,-0.9345932723515223,0.02382879210186157,0.1353162666071327,0.06071619882141635,-0.09550466564079156,-0.07966997372367038,2.84375
0.05799781736672692,-0.35882109173289917,-0.11636166664282988,0.9120663321068436,0.007109081072840011,0.07006911538530856,-0.01901770657938969,-0.1248604483813611,-0.4504340122768247,0.011471963682962206,0.06523018546817114,0.029332808003658974,-0.045841358146491866,-0.038256843676054385,2.8515625
0.05379844865937782,-0.33301493833087176,-0.10796995633230162,0.8464130281835357,0.006626176703678642,0.06500628628224214,-0.017629341507345773,-0.11589027148508364,-0.41791095505861786,0.010646496421404358,0.06053446397390211,0.027227394540986195,-0.042509212326036355,-0.035480098105589594,2.859375
0.09184857473759553,-0.5668649080648565,-0.18398873968446494,1.4416373004771392,0.01098573835785257,0.11090848389272288,-0.030169290168827884,-0.1970388182156022,-0.7115160085983165,0.01814297075265107,0.1030612426135291,0.046256463122144466,-0.07262719042409432,-0.06060470693688845,2.8671875
0.004713714048882813,-0.030852199189005773,-0.009885079551345296,0.07791495815551705,0.0009958942118065883,0.005826003383288856,-0.0014419843904549148,-0.011134247365459066,-0.03873912434722503,0.000972286280578384,0.005724788349835484,0.0026530177801288575,-0.0036144016219068894,-0.003067711428511162,2.875
-0.16759970112926603,1.028820930448828,0.3344070547719094,-2.618550538967574,-0.01875703716242684,-0.2020034153684857,0.05536476875376232,0.35646964258736996,1.2915749371949117,-0.032979080990393955,-0.18679361623239377,-0.08355982657174395,0.13284232886439692,0.11072196156529106,2.8828125
-0.1886891745053212,1.1583998649487945,0.37654723152005953,-2.948544602712461,-0.021174140058644115,-0.22744668160039294,0.06231852726074609,0.4014621915280176,1.4543722441651354,-0.03713186676475182,-0.2103624522872552,-0.09410428586610213,0.14953769879450685,0.12465679620590694,2.890625
-0.04717125162627162,0.28805985587915806,0.09378558401130417,-0.7339290432903874,-0.004950213955370029,-0.05675780469244133,0.01566315158995426,0.09955408705807332,0.36173284483730456,-0.009245967626514185,-0.052246692800719044,-0.02328985375288502,0.03745972044075661,0.03120506024804227,2.8984375
0.01577487924436627,-0.09898217523145778,-0.031989946282981734,0.25127804532587644,0.002267332905997751,0.01916928368003504,-0.0050949118766389434,-0.03475346296099791,-0.12431600688962915,0.003157418638349969,0.018091806666241866,0.008211000624268223,-0.012397532049919514,-0.010374303757563678,2.90625
-0.052513882453139545,0.3209903172443548,0.1044537123711194,-0.817198783402323,-0.005559928052181837,-0.06320218640993744,0.017410918853429578,0.11090291631592757,0.4029247250367561,-0.010297348815039836,-0.05820142832925382,-0.025953429915987404,0.04167575372435298,0.034712533438782944,2.9140625
-0.05117366381887514,0.3126577027708168,0.10177963106759702,-0.7963106298283177,-0.005406732719273677,-0.0616060374388596,0.01696804553473386,0.1080382748749276,0.39265742645935187,-0.010034293279432558,-0.056714876203485455,-0.025286839915746515,0.0406163444484719,0.03383425164121167,2.921875
0.05561460942920363,-0.3440957075255996,-0.11159306347324219,0.8746314003974318,0.006833974776364604,0.06718594398763857,-0.018233645808986725,-0.11976810580514802,-0.431833431773542,0.011003408031413961,0.06258360460282394,0.028134575458448562,-0.04394441557434744,-0.03667895283412807,2.9296875
0.0773344925422143,-0.47752456816586625,-0.1550022115030682,1.21456517969364,0.009323175904172424,0.09340258707287767,-0.02539132592128235,-0.16609922933085428,-0.5996455465100388,0.015280751455161471,0.0868523362034976,0.038996149420663914,-0.06113797310765245,-0.05103198713328979,2.9375
-0.0022629494390886706,0.012122497718581331,0.00403445636062824,-0.030844877103377185,0.00019836187674786914,-0.0025797373935116125,0.0008506356025925427,0.003711691211146834,0.014884308257088462,-0.0004006551544188881,-0.0020666204964281654,-0.0008282118791488216,0.0019024194495120838,0.0015216658197217223,2.9453125
0.00921739657935713,-0.05854567888832323,-0.018894168555121722,0.14887695378896496,0.0015148341511563564,0.011257802771187615,-0.002933988832971014,-0.020773180731181937,-0.07361066680238641,0.0018643436488299415,0.010763354846028297,0.004918065388751134,-0.007184329411086161,-0.006049140416341294,2.953125
0.10922193633568884,-0.6736939999400402,-0.218701770117205,1.7136822026278142,0.012979082190888143,0.13185101611489541,-0.03590242949467254,-0.2341143271348682,-0.8456273523617139,0.021567055363119057,0.12248157732543721,0.05494996360336767,-0.08637731883191893,-0.07207476925144282,2.9609375
0.07959974527809496,-0.49148270486491197,-0.15952353969018004,1.2499133851039255,0.009582111056626624,0.09613126214879227,-0.026134365067341868,-0.17092167613968995,-0.6170088073978862,0.015725717601375786,0.0893710422018913,0.04012079264798838,-0.06291935767481244,-0.05252435540973282,2.96875
-0.09499229784700908,0.5823739388571125,0.1893064058328754,-1.4823865271200474,-0.010434197944764679,-0.11440861927499724,0.031428941225569634,0.20155143282109328,0.7308466883063994,-0.018676669932007544,-0.10569743509462036,-0.047237241865683496,0.07534175214738399,0.06274694911582855,2.9765625
-0.1661004452645207,1.0196374769495007,0.33138465072968715,-2.5951684924951572,-0.018585557136742793,-0.20016519821935658,0.0548741088970667,0.35326583140041273,1.2798418286746704,-0.03268487400988158,-0.18514081991202086,-0.08280866743915168,0.13165085217705166,0.10970963437908252,2.984375
-0.021532646768563722,0.13030954444620615,0.04255233282029022,-0.3327415921580948,-0.002009595573976445,-0.02584774295010736,0.0072090087580225694,0.04485461535201876,0.16373390439793914,-0.004195999429900271,-0.023615500485420254,-0.010460437154839247,0.017156264772202945,0.014281165219355218,2.9921875
0.1554006385266226,-0.9580152042948917,-0.3109438838563832,2.436304002659957,0.018277330938556175,0.18750680256696306,-0.051130292839330176,-0.3326222190541567,-1.20227658458334,0.030670852036096496,0.1740785233899788,0.07808531160985363,-0.1229765400035232,-0.10252731027925698,3.0
0.1690934119836962,-1.0422147600183518,-0.33829627207290847,2.6508395107067906,0.019848051023501193,0.20402935087503304,-0.055647831120524,-0.3618476753550868,-1.3079869938352797,0.033373395574566346,0.1893923997501028,0.08494713631687734,-0.1338328430172046,-0.11157390044203463,3.0078125
0.049323033972165385,-0.30549998489750674,-0.09900214681268903,0.776653165633117,0.006115600126982759,0.059608377638175246,-0.016158479000117097,-0.10633965560738436,-0.3832942724046762,0.009774096079986722,0.05557799272866582,0.025013752487628688,-0.038982117674238384,-0.03250751971336711,3.015625
-0.039493555722004255,0.24084576646121114,0.07844542602061194,-0.6133264142864048,-0.004068273582798204,-0.04750353965319591,0.013124376653091215,0.08312578779053985,0.302387171359712,-0.007731709578709484,-0.0436645147581592,-0.019440596214198518,0.03136524744932075,0.02612470449618533,3.0234375
-0.03266313749882374,0.19893662062572373,0.06479447195164596,-0.5065615444892417,-0.0032849458230518043,-0.03927407315369909,0.010868236213806653,0.06853548763446508,0.24961650983478145,-0.006390547008744151,-0.03603549030487036,-0.01602967159036709,0.025963683513509674,0.02160584071587926,3.03125
-0.03601313972664512,0.2196220115324514,0.07148018123106985,-0.5591125968563201,-0.003668954491788479,-0.043305426259760214,0.011970496032028415,0.075685841945413,0.2754986325023862,-0.007051345521132765,-0.03977447634547119,-0.01770772759183219,0.028620625225189555,0.023808828192252097,3.0390625
-0.12395967034862401,0.760531374446302,0.24718642553843906,-1.9356044854568855,-0.013753801645675733,-0.14935583422421628,0.04097055814114153,0.26333886547733926,0.9545650840507376,-0.024381276888092402,-0.13804253800846178,-0.061722671734499586,0.09827548295207406,0.0818753781515011,3.046875
-0.1747318088985552,1.072751431380398,0.34862812274679605,-2.7303365223328213,-0.019576545659402842,-0.21058941534049666,0.057714819580416285,0.3716774999377196,1.3466143161943516,-0.03438761394193857,-0.1947802745670826,-0.08713756598397827,0.13849017741770994,0.1154049127687874,3.0546875
-0.07730361754573446,0.4735288845905913,0.1539756911410061,-1.2056640805234442,-0.00840598075206,-0.0930927004564185,0.025593358687335716,0.1638259908569684,0.5944299570622829,-0.01518911670475945,-0.0859176727200287,-0.03838456276141986,0.06133408746588621,0.05108031301217839,3.0625
0.0340572488423074,-0.21131613514622827,-0.06852214245323815,0.5371659118311273,0.0043617653952441136,0.04122584319361974,-0.011120814800452308,-0.07374360048680412,-0.2653429013081823,0.006757079535921991,0.03852181468219625,0.01734202287287437,-0.02685481448177882,-0.022451349432191323,3.0703125
0.01778142340943398,-0.1111723748771076,-0.0360153923366148,0.2825177777763241,0.002493238774909737,0.02161208864626135,-0.005749127463352266,-0.039000375930560514,-0.13969014937491098,0.0035492256859491153,0.02033352793850934,0.009188091948226658,-0.013959407600802864,-0.011711263633975181,3.078125
0.009825400182442138,-0.06229014096195225,-0.0201257775110485,0.15805812271795308,0.0015789015597774548,0.012003201399520949,-0.003123010760908879,-0.022031494021382537,-0.07829738665235082,0.001976683495543411,0.011417554819270587,0.00519615964408466,-0.007659907717120981,-0.006461074647579841,3.0859375
0.13261652579323327,-0.8175950705153882,-0.26545002839178283,2.0798120451148554,0.015659230002313063,0.16006174550414876,-0.043611236828371196,-0.28403566728791674,-1.0263876410889792,0.026170662708094348,0.1485921952274191,0.06664827058767071,-0.10491439500626298,-0.08753159541316452,3.09375
0.18625360053382983,-1.1475619067486866,-0.3726005889684062,2.919338794339842,0.021813580677995683,0.22473593015590063,-0.06130121564004992,-0.3984917489602165,-1.4405547640784488,0.036744717294586345,0.2085297392286873,0.09350934035189176,-0.1473987133428497,-0.12293152100118163,3.1015625
0.02802864707316104,-0.17450337094923007,-0.0564638719251302,0.44316836936844534,0.003675322680559268,0.033914701439032795,-0.009137579186114535,-0.06091258724638395,-0.21893947711206418,0.005573489960350701,0.0317681510704563,0.014347315700425313,-0.0220915126404965,-0.01844098723644254,3.109375
-0.08921766034956624,0.5465093355081482,0.17779312658726304,-1.3918212557530816,-0.009767995711787065,-0.10749678256589411,0.029516507458596925,0.18924569095664945,0.686354167661438,-0.017527110212925755,-0.09922201874975144,-0.04432103977209558,0.07075812327233366,0.05898359146317858,3.1171875
0.014562639665570528,-0.09180145957592822,-0.02955210183281479,0.23222965090427922,0.002129679378736441,0.017650692180444547,-0.0047010956402905296,-0.032176329241314784,-0.11487143004570088,0.0029214608300377034,0.016724345991747547,0.0076132006462792,-0.011442808956145339,-0.009543236562877071,3.125
0.07217006828149991,-0.4459910018337761,-0.14464644945202385,1.1338742468492566,0.008735544607307084,0.08714456538782966,-0.02369298367234794,-0.1550998697486949,-0.5597240556113389,0.014272190780170417,0.08109164326253776,0.03644835392750483,-0.05707329955390185,-0.047590588054386415,3.1328125
