AF3,AF4,F3,F4,F7,F8,FC5,FC6,O1,O2,P7,P8,T7,T8,time
0.05719639053161527,-0.007807044289375126,-0.0017823298933259458,-0.0003677431486664073,-0.0074399625680700125,-0.008516095417144272,-0.003902761171427701,0.435590188779123,0.005474221744158041,-0.48518688318934927,0.013473210293416023,0.00030567012847778155,-0.011199582698405541,0.013986135871799536,0.0
0.0009749046889209169,0.0006169546650888082,6.73853146309544e-05,0.00129145850159287,-0.00024002680723810815,-0.0007150501048569359,0.0006447944757674261,0.009205751986283553,0.001530183312819356,-0.012174062023293065,0.0014636920737805122,-0.0015052337330260337,-0.0008690193880222795,-0.0003561572083097151,0.0078125
-0.01380680868893337,0.0028125295417086864,0.000553078138547229,0.0017272291211921367,0.0016576209066876777,0.00133383381072042,0.0018370071929146021,-0.10228513207950492,0.0004969265515296881,0.1115864734113587,-0.0016886091660075703,-0.0019779755392275284,0.0018346425629911375,-0.0041158520503485375,0.015625
0.03597122838729568,-0.00465908409951777,-0.0010849591180443524,0.00025792037420013965,-0.004714264024441188,-0.005573484925111337,-0.0021928380427260427,0.2757189355507394,0.0039912624522098926,-0.30764656139737584,0.008951144065605772,-0.0003714651331083389,-0.007323661394416728,0.008592960349479008,0.0234375
0.0696961984051276,-0.00970208082873904,-0.002193990671298828,-0.0007370597109960849,-0.009037620817308445,-0.010250173661263419,-0.004922100818528449,0.5312084052582564,0.006354358449527636,-0.591005669770462,0.016153552186144764,0.0007149140658587673,-0.013523450220545845,0.017195837239555097,0.03125
0.031444906782550616,-0.003949756294328017,-0.000934721515332601,0.0003922088758947772,-0.0041472358017340585,-0.0049396316031157924,-0.0018263114541197793,0.24038576398792078,0.0036654794474342343,-0.26837611879754136,0.007973607734076876,-0.0005197902434452349,-0.006488691006965852,0.007429957545235141,0.0390625
-0.027815820264156094,0.004935082780283286,0.0010148750581066917,0.0021405344816552946,0.003438412609406548,0.0032822339934995832,0.0029710655507411304,-0.2092356177311984,-0.0004939854524346669,0.23042515730220642,-0.004687543552846441,-0.002430794949131108,0.004409620789179634,-0.007691261877852717,0.046875
-0.04528700386874322,0.007539392119733036,0.0015890454101983832,0.0026547533214325843,0.0056784201835325,0.005702687099260453,0.004386263728641488,-0.34123804025915694,-0.0017166062132232228,0.3768686225146539,-0.008411767958339887,-0.0029934768897563043,0.0076224080657944625,-0.012145936112383992,0.0546875
-0.03522944523358146,0.006023859129651061,0.0012588173228418253,0.002357643696271997,0.004392596385909172,0.004305855471444192,0.003570218909486081,-0.2648216571696615,-0.0010074032388717232,0.29190764970026084,-0.006261804054186314,-0.002669495340064875,0.005767925052796762,-0.00958400868239111,0.0625
-0.0017824680369073896,0.0010149773711380554,0.00015975866807057767,0.0013720369471721227,0.00011259653681343122,-0.0003325897240522963,0.0008622836760703734,-0.011608514090895071,0.0013398564705174264,0.010738340934072318,0.0008698926123576527,-0.0015935996659207235,-0.0003820418549997575,-0.0010614663034783744,0.0703125
0.11000158014416916,-0.01575003157257174,-0.003519789633995007,-0.0019261422560224615,-0.014187738407993457,-0.01584284296688211,-0.008176209323214619,0.8366227631322691,0.009183302341398546,-0.9300245840974991,0.024739236789951827,0.0020083105206247804,-0.020916099207953828,0.027461197678935435,0.078125
0.2432596376186112,-0.035754767680781806,-0.00790914568533319,-0.0058606781568939946,-0.031233958780730108,-0.034338567814452464,-0.018949267650456455,1.8490095753245852,0.018536028882221167,-2.052373317968584,0.05321579293196388,0.006306801839035878,-0.04539514445219042,0.06148267671884584,0.0859375
0.17804857620237569,-0.025984600023562617,-0.005765030091871118,-0.003938263651528176,-0.022890827701441373,-0.025295459058683606,-0.013676210477653656,1.3549227198499494,0.013961625612951155,-1.5040314021510468,0.039302025998366207,0.004209508143800194,-0.03341734079172447,0.04485655618920853,0.09375
-0.1295564814710687,0.020176139067908196,0.004362072928697141,0.005140869691396114,0.016459523583580504,0.01738893553054558,0.01119484925936094,-0.9805272148290156,-0.007626870267545302,1.0858755428235,-0.02640783307381876,-0.005705692718708294,0.023093208837554436,-0.033649234275170276,0.1015625
-0.34583612973893163,0.05265217155039349,0.011485305171056925,0.011527082809433072,0.04412466744035465,0.04740649831237812,0.028681738737447362,-2.623618587356236,-0.02280952560733276,2.9076336428290395,-0.07262052250564772,-0.012681860004628925,0.06283116945916115,-0.0888616232420129,0.109375
-0.19756729526821487,0.030418817057850617,0.006605824649269476,0.007152817148297444,0.025153289540471552,0.026836294490981925,0.01669251950122268,-1.4985613378995024,-0.01240669075553377,1.6597953373170673,-0.04094878255422652,-0.007905360776718119,0.03559542326096718,-0.05102571858228504,0.1171875
0.0827601381162,-0.01165400313867698,-0.0026246643578342536,-0.0011223635104693646,-0.010709964111740142,-0.012065391558807396,-0.005973776639994356,0.630231959380625,0.007268684188473156,-0.7007656233648955,0.01894500036421632,0.0011330725931078315,-0.015906954657510308,0.020531337775969386,0.125
0.1101265056878867,-0.015776421745483847,-0.0035282197819414694,-0.001933102245201203,-0.01421002673527313,-0.015867568441004263,-0.008184895564709435,0.8387314435291978,0.009193164279858545,-0.9317292204714779,0.02479539935045007,0.002018312237321192,-0.02093884970429091,0.027524983820559925,0.1328125
-0.06618364869160989,0.010678679165959215,0.0022761351711897905,0.003269264312772363,0.008345554328918358,0.00859788031106524,0.00607215569700358,-0.49985283240639933,-0.003178618830387768,0.5527026540440365,-0.012873676286436573,-0.003665568644894327,0.01145014222608663,-0.017482566137164784,0.140625
-0.12824428970035961,0.020000689313246035,0.004321365814020306,0.00510229530572191,0.01628428898847327,0.017213945659013873,0.011088432853787219,-0.9714734145010204,-0.007534962484299207,1.0755017426521412,-0.026132451264037324,-0.005668479690306439,0.022852919396140745,-0.033334491363879844,0.1484375
-0.022087246117139265,0.0040703413362965565,0.000827764015030358,0.0019714058796886347,0.002705293519282948,0.0024858097795451596,0.002502291538968854,-0.1656242186420789,-8.647120937239464e-05,0.18167907943939168,-0.0034501692788770533,-0.002246652183337776,0.0033524555687845284,-0.006235463559935456,0.15625
0.08749667960690641,-0.012386448447949984,-0.002780025253299387,-0.0012613476157276257,-0.011308222770561099,-0.012720224340310681,-0.006357745824194577,0.6664566359166347,0.007602583775987378,-0.7411275893385121,0.01995237402195615,0.0012869752421255307,-0.016779792078082608,0.021744478001015904,0.1640625
0.1704812312622823,-0.024843975966849136,-0.005511465764031243,-0.003709870990161692,-0.021918523271902208,-0.02423272745447139,-0.013064473916859562,1.2961962748670124,0.013425497948395999,-1.4395600574441203,0.03765685297244399,0.003960772289254016,-0.03202859311735932,0.04291442412948133,0.171875
0.24591038705188387,-0.03615258658483154,-0.007993678349762548,-0.005936235927841727,-0.03156603012558621,-0.0346954698138147,-0.019161908234652268,1.868431550900724,0.01872036775275768,-2.0742152718446083,0.05375713732091239,0.006389842021064799,-0.04588903224394503,0.06214189166402415,0.1796875
0.18983956725235193,-0.027731191120349104,-0.00614892487175909,-0.004282702049573323,-0.024394443251704003,-0.026917149396577928,-0.014629136041506684,1.4430222520121097,0.014788364325933601,-1.6022866493047205,0.04179476862633547,0.004583814790120657,-0.03558637455666189,0.0478290752010357,0.1875
-0.025527656822181347,0.004579944387955828,0.0009379842825340636,0.0020719603162427215,0.0031541500167831557,0.0029592623061720997,0.0027841762307545277,-0.19116424427503673,-0.0003252854485036492,0.21038788774361955,-0.004187307023175145,-0.002353735591922802,0.00398458782925638,-0.007111565553074463,0.1953125
-0.18445062525446143,0.02842145012365672,0.006168511432114602,0.00676210135745602,0.02347990360946365,0.025006330328283356,0.01563474477436991,-1.3973586550251473,-0.011482425015970734,1.5482950764001295,-0.03813094195925955,-0.007475004633344725,0.03318460465387155,-0.047650719883091816,0.203125
-0.1895413818610984,0.029193138601744145,0.006338221504277094,0.006913291702086726,0.024124218774470352,0.025713527103448888,0.01604633063327928,-1.4366350165389066,-0.011844716217882804,1.5916659070668675,-0.03922807404063483,-0.007643194667304298,0.03412193303444399,-0.04895154576603815,0.2109375
-0.21278863940228346,0.03269238702221422,0.007105785918963852,0.0075996042728301745,0.027094153067666042,0.028939883865345316,0.017925217972742276,-1.6137625928602986,-0.013476483982942324,1.7876974369407956,-0.04419490743985946,-0.008396476613477838,0.038395558981201894,-0.05489211717370492,0.21875
-0.27460149189424676,0.04196441737372257,0.00913998222406656,0.00942275893927932,0.035005374307069,0.03751543360932996,0.02292264713699228,-2.082772678231994,-0.01780916972116332,2.3076955828480243,-0.057388124062729286,-0.010387412791885396,0.049751328324574705,-0.07066732415803122,0.2265625
-0.12832900584402993,0.02000119501166292,0.00432254526856751,0.005104694676494957,0.016300668201932097,0.017220415808047316,0.011094247861953715,-0.9715385410114254,-0.007537659993224102,1.0755636619160112,-0.026136999659835115,-0.005667958605940909,0.02287029958223807,-0.03333769120819717,0.234375
0.22048911795515014,-0.03234628980323016,-0.007160836877013839,-0.0051900480009778776,-0.028320779577621726,-0.031175842924426402,-0.01711250486450803,1.6768277277625963,0.016943742346755906,-1.8612620872562942,0.04836762723358879,0.005577265260230712,-0.04122424245716581,0.05567488815278681,0.2421875
0.38260057832550937,-0.0566600860007916,-0.012495749508349393,-0.009973896716560475,-0.04906528534912037,-0.05366721911445766,-0.03022028312324104,2.906954877524481,0.028316058961543742,-3.225504380155494,0.0829863812443385,0.010799533015990398,-0.07100654984810863,0.0970369411378837,0.25
0.19994273233872614,-0.02923779033236332,-0.006481392211457085,-0.004582645265468263,-0.025702780134410904,-0.02832277430642688,-0.015446085742965538,1.519665584893261,0.015491239875454987,-1.6870944328897373,0.04396346690365903,0.004907805160238671,-0.037435680365932936,0.050417832060152046,0.2578125
-0.0035983875757932536,0.0012998000485456404,0.00021851527563919356,0.0014248544442119692,0.0003416097280548933,-8.022257852327665e-05,0.0010166053686005473,-0.02545775838926089,0.001206395893378927,0.026443912754371045,0.0004834688145803942,-0.0016535305560636318,-3.122051108115666e-05,-0.0015248557144481433,0.265625
0.0059841675545854985,-0.00015616645367267867,-9.800280176270484e-05,0.001142735101313846,-0.0008738209006339395,-0.0014092116523732887,0.00023966462537914748,0.04780205951729929,0.0018844707369862134,-0.05485227160044318,0.00253113535476948,-0.0013415101241911163,-0.001798355598392047,0.0009260767087981318,0.2734375
0.04479459196223778,-0.0059850647696325825,-0.0013751955003538758,-1.5084499713560759e-06,-0.005837553866353424,-0.006795434606866679,-0.0029058008868063567,0.3425045933607102,0.004611883013924962,-0.3818560588450268,0.010824550830871752,-8.769107588398633e-05,-0.00894442061421043,0.010836413511538905,0.28125
-0.04212657928779091,0.00707454314412057,0.0014876481007645012,0.00256489432691493,0.005272366963458535,0.005263941297086652,0.004118560547209928,-0.3179229238299685,-0.0014915401420827468,0.350449589688259,-0.007740997848311976,-0.0028899985626015946,0.007018282681933236,-0.011345073521302314,0.2890625
-0.09672603211875794,0.015281837812252118,0.0032852261445945265,0.004176193432946995,0.01225060087208545,0.012840266601151189,0.008536484505050625,-0.732806012758619,-0.005328153549222189,0.8106603460751222,-0.01940763743340966,-0.004652139590479258,0.01705742546131628,-0.02528267954765722,0.296875
-0.02697060574383787,0.0048045816300929895,0.0009872072616232703,0.002115930055164006,0.0033323803772848807,0.003161146892309921,0.0029010935340432003,-0.20285492375013056,-0.00043177767024908464,0.22311912870100142,-0.004511132103539488,-0.002403859785707555,0.00425217310402256,-0.0074813007171059915,0.3046875
-0.015166958894804962,0.0030117460380476527,0.0005970229011596135,0.0017658536438461773,0.001829944230261113,0.0015207453298207725,0.001948007511791176,-0.11251808291406284,0.0004007780292068182,0.1230217192082098,-0.001986008183207882,-0.0020212965471434153,0.0020844501622441893,-0.004461570161757175,0.3125
-0.13736491856811184,0.021343587879677706,0.004619980998392112,0.005371856346954908,0.01745965813361748,0.018475232323949667,0.011827406860813542,-1.0400031141363768,-0.008175200836118402,1.1516466870745579,-0.02808072514528841,-0.005959070076739302,0.02452897585057383,-0.035639400584257894,0.3203125
-0.1878152375459214,0.02893110313654246,0.006282224289303176,0.006861562963708587,0.023904807529172237,0.025478858411286994,0.015906163105017267,-1.423504771468546,-0.01172048347270311,1.5769987007534882,-0.03885600163841796,-0.007586828869969408,0.03379577742038827,-0.048516628259540256,0.328125
-0.06681252121880768,0.010791242252171455,0.0022995954020810978,0.003291280030823097,0.008423360354923396,0.008692141428314487,0.006123010926049052,-0.5054252174506892,-0.0032313470037656803,0.5588275014471943,-0.013013037540636334,-0.003688526541273957,0.011571490791003771,-0.01764417049815041,0.3359375
0.04926078669341657,-0.0066271452442935915,-0.0015221734748492774,-0.00013425279929090808,-0.0064191542219475045,-0.007416603587099882,-0.0032614129801200936,0.3758601734918951,0.00491676948737062,-0.41860083911807144,0.01178266882067022,5.2880998764822395e-05,-0.009744812353020679,0.011976124450610385,0.34375
0.06535860154975268,-0.009056767724416144,-0.0020530887434292763,-0.0006100469686819063,-0.008473768177070656,-0.009655027943717939,-0.004563010035668601,0.49862323126614216,0.00605076005905555,-0.5547781423739672,0.015228309893322339,0.0005728029452901173,-0.012701175579253602,0.016086573765719713,0.3515625
0.09541768608509599,-0.013575456807087728,-0.003042289254009462,-0.0014978526564988844,-0.012321053320419184,-0.013823662276650227,-0.006995066225310124,0.7270062621184873,0.00816318114533818,-0.8080873595916985,0.02164756229842304,0.0015411414725323832,-0.018232299582424366,0.02375133690887257,0.359375
0.13622963820463108,-0.01969397434642151,-0.004384177122032754,-0.002701904086713301,-0.017545884548749006,-0.01947941765055012,-0.010297509352701602,1.0363291824032024,0.011027349130593406,-1.151299171771563,0.030353363387022148,0.002854637858186006,-0.025739078889165108,0.03415520284570899,0.3671875
0.040791660809486964,-0.005367130751856922,-0.0012417859372693201,0.00011562960976430291,-0.005338188731621179,-0.006237403153617935,-0.002581770094630942,0.3114105138503958,0.004327119149488021,-0.34751576644738874,0.009964014215947848,-0.00022156077440713763,-0.00820431612917132,0.009805600778310629,0.375
-0.1148961020139441,0.017988193930779106,0.0038813492549706037,0.00470978489212352,0.014578740047742438,0.015353912193990295,0.010008184651731263,-0.8700004858378031,-0.006601170019083724,0.9628702961586594,-0.023276994688342118,-0.005236164329899635,0.020405568095182673,-0.02989968959041983,0.3828125
-0.08337120976261728,0.013250048465144786,0.002841191752049486,0.003777503042751152,0.010546071346013866,0.010972472902933508,0.007461113855607433,-0.6299241158575813,-0.0043883690400907715,0.6970395443010516,-0.016530456488876116,-0.004216751347276165,0.014615251981058406,-0.02184277464306455,0.390625
0.0937038530951156,-0.0133121877552588,-0.002987013028022332,-0.0014485655229446884,-0.012106154283212402,-0.013589210970879173,-0.006856781552623785,0.7140938701716203,0.00804008244851032,-0.7934273004449388,0.02128376109301964,0.0014891210794402408,-0.01792274848941287,0.02332125997994184,0.3984375
0.12860509612148757,-0.01853232569881085,-0.004132332686732469,-0.002475846875864937,-0.016569577257334763,-0.018418010706664975,-0.009680323329467973,0.9779779582306335,0.010488883579528293,-1.0865101538278519,0.02871892499313057,0.0026094420507601778,-0.02433841204731305,0.032196115153183706,0.40625
-0.005756132653712959,0.001631108580738347,0.0002921567344201559,0.0014919017464080947,0.0006209068692807044,0.0002282477920002768,0.001182945561830992,-0.04244866261854573,0.0010577552106412471,0.044849998990380696,1.4984929004273448e-05,-0.0017224290182402987,0.000348937021738036,-0.0020894226085793268,0.4140625
-0.05889009798446046,0.009590963785232743,0.0020388640644455154,0.0030593984687426645,0.007419372564118146,0.007594495198293959,0.005479578651234579,-0.44516173936774756,-0.002671214643125149,0.49173978096295823,-0.011323996100257484,-0.003431510014228585,0.010112002598521947,-0.01562198624337221,0.421875
0.035048671661982,-0.004512357027659793,-0.0010559579686247236,0.0002850350127280028,-0.004598995535923645,-0.005442589116807643,-0.002115253452239189,0.2685545461311009,0.003922985063779551,-0.29935324869536595,0.008743194269611544,-0.00040131687084906184,-0.007151158496942212,0.00835796783017905,0.4296875
0.09350973092011552,-0.013282086372811183,-0.00297999446334276,-0.0014410170544111596,-0.01207922943706695,-0.013552407571125705,-0.0068413087521048644,0.7121997148306056,0.008027306106878096,-0.7913879365045488,0.021219718330289135,0.0014810059599664862,-0.017895811705473268,0.02325796948843601,0.4375
0.0453940632049087,-0.0060648620882967665,-0.0013948264577051664,-2.074679511807531e-05,-0.005922258260795621,-0.006879211067851344,-0.002950205962122977,0.3467833323815893,0.004651677901404939,-0.3864586438057254,0.010940879258879365,-7.181914207263564e-05,-0.009052641938395719,0.010970797908749353,0.4453125
-0.011770766610644303,0.0025029603723455687,0.0004865046550656204,0.0016661937971567554,0.001393885176508844,0.0010453328155692805,0.001671499697842607,-0.08678343612270206,0.0006397501407697085,0.09431395408654777,-0.0012534912113339742,-0.0019124558343129635,0.0014569667575081158,-0.003597100457327026,0.453125
-0.05189648086904369,0.008522945793779128,0.0018065977636197085,0.002850293418580825,0.006525337924652306,0.006611901357174996,0.004915281830145613,-0.39118144927192955,-0.0021795067425538464,0.4321016935891441,-0.00981299989811406,-0.003203648709750272,0.008832951990706642,-0.013814424328243882,0.4609375
-0.12313606376647654,0.019224998433366666,0.004152792287042297,0.004953424843161277,0.015631858598245008,0.01650262602811761,0.01067642060235948,-0.9325525745986281,-0.007183725260319448,1.0324691885928177,-0.025037787926215957,-0.005502272576541954,0.021922870284127347,-0.03199581578194563,0.46875
-0.18976094970232313,0.029232706601696076,0.0063477186307016745,0.006920220112363568,0.024151581852809377,0.02574945521541898,0.016065216306544495,-1.4389485223243692,-0.011859949015549504,1.5937322866977601,-0.03927810300874426,-0.007654085607823815,0.03416738461680063,-0.04901431012900656,0.4765625
-0.18360781876489538,0.02830812444326372,0.006144901249464295,0.006737921749683543,0.023369139971593376,0.024891285205952164,0.015567378010964094,-1.392024087923876,-0.011423367209624514,1.5415414035084472,-0.03795495222481497,-0.007455597812854341,0.03304044712188845,-0.047451595677330295,0.484375
-0.12111790369845188,0.018925977685183046,0.004085880599810142,0.004892533391450316,0.015380216600734024,0.01621816536729382,0.010512040062726387,-0.9169594922796429,-0.007034020305044232,1.0150034462434094,-0.02459353150815093,-0.00543658227261724,0.021554912587443634,-0.031499869317849545,0.4921875
-0.03964962060967093,0.006702303101794762,0.0014032407229792674,0.002488099930425342,0.004956003333877339,0.004918612356339676,0.0039230496080612555,-0.2983982548388511,-0.001318222210169682,0.3293607332053432,-0.007197507860888437,-0.002807975175208049,0.006576692644053157,-0.010708137940232584,0.5
0.05772137736221972,-0.007901573709055277,-0.001800710244874434,-0.00038461946882032696,-0.007506309641541969,-0.00858696001624818,-0.003948572693638981,0.4401385140923454,0.005511792325782978,-0.4898053348172456,0.013581199734757798,0.0003270897044845314,-0.011315934662554105,0.01412982920864942,0.5078125
0.1339887232938016,-0.019341533290337432,-0.004310023920430944,-0.0026348512146892812,-0.017263725044792094,-0.01917026245386755,-0.010112024331722053,1.0186325379966557,0.010864476145699298,-1.1317431146045904,0.0298634525726037,0.002780493265690339,-0.025319488384234118,0.033580761194078323,0.515625
0.1485262228804561,-0.021529981627950587,-0.004789560068590697,-0.0030643592348991258,-0.019117719227806203,-0.021191858872061396,-0.011286277673385909,1.1294055018761466,0.011888579148180286,-1.2546297004540123,0.0329783738822578,0.0032497388096953995,-0.027984633096294884,0.03729212455377918,0.5234375
0.16878253244023433,-0.024584581319052518,-0.005458256575348148,-0.003662879970481332,-0.02170323066537611,-0.02400388463617236,-0.01292769142994656,1.2840308967289245,0.013313591004851247,-1.425748435406965,0.03731505807881146,0.003908289667726846,-0.03171753494485739,0.042472727826729326,0.53125
0.2594826837081009,-0.03820052195424583,-0.008443615188722497,-0.00633933968119524,-0.03330598220176519,-0.03658463228946246,-0.020267217938275444,1.972769287942582,0.019678933933807964,-2.1893551543918344,0.05668562873579811,0.006834803191723986,-0.048399208777361306,0.06562143432259906,0.5390625
0.2906002143319497,-0.04285709273873266,-0.009465541047799505,-0.00725636491750256,-0.03729173927181489,-0.040896376426715494,-0.02278452461745916,2.2082901211395543,0.021858849159225938,-2.450729084469864,0.06332386726002924,0.007834341057294733,-0.0541163094055879,0.07355344642865351,0.546875
0.11346066771432589,-0.01626247702685627,-0.0036336804068856526,-0.002027733157864992,-0.01463525191899114,-0.016316385620285357,-0.008455873237914172,0.8629838256719358,0.009422020502533577,-0.9589031029576299,0.025485376032438837,0.0021203860944052745,-0.021551836262742326,0.02834853879170244,0.5546875
-0.12810297207711785,0.019976954533422697,0.004315736491381809,0.005100485964120176,0.016269104254577463,0.01719621405516588,0.011081566090742137,-0.970363459211303,-0.007532009896727584,1.0745192473359708,-0.02610641888612987,-0.005664151028372522,0.022841822863049966,-0.03327895044196128,0.5625
-0.1884040893181054,0.02900359612123626,0.0062986938631893995,0.006878421134796198,0.023989206167732147,0.02555695088969493,0.015955115060856194,-1.427285757120632,-0.011759272064308303,1.5814343768378187,-0.038980688341387904,-0.007602589790499252,0.033909857970816824,-0.04865335445966783,0.5703125
-0.13802397407610784,0.02144177630588361,0.004641844647980016,0.005391314128674486,0.017545023804479067,0.018565191160190113,0.011876182819343923,-1.0449183925383188,-0.00821968239075352,1.157098753169755,-0.02821824207056406,-0.005977967867003495,0.02463988582028306,-0.03580556089368112,0.578125
-0.18657713280809213,0.028752995452674786,0.006243204028233924,0.0068258544859109635,0.02374914447680352,0.025305002642061893,0.015802683426536103,-1.4145630642579299,-0.011630108908121302,1.566555743019886,-0.038591217828309106,-0.007548136574829598,0.03356818492883763,-0.048214098977015785,0.5859375
-0.22958666716593887,0.03522728293573628,0.007659453947424911,0.008096467884734202,0.029246510245562136,0.031274764470332964,0.0192858557269477,-1.7417279250848103,-0.014653627237035671,1.9292671763798719,-0.047780494554245934,-0.00893856107996615,0.04149013769591675,-0.05919482083780285,0.59375
-0.08943192269201077,0.014184458548525736,0.003043499807468273,0.003959335517249695,0.011322545720246349,0.011825778315159623,0.0079552579727148,-0.6772086656595153,-0.004816363040627575,0.7489741795252616,-0.017844330323242008,-0.0044192449741926,0.015744763799291014,-0.023419286451332837,0.6015625
-0.008287920744754717,0.00198060645101667,0.0003706219561632906,0.0015627989129961594,0.0009488269164936347,0.0005615727560377702,0.0013910706912106513,-0.06027470438602113,0.0008835358225526598,0.06501322275645517,-0.000509749876050913,-0.0017996048951617264,0.0008228794539730833,-0.002699548385347947,0.609375
-0.2510250461669639,0.03839656473180279,0.008361738466444184,0.008726043943285113,0.03199704506544981,0.034238597253825075,0.02101613919850361,-1.9028730663350473,-0.016151648347244696,2.108447718442807,-0.05235499363760395,-0.009622738008374234,0.04540887546281717,-0.06463571110224935,0.6171875
-0.4454370466258651,0.06758709874922675,0.014763169308198912,0.014464526355881031,0.05685788538105128,0.0612173257006039,0.0367365314085476,-3.379420888063358,-0.029800463627685604,3.7458662675924383,-0.09388299589711571,-0.015891651970009565,0.08112836679103547,-0.11425128060885983,0.625
-0.08467530535825746,0.013470157130581958,0.0028881281106100253,0.003818488766792196,0.01070734334330099,0.011169058185047554,0.007565866929764043,-0.6411770639215494,-0.004483691002655526,0.7091935812051344,-0.01683171440442296,-0.004265141294016481,0.014850511177390925,-0.02220417959932243,0.6328125
0.5488676278189489,-0.08159906014168679,-0.017968273027621405,-0.014878783623833106,-0.07032911797829473,-0.07673237252676343,-0.04366250186812471,4.168707942900077,0.03998265645502655,-4.624793030165856,0.11848960636316189,0.01615680610240029,-0.10154800856064004,0.13945658881307932,0.640625
0.7595970889662812,-0.11323145473866614,-0.02490679934123136,-0.021098460452175463,-0.09728104332930121,-0.105974006721364,-0.0607010491042647,5.76911343693367,0.05477560599612319,-6.399476585874591,0.16350753338336813,0.02295111294578709,-0.14026459618832468,0.19323246193614907,0.6484375
0.4831271372470465,-0.07174659967669515,-0.01580569986288241,-0.012939831786071413,-0.061917052306267484,-0.06761381890184479,-0.038344557092865245,3.670343329949379,0.035373304547527545,-4.0720221572880275,0.10445874440373075,0.014039311678377797,-0.08946937024144831,0.12268066593920914,0.65625
0.17994876369468443,-0.02624621220524452,-0.005823527407674908,-0.003992266496008013,-0.02313705288628006,-0.025541962550523264,-0.013830941580424989,1.368181820803798,0.014095167403631448,-1.5192564287627155,0.039694507401807265,0.004264917519799816,-0.03376957340559863,0.0453065028901631,0.6640625
8.76501242599282e-05,0.000742601562899254,9.830394710470179e-05,0.0013168104428982167,-0.00012815400345700764,-0.0005831515758256194,0.0007104217318655281,0.002412533584987773,0.0014706716872544033,-0.004799258909645256,0.0012694381781249054,-0.00153284245614132,-0.0007256464316517624,-0.0005879592520665415,0.671875
-0.20039592524568886,0.03081894097281652,0.0066963805122774635,0.007234079854949716,0.025518108790213635,0.0272287182863199,0.016922461990501805,-1.5192368099056792,-0.012602411148265255,1.6829561644025155,-0.041550148143172094,-0.00799292692918156,0.03611264674032278,-0.051729374515255964,0.6796875
-0.345617907020859,0.0526092975470043,0.011474925517556836,0.011519072893908692,0.04409205297216563,0.04737094745367277,0.028668223563501495,-2.6212816664070724,-0.022795774938790828,2.9054488655507784,-0.07256159785278872,-0.012672774266484716,0.06279959675763469,-0.08877917044771345,0.6875
-0.3015451485656452,0.046001947179568854,0.010024340636097445,0.010217569541515694,0.03845340730833023,0.04125213492195948,0.025104924515089732,-2.28676947727605,-0.019700675087198135,2.5344048633103546,-0.0631460287766965,-0.011253378053347548,0.054702781734956775,-0.07754409938062462,0.6953125
-0.21795887017130142,0.033458130640474884,0.007274183431011763,0.007751506181756101,0.027765654497834337,0.029651914318519875,0.01834263852587853,-1.6524099921471607,-0.013831961774193921,1.8305985849553692,-0.045292619802678374,-0.008559096255025876,0.039340277754617334,-0.05621739525305487,0.703125
-0.22531523828409739,0.03455084782835231,0.007516743143922776,0.00796985057131007,0.028710995591762906,0.03067053789972293,0.018933682452509128,-1.7081226152708229,-0.01434902090192474,1.892333324595044,-0.04686119917126347,-0.008793209535639999,0.04068390638004107,-0.05807491410127316,0.7109375
-0.1753344241502121,0.027046961680615256,0.0058714414220612035,0.006494831513444209,0.02231491049888958,0.023739302483301986,0.014891329618472228,-1.3286371302054318,-0.010844281468172847,1.4716507103327796,-0.03618702413860383,-0.007180632658502239,0.03149508282504,-0.04530816874670296,0.71875
-0.0038027392839036552,0.0013198240929052786,0.00022578336695251033,0.0014318706069281649,0.0003662734006780771,-5.2413903725056955e-05,0.0010235629627320503,-0.026898748144181268,0.0011926131183040705,0.02799488975592612,0.0004414202640984688,-0.001655205817594192,-1.8083317521321474e-05,-0.0015539976071476766,0.7265625
0.09439493635767607,-0.013403957596274241,-0.0030061487794752454,-0.001466566315348438,-0.012196571537026158,-0.013673477031139735,-0.006912586168516886,0.7181994262878775,0.008086042722976259,-0.7985429604331364,0.021409677349674066,0.0015052728609339595,-0.01804880316964235,0.02347956598967727,0.734375
0.06061084083819762,-0.008341612625047115,-0.0018954150235395272,-0.00047025088405619616,-0.00786953887644791,-0.008989814312201473,-0.004177672810778314,0.4621689234297513,0.005718647510273766,-0.5146187075836381,0.01420105858802949,0.00041648438643144837,-0.011832118165783322,0.014856393620100323,0.7421875
0.08587516746475068,-0.012146800939535555,-0.002729022483770224,-0.0012169151144501994,-0.01109678773458881,-0.012499442434316207,-0.006221268787959736,0.6547298830156846,0.00749389204207113,-0.7278852776564723,0.019608873089374368,0.0012349926267841529,-0.016475777732816773,0.021316716046837887,0.75
0.21666081098049927,-0.03176825931296503,-0.007034222282904402,-0.005076338663614458,-0.0278294935311978,-0.030644398864443975,-0.016799975722559795,1.6475447177465552,0.016670928454335043,-1.8287339881937597,0.047543478009988975,0.005452340714866493,-0.040512634308888705,0.05469464724716139,0.7578125
0.27339835817658137,-0.04026213122518265,-0.008900223652735812,-0.006748913075728369,-0.035093477077077585,-0.03851249194824965,-0.021388842764290688,2.0773875310749492,0.02064956538160674,-2.3056018850084476,0.05965010610354514,0.007277855520423195,-0.05093768233480384,0.06916215794466746,0.765625
0.19189688412922892,-0.028023695743155976,-0.006216610844168852,-0.004342899233571002,-0.024669257089106424,-0.02720292194291247,-0.0147954809508568,1.4581666102692086,0.014929459697325266,-1.6191335974555,0.04223359906802028,0.004647024984160551,-0.035956520753561365,0.04835473431368262,0.7734375
0.08376021521632877,-0.011811277435345732,-0.0026581652804528676,-0.0011531164363245867,-0.010832172752871488,-0.012201320334959844,-0.0060484381373361405,0.6378130976814854,0.007343017120763851,-0.7092864814164623,0.01914326070728902,0.0011623316385945728,-0.016084700791502128,0.02076557227903458,0.78125
0.002661011744589202,0.00034243555993512565,1.0224978961100309e-05,0.0012389448635766285,-0.00045477935135395303,-0.0009510154956513805,0.0005077368329860635,0.022971450050737162,0.0016522287091236703,-0.02710638715640312,0.0018360215490804634,-0.0014473131187124066,-0.0011891035212505399,8.670376672112387e-05,0.7890625
-0.07580111564481727,0.012119107309694687,0.002593802075042726,0.003555444040859092,0.00958006887644053,0.00993635147513728,0.0068472029840570625,-0.5727105369062228,-0.0038569794442039696,0.6336126415286074,-0.014918293863458358,-0.00397397576985854,0.013218049762235186,-0.019926257580569144,0.796875
-0.1361637130413984,0.021189672610865167,0.004582906064659496,0.005338632411053211,0.017297946185221583,0.01831391874095632,0.011724977725371389,-1.0317239638763973,-0.008096137613259037,1.142394716112562,-0.02782256309556889,-0.0059216522309793245,0.02430420234471027,-0.0353355794744497,0.8046875
-0.16089203229722432,0.024902971264127688,0.005397689272699046,0.0060688748872652735,0.020460950390340335,0.02174487690166955,0.013726499461600266,-1.2198508716575382,-0.0098324690588001,1.3507894671488223,-0.03311471607089526,-0.006721412357227524,0.028852531731180967,-0.0416522609061358,0.8125
-0.16670984469649305,0.02576510096219237,0.0055875236442075385,0.006239745629802291,0.021208675834006582,0.02254821434954396,0.014201181374641212,-1.2635062041291902,-0.010239839696063515,1.399326552512257,-0.03435177044019446,-0.006907994161203958,0.029929808186216433,-0.0431299487518475,0.8203125
-0.1445543591336985,0.02242798708132734,0.004856275801251888,0.005584984836718027,0.018377992285552522,0.019469499898790522,0.012409870074853674,-1.094570297903976,-0.00868177076422443,1.2121998661759037,-0.02960830141932014,-0.006190457557536801,0.025856625461410595,-0.037467390570845846,0.828125
-0.09467615107653163,0.014941770582501816,0.0032149706959925693,0.00411283577993934,0.01199739996768057,0.012547794095949711,0.008371565568179539,-0.7159224353046334,-0.005177302035700987,0.7921758350696144,-0.018956994457368957,-0.004581776282623321,0.016677571170177014,-0.024747373666770534,0.8359375
-0.068763523784525,0.011066694806452476,0.002364346132235733,0.003348973303272323,0.008679022767821733,0.008955585172774373,0.006272754132840798,-0.5199858190741202,-0.0033588072510076497,0.5745591283827115,-0.013435019109086926,-0.0037496486349709443,0.011910176359771542,-0.01815299136481053,0.84375
-0.05004191934107489,0.008273274798759276,0.001748623180539391,0.0027973552182345204,0.0062811666788303855,0.006361229824091743,0.004762455279581434,-0.3784141777358112,-0.0020494549247307304,0.41749663922436714,-0.009439940498559622,-0.0031491603332942427,0.008484768200616308,-0.01337906717271719,0.8515625
0.05177558774002096,-0.007008430051119041,-0.0016055488944991246,-0.00020836923276029644,-0.006742180121545047,-0.007766805203492343,-0.0034649194886646802,0.3950118126771017,0.005094310811218923,-0.43989420688229475,0.012317300567053237,0.00013429388178054616,-0.010208288697678217,0.012619399966941296,0.859375
0.17937552319081676,-0.026177513594273633,-0.0058082219009246774,-0.0039763815238193995,-0.02306135961168095,-0.025473527874210703,-0.013782386641226102,1.364627017947165,0.014053331430443938,-1.5148614943648302,0.03957873971701825,0.004251159854225696,-0.03366074604379253,0.045193895191606166,0.8671875
0.16751483415727242,-0.024406019449415187,-0.005416474522485126,-0.0036269405647315353,-0.02154326953152531,-0.023824117896444983,-0.012826281158677398,1.2746338513862232,0.01322353583198568,-1.4151250428322284,0.037038841337109385,0.003868724903473643,-0.031496190849227994,0.042156460541275836,0.875
0.08284826093141118,-0.011678973316740655,-0.00262594429237845,-0.0011261617729397917,-0.0107153345772741,-0.012067797524533514,-0.005979731050119086,0.6308585765668485,0.007277814499344225,-0.7015487684034172,0.0189449013442985,0.0011343589269927157,-0.015933741873793313,0.02052674982498088,0.8828125
0.15375014103431692,-0.022296300573221482,-0.004958901523200666,-0.0032171908799345115,-0.019787274261796117,-0.021903389387650518,-0.011709783588258227,1.1684630971693803,0.01224983780551498,-1.297962210976812,0.034091940718981,0.003416128593940702,-0.028940671040849807,0.03861307439092821,0.890625
0.2977381104340832,-0.0439133046865942,-0.009701486837859947,-0.007468100027204704,-0.03820468569224795,-0.04189197517505131,-0.02335200220758203,2.2622442527165734,0.022356969022245196,-2.5107709031376926,0.0648607129740189,0.008060266038612826,-0.055389314031409856,0.0753778936571046,0.8984375
0.17527655415719878,-0.025561459865251997,-0.005672933525735274,-0.0038556494231076397,-0.02253563109199918,-0.024910821909883266,-0.013451522073287158,1.3335283773010789,0.013766008193041187,-1.4805305690311155,0.038710730069660526,0.004117859190724122,-0.032898741564593804,0.04414996238609609,0.90625
-0.200949286263056,0.030893011890637166,0.006712709498625656,0.0072489355082446146,0.025592855649245006,0.027293276029039915,0.01696880414022501,-1.5228235516370905,-0.012638694423119563,1.6871361878478794,-0.041658428245616955,-0.008008798677407171,0.03621632290465914,-0.05186134928230125,0.9140625
-0.4069061349941807,0.06181616011126645,0.013495318373560265,0.013329715356686079,0.05193640259556676,0.05588055572482969,0.03362109510760999,-3.0872992399226504,-0.027095965871757416,3.42188581009969,-0.08566346557596818,-0.014650210672925922,0.07405165359721173,-0.10443685727003904,0.921875
-0.26869028363533654,0.041081465228812696,0.00894617301452144,0.009251039078411388,0.034252277760972005,0.03670718151541904,0.022443007490357297,-2.038244577162689,-0.017396704199381666,2.2584609380987204,-0.05614239986524982,-0.01019535353615887,0.04865340082409976,-0.06916845747386025,0.9296875
-0.09026235207603309,0.014297878095534781,0.0030705485769801197,0.00398380160886406,0.0114270895316018,0.011944539280483238,0.008015988481573677,-0.6830725980768495,-0.0048736953605180945,0.7558511336621326,-0.018021558679649264,-0.004442263605331707,0.015874878378953895,-0.02362357975161657,0.9375
-0.08527938930157707,0.013546627679691293,0.00290484511912739,0.003835767197626331,0.010790722082723343,0.011246384802714404,0.007616969554274835,-0.6448683173045389,-0.004523064282537689,0.7136062500007518,-0.016952006306988763,-0.004282124071418759,0.014970257552773696,-0.022350100448926782,0.9453125
-0.06879141269417148,0.01107462568053141,0.0023627778482351956,0.003348841574662863,0.0086806660957783,0.008956909953469119,0.006285506587940914,-0.5199280136917414,-0.0033635419300264025,0.5747542779646284,-0.013433295977011038,-0.0037527991602952712,0.011941264871174634,-0.018153387189366557,0.953125
0.10094068637719737,-0.014402742847444343,-0.003222921280062742,-0.0016607499576199746,-0.01303325898496241,-0.014591871584900783,-0.0074427999671342485,0.7684464351065363,0.00855175834341731,-0.854435185944698,0.0228189023419194,0.0017188097574029814,-0.01925945600745702,0.025159865744401023,0.9609375
0.2186690447486364,-0.03208039709560761,-0.007097735718063006,-0.005134968997332102,-0.028092035318032844,-0.03092460187196066,-0.016967449279678526,1.662378593778601,0.016814099478340408,-1.8458301883206127,0.0479687435783229,0.005516820218097929,-0.040902215265580216,0.05521752107334759,0.96875
0.11504745287533567,-0.01652476808922427,-0.0036868962925584664,-0.002075585339166453,-0.01483470547179781,-0.016544718485748542,-0.0085895881542831,0.8757611735441261,0.00953700060321753,-0.9731411816807102,0.025837700060723695,0.002177923368010598,-0.021857883436777158,0.028780495551459624,0.9765625
-0.015953743761965768,0.0031554514691984384,0.0006253638394128505,0.0017913069624680635,0.0019221529408794613,0.0016346245608962926,0.002006467427606022,-0.11907014101799475,0.0003384206545434197,0.13044094352850694,-0.002147323521473079,-0.00204733917787337,0.002225735794960618,-0.004665680954459672,0.984375
0.050471698567220835,-0.006801696276088553,-0.0015614197929045362,-0.0001701281528126046,-0.0065749877221597105,-0.007579767306870136,-0.003360900564545616,0.3850519060634967,0.005001301461811644,-0.42858795342359024,0.012036851488250894,9.109076196601354e-05,-0.009970698270667853,0.012265032418909139,0.9921875
0.18251402483606274,-0.026631440155614288,-0.005909004291544428,-0.004068730293295159,-0.023459466076264344,-0.025901575672164216,-0.01403682726861151,1.387886322172862,0.014274401507017453,-1.5408595902822928,0.04024221030830041,0.0043483545807934025,-0.03423280837765146,0.045959958777851244,1.0
0.1255378603259992,-0.018104304399684246,-0.0040346730843260304,-0.002387776979760532,-0.016164156770372157,-0.018000306308196098,-0.009431795441789405,0.9559113714209759,0.010280314477964032,-1.061867780287339,0.028076590335673605,0.0025153316333262734,-0.023771591156283797,0.03143817127070746,1.0078125
-0.0755466591262104,0.012067795742884907,0.0025847366370021947,0.003547631983160847,0.009555290616698445,0.009896621691769207,0.006825979445302295,-0.570721733076783,-0.0038343338134947105,0.6311651055548624,-0.014875879003225956,-0.003965345590689153,0.013168364080528062,-0.01986191043177413,1.015625
-0.17673083914429383,0.027270729092599266,0.00591714709498336,0.006535309586713816,0.02248807526539304,0.023936726572672505,0.015009666411502212,-1.3396820625385897,-0.010942112054460674,1.4838278327475403,-0.0364976095469313,-0.007230739587974384,0.031762999788593316,-0.045687836555864815,1.0234375
-0.12084018745667625,0.018900967823445372,0.004078600846604055,0.004886810601743055,0.015334003775838332,0.016185146845419125,0.010495311502782578,-0.9160427590502604,-0.0070231786212080595,1.0138210667904173,-0.024566200445976953,-0.005433991013378208,0.02150704388597693,-0.031440034451662935,1.03125
-0.050604557216400815,0.008357600081221113,0.0017658121471137047,0.002813612312507534,0.0063544483401793425,0.0064408031531321365,0.004818968053685087,-0.3825458117392769,-0.002091762030115605,0.42219898761879626,-0.009557991812235295,-0.003170107449429576,0.008610769169054715,-0.013519958933097369,1.0390625
-0.027790831216142467,0.004918082769639511,0.0010130439306696999,0.002138889345048947,0.0034400492630684725,0.0032734833114176,0.0029718830869575196,-0.20848044702347932,-0.0004872770632947878,0.2294707657484607,-0.0046711687542050325,-0.0024300931701530934,0.004412130436041673,-0.007685356332524082,1.046875
0.01040574142105881,-0.0008185820856150331,-0.00024462440806083245,0.0010108161542174874,-0.0014497528344153848,-0.0020266958742506678,-0.0001222070635112371,0.08179937300548216,0.002193480526419824,-0.09222509948740013,0.003493358756217711,-0.0011952788929628646,-0.0026205658620171986,0.0020724278502511676,1.0546875
0.0670408466565954,-0.009304028142684691,-0.00210735933543193,-0.000659625513278945,-0.008699839678910627,-0.009881774371672038,-0.004705547093528749,0.5111217668454793,0.006166245447539981,-0.5684927964769307,0.015582555551545026,0.0006290717521137368,-0.013033047006847702,0.016518902207241486,1.0625
0.07132992878276255,-0.009934896666585476,-0.002247320018019841,-0.0007846733930266352,-0.00924811518031833,-0.010473981123845885,-0.005051601601733222,0.5430315219282473,0.006466990314174762,-0.6041730966814841,0.016489216981344985,0.000763980602747727,-0.013815380684160036,0.01760031405548521,1.0703125
0.02154562534884307,-0.002471252493259081,-0.0006091768482495426,0.0006845067345964927,-0.0028744815581061797,-0.0035681243633909837,-0.0010228253064345104,0.1653307649816922,0.002975453558274054,-0.18536937676473447,0.0058573004047177265,-0.0008414690808727026,-0.004660744449318572,0.0048936979900554905,1.078125
-0.016905740121689997,0.003277560658312442,0.0006554491040509858,0.0018177484736883517,0.0020490890917252923,0.0017615852365304868,0.0020864874496204617,-0.125780003959103,0.00028009674105981147,0.1375871896635653,-0.002346575048603564,-0.0020782789733074254,0.002400863173782929,-0.004909169341534116,1.0859375
-0.026046152626828502,0.004637439455952106,0.0009568273632104002,0.002086795849576835,0.0032196660156468843,0.003026910098771853,0.0028210640419802178,-0.19490052777391692,-0.00035991046564688787,0.21423546409251457,-0.004296702448478696,-0.002370564311116806,0.004067657151602346,-0.007235001034929872,1.09375
-0.034350640344833025,0.005893188173613476,0.0012317122233262983,0.002333056708347282,0.00427977964958538,0.004182128214863628,0.00348970878081846,-0.25851450920830266,-0.0009447316003526456,0.284622373581122,-0.00607879400052181,-0.002639219971292563,0.005588574956520687,-0.009357460556782212,1.1015625
-0.03824586506614276,0.006493261044915225,0.0013599746579721465,0.002449148771826247,0.0047749803866006975,0.0047261351726693,0.003808938743830248,-0.2886162488838005,-0.0012221300790661216,0.3179657333504146,-0.006917160992822262,-0.002767468847919332,0.006317281248681887,-0.010355047001694907,1.109375
-0.01844665263165995,0.0035212425580119352,0.0007061090208597103,0.001863839410864758,0.0022419347418245875,0.0019767919969456748,0.0022142803747136597,-0.13796500954615484,0.00016596235974331483,0.1511377274558357,-0.002683695175581464,-0.0021293277587737377,0.0026937423432123486,-0.005297066037972346,1.1171875
0.0010143810603456432,0.0005857192742382756,6.36317069964793e-05,0.0012874683629554276,-0.00024473379649493995,-0.0007275326625167786,0.0006405468343920716,0.010570790680115457,0.0015346224327283985,-0.013252068075383126,0.0014793286173980765,-0.0014987619037042242,-0.0008882764885986328,-0.00032494454718498187,1.125
-0.01258363856750379,0.0026237547965038436,0.0005119826481733721,0.0016886736877098154,0.0014962955584653707,0.0011617054609987538,0.0017355369733646371,-0.09257710039059902,0.0005825055230041799,0.1012289030064207,-0.0014282572807610325,-0.0019354910363319142,0.0015942740325031806,-0.003803471406743941,1.1328125
-0.034610802174220474,0.005952521086267957,0.0012393997730952406,0.0023410278888539317,0.004310988285595014,0.004225082150071794,0.003516533141860749,-0.26069108898628635,-0.0009664290016982023,0.28741706900032615,-0.006138992873532488,-0.0026491361121703913,0.00564659299856141,-0.00944179909752885,1.140625
-0.013023405157641381,0.0027365962388591508,0.0005295817628073361,0.0017055440745460482,0.0015450369147180097,0.0012309461056706939,0.001775892113423764,-0.09755813746834438,0.0005439959738901386,0.10622406911761319,-0.001524486720688784,-0.001957813530560208,0.0017044340010240989,-0.003935875368893965,1.1484375
0.05149604952002731,-0.006953539466944595,-0.0015960693156911374,-0.00019991026187819925,-0.006708449990862917,-0.007727555958660419,-0.0034389562544957972,0.39262074365106087,0.005072640778614108,-0.4373227331324262,0.012263926522299571,0.00012276077283413867,-0.010142211388039862,0.01254578584233163,1.15625
0.10773950651637802,-0.01542290249201099,-0.0034492731656820814,-0.0018621655909639785,-0.013898900196858745,-0.015534618133640118,-0.007989869790140127,0.8205004480778868,0.009024880390757785,-0.9115525484769953,0.024274363441213094,0.0019401000457544358,-0.020495934179688365,0.026910499933740426,1.1640625
0.11494543076601982,-0.01651471465157848,-0.0036853666364805595,-0.0020749334632460294,-0.014818045910667278,-0.016528640863251055,-0.00857580259135342,0.8753066892584677,0.009533250789172868,-0.9723159500731369,0.025803013941703735,0.0021730612636167187,-0.021837641308897975,0.0287366038463268,1.171875
0.0715739244150401,-0.009989039751530917,-0.0022547260752286405,-0.000792834098375123,-0.009271964344017912,-0.010503968029358124,-0.0050695796158753414,0.5452752673985635,0.006487464307836093,-0.606683197562259,0.016536180735572333,0.0007712931386450154,-0.01386426357565445,0.017649003108689672,1.1796875
0.014468004083541581,-0.0014080036593193618,-0.0003741752334626454,0.0008937127366597616,-0.001969513139666341,-0.002582616559564548,-0.00045193038790041786,0.11139073678408701,0.002477501333762872,-0.12573895206767113,0.0043470307544203664,-0.0010708606672792994,-0.0033604894299520895,0.0030805255976864314,1.1875
0.0009989680593688694,0.0006001053823269946,6.63296833413665e-05,0.0012899432707873175,-0.00024568175105503314,-0.0007236864133270896,0.0006383032357550135,0.009828551661252918,0.001532883494142038,-0.01284441747446539,0.0014796093356902371,-0.0015015483153498306,-0.0008831156960383929,-0.0003315198248826279,1.1953125
0.030244914355139596,-0.0038031263594985273,-0.000899203162500224,0.0004248031653914776,-0.003985291058555969,-0.00478938275114405,-0.0017241189362903536,0.2325850805409621,0.0035875235107531403,-0.25955470093454713,0.00772919426204797,-0.0005560516319452595,-0.006258382080102876,0.00714429733823158,1.203125
-0.0071078982229797446,0.0018076166396867102,0.0003314129948814222,0.0015268829401642171,0.0007913287381296541,0.0003946349183220685,0.0012958560386061246,-0.051264998303428226,0.0009674392806278523,0.05507731668234622,-0.0002531819795939575,-0.0017616114014572042,0.0006007635337499153,-0.0024006855666761345,1.2109375
-0.17562027076376543,0.02710641098429097,0.005881846658526699,0.006501988535954935,0.02234562482522528,0.023783907853384426,0.01491673689285281,-1.331368310024303,-0.010859294819994396,1.4742986410355952,-0.036254062912408055,-0.007195293346931661,0.03155201334181741,-0.045416848601584354,1.21875
-0.31109496323250974,0.04743505724387417,0.010342643797406672,0.010502557976545555,0.03967774723455165,0.04258801111758785,0.02586746427638806,-2.36007930527038,-0.02036955327750967,2.6151074840668245,-0.06519627364688721,-0.01156076272481026,0.05643543251150409,-0.07998246913702733,1.2265625
-0.19382050513464322,0.02983232786461446,0.006480672563940042,0.0070422362224934944,0.024679034679566267,0.026316961016717683,0.01638717566116793,-1.469397490500965,-0.012142598585279333,1.6277292972876087,-0.04014690568762994,-0.0077790619125042045,0.034895280163647464,-0.05004547202132727,1.234375
0.08807361162332553,-0.012462889413429937,-0.002799824690650556,-0.0012785210364022364,-0.011382548000726593,-0.01279892246140121,-0.006401774876877852,0.6708108436117831,0.0076395185743126995,-0.7455085470709406,0.020066817134357387,0.0013052517579144034,-0.01688401206791986,0.02188269699301383,1.2421875
0.21499107573967877,-0.03150134301763945,-0.00697727045529747,-0.005026001888154559,-0.02762119107004695,-0.0304110851102966,-0.0166621745582288,1.6341676138961896,0.016548743433889176,-1.8139892572941907,0.04717707939650658,0.005393205309920228,-0.0401985259353883,0.0542559964767364,1.25
0.10542215345261735,-0.015067689376577455,-0.00337092814603624,-0.001793136927153561,-0.013602867932472373,-0.015209670558396638,-0.007802632914873569,0.8025678638409072,0.008862836991295135,-0.8918672487586657,0.023776787187080685,0.0018626988668494144,-0.020072113623384298,0.026299200717463375,1.2578125
-0.00597507586719797,0.00163343913586124,0.00029403827368164136,0.001494381186720683,0.0006526543434307784,0.00024496884999455323,0.0012042440820165855,-0.04249601263574999,0.001047167568765617,0.045462582192515325,-1.1182997384529708e-05,-0.0017232745115925748,0.00039032948550791,-0.0021101793885614333,1.265625
-0.0012723557080919772,0.0009292218189503257,0.00013860268305948832,0.0013554464511292012,5.0074436672587794e-05,-0.0004082228325047329,0.0008225632062441821,-0.006682091518460637,0.0013758425917886773,0.005920829401673519,0.0009950302236698353,-0.001569901569773587,-0.0004750173742686333,-0.0009052027194353663,1.2734375
-0.01689515934273762,0.003294201979309945,0.0006550765794223699,0.0018166749232106244,0.002040185734929332,0.0017614953764560454,0.0020850716544398096,-0.12606341197022883,0.0002751047796643259,0.13818700192895847,-0.0023472603016654026,-0.002077484405655457,0.0023992680056421044,-0.0049060601955916334,1.28125
-0.08561719191983656,0.013620192796083709,0.002919432282857483,0.0038454128927436974,0.010827142901315043,0.011298597951021217,0.007643377490854732,-0.6484638527771389,-0.004550132368707217,0.7172127944341644,-0.017030085972511294,-0.004297346807567653,0.015034093480993237,-0.022455504842258195,1.2890625
-0.05490972973135845,0.009000339818622567,0.001908151203318935,0.002939294816111095,0.006906197875423007,0.007036432735836935,0.005161061709618197,-0.41506431813179545,-0.0023908814177269234,0.45818619564865476,-0.010468904675356806,-0.0033072392941668823,0.009394795215029944,-0.014617996947439352,1.296875
0.06218844458237553,-0.00859055999256077,-0.0019479174304051143,-0.0005167146025853534,-0.008064175034042376,-0.00921302600024595,-0.004309811026398461,0.4745215272147611,0.005833301089090942,-0.5283569334535824,0.014544653575752714,0.00047064456327930383,-0.01212807817205367,0.01526928244047663,1.3046875
0.09102712807435906,-0.012915911506110014,-0.00289709853972078,-0.0013669876317185363,-0.011755176804122417,-0.013212152681233477,-0.006642774808587866,0.6933435321245257,0.007856081898273777,-0.7709549057747118,0.020700444351670236,0.001400755375628568,-0.017432396894991035,0.022628511688433987,1.3125
0.0951116270884359,-0.013510655339216112,-0.0030306090328189477,-0.0014863056842512724,-0.012287802075526495,-0.013773816265071983,-0.006969876997150192,0.7237474626324382,0.008135334522465345,-0.8045621341527389,0.021566710287619376,0.0015296414685897345,-0.018177630427617057,0.0236680613806602,1.3203125
0.2743065173309377,-0.04039698426328211,-0.008929653464942683,-0.006775299177408573,-0.03521467847645186,-0.038635318301361646,-0.021457391298681638,2.0840915032346774,0.020709354954866428,-2.3130418941735957,0.05983934172877067,0.0073047012710985935,-0.05109909047633596,0.06939418432236401,1.328125
0.4347974258216581,-0.06449876273587964,-0.014213892749640666,-0.011513668435016503,-0.05573763277129946,-0.06090701321059683,-0.034437894186303664,3.303158475593023,0.031979582877895076,-3.6649191482362613,0.09412289286842322,0.012480718746406725,-0.08059641877226567,0.11035034996851292,1.3359375
0.1548011369832,-0.02249920479926938,-0.004997339585443091,-0.0032507652212686033,-0.019912831678161283,-0.022062887287494556,-0.011801750107244465,1.1780818779327042,0.012333846319116826,-1.3082432635377146,0.034325913047863386,0.0034590526162968558,-0.02916178962999065,0.03890987370433752,1.34375
-0.43782736087861407,0.0664326897265148,0.01451140365621624,0.01424060835401362,0.05589351030190254,0.06016148136600424,0.036117498418567616,-3.321024547165444,-0.02926229499193194,3.6812595260994003,-0.092249608485457,-0.015641860565559912,0.07972313715898159,-0.112301906553801,1.3515625
-0.6881284919123011,0.10400507662273893,0.022751276934646774,0.021628542982764842,0.08790338695920284,0.09489220982278485,0.05635851528081654,-5.221675890576104,-0.046835723055620684,5.7891469254067465,-0.1457172489928032,-0.023710649741949266,0.12571434011009597,-0.17616712113869532,1.359375
-0.36475942825396823,0.055489452692669826,0.012106533209863381,0.012084519122635324,0.046535931358465885,0.05002878287144395,0.030213279361285084,-2.767129281317987,-0.0241420239735334,3.0670847922284064,-0.07665850239619139,-0.013289909595797275,0.06630592097684664,-0.09366111922593272,1.3671875
0.02654045820880873,-0.0032260972476034658,-0.0007746001675132027,0.0005357011179841729,-0.00351263046470729,-0.004262195934323988,-0.001423865475019243,0.20349539460474855,0.0033232396543349287,-0.2273760661142305,0.006920996613410842,-0.0006796995937823114,-0.0055757587088570626,0.0061760424427737,1.375
0.05921217377918883,-0.00813060518422555,-0.0018502267995991965,-0.0004282093091932499,-0.007686678623660511,-0.008798314100799167,-0.004064541464134936,0.4518108603333142,0.005618799178013269,-0.502846745255828,0.013912665020470815,0.00037317024425385047,-0.011569422217776073,0.014510860343109744,1.3828125
-0.08172440746548512,0.013016569007774014,0.0027898516506185524,0.0037317495559942935,0.01034027761904345,0.010753313419981468,0.007327308192080084,-0.6181078662317665,-0.004270359718824586,0.6834655538521904,-0.0161842754814773,-0.004168137620005355,0.014316426812112567,-0.021451658657201705,1.390625
-0.08211017347761475,0.013078703760177455,0.0028041111398593565,0.0037435995375931174,0.010386038583219546,0.010808776259598637,0.007353761741694656,-0.6215529905822009,-0.004296458864274093,0.6869608781418601,-0.016276446177161192,-0.004180981089306769,0.01437515627790927,-0.021555902382838884,1.3984375
0.04175977641027256,-0.005503779012645302,-0.0012729505710038357,8.790717890317488e-05,-0.005459613032506722,-0.006373697902828549,-0.002660337107016886,0.31843856407014137,0.004394882516905408,-0.35554774114939863,0.010173018714289562,-0.00019055161982793164,-0.008377095738701478,0.010050578145394158,1.40625
0.18421606484419067,-0.02688658284950073,-0.005964504183355858,-0.00411781621049766,-0.023681124857766238,-0.026139601908913786,-0.014173001338205008,1.4004342312563562,0.014390431624213459,-1.5550594095536898,0.040606592486065705,0.004401548476365976,-0.03453648411554621,0.046412160662255085,1.4140625
0.36882636973094396,-0.05460255670803449,-0.012044329568234032,-0.009568583020635811,-0.04729574097468371,-0.05175777340043358,-0.029097931872467498,2.8028336437324493,0.027348586256935876,-3.109805926747075,0.08004395247680421,0.010355377751424135,-0.06845802463894293,0.09352491728453194,1.421875
0.5149284495940373,-0.07652799671783242,-0.016853406506575457,-0.013880861142304132,-0.06598409918996145,-0.07202832151176101,-0.04091446711945673,3.9120471833903663,0.037605063468029866,-4.33983766001984,0.11124143893620526,0.015065698891968076,-0.09531695577278257,0.1307906893043066,1.4296875
0.39665068913405815,-0.05876651034688996,-0.012956594710923192,-0.010387547755073239,-0.05085343798422029,-0.05561146239208059,-0.031354653963080625,3.0133118938877543,0.02930197316982927,-3.343441865745046,0.0859663236596777,0.01125052595750843,-0.07359268924624346,0.10059377561606517,1.4375
0.031095064911323838,-0.0039065599194193145,-0.0009214032250880209,0.0004032072180130046,-0.004094820661714797,-0.004889472502764881,-0.0017986352780368098,0.23772393572664363,0.0036423502970916676,-0.2655309296511283,0.007890117336942596,-0.0005335681456777973,-0.0064266427857506934,0.007326568324691261,1.4453125
-0.24497600152971655,0.03750812287870193,0.00816398881302064,0.008549708435057068,0.031214698204890524,0.03340875967260819,0.020524669227749617,-1.8575496977695627,-0.01573288444179339,2.0582530421941168,-0.05106260157583024,-0.009429084951057033,0.04429726648392527,-0.06308930669673062,1.453125
-0.24783811414436452,0.037927979431923255,0.008254935876466326,0.008631910113870028,0.03157968972242164,0.033800448665581836,0.02076004484033801,-1.8786589898142223,-0.015931000034898415,2.0819072080203704,-0.05166911953641278,-0.009518789885340204,0.04482558925669529,-0.06380926554493677,1.4609375
-0.17875346131639858,0.027569453415281168,0.0059809298630092,0.006593194443964603,0.022746793027897103,0.02421730265325866,0.015177038206612214,-1.3544062219233597,-0.011081572587830314,1.5004903544203665,-0.036919824937350534,-0.007293707718245075,0.0321390185885322,-0.046199350891602,1.46875
-0.2268779627996752,0.03480299217547871,0.007567936162714928,0.00801560414502012,0.028906531661033182,0.030899175086072764,0.019065089299194548,-1.720355093939018,-0.014458678450502648,1.9059840133112347,-0.0472016846634802,-0.008847517798748315,0.040981574200529974,-0.058498747896141186,1.4765625
-0.2667513586020338,0.04078444314301293,0.008882071844683953,0.009193634987383572,0.03400676947864338,0.03643126612402705,0.022283008342062274,-2.0231921641148833,-0.01725537357198692,2.241523706422491,-0.0557127272995255,-0.010132276002556385,0.04830009246232347,-0.06867077711473164,1.484375
-0.16143561038190668,0.02497145409704876,0.005414593435941586,0.006085319455674179,0.020533961691792453,0.021815165576452102,0.013767236699026046,-1.223446607290943,-0.009864805031738824,1.3546173688886816,-0.03321804178555717,-0.0067362695913650095,0.02894837380019923,-0.0417836839910434,1.4921875
-0.05898610900321148,0.009596490492326692,0.0020417017452536023,0.003061367824733613,0.00742946580254632,0.00759843498649448,0.005489869274047355,-0.4457635090147125,-0.002679254522042128,0.4923033566159067,-0.011347124155629933,-0.0034354576163888495,0.010133345677564156,-0.015638501826929208,1.5
-0.10531674917995074,0.016554366231864313,0.003567377417484894,0.004428009584962425,0.013356365722174239,0.014026896469401123,0.0092407216167553,-0.7977520602846032,-0.00593300356247379,0.8826687250236525,-0.021249308187286382,-0.004931135688491604,0.018651441398645413,-0.02746806416549135,1.5078125
-0.12633339197084487,0.019709618417305997,0.004258550400522976,0.005046696935419541,0.016044468909166734,0.016943982165586503,0.010938910350716194,-0.9570496069468064,-0.007404157436320785,1.0594085486157143,-0.025726526478679592,-0.005607345665848417,0.022510475880755706,-0.03283318349754129,1.515625
0.07480568497347528,-0.0104771891192534,-0.0023648407982304717,-0.0008907258733071365,-0.00968397588724792,-0.01096120904158627,-0.00532762383446559,0.5706130594607194,0.006716132225028347,-0.6344153582121943,0.017249795609866947,0.0008797555807706628,-0.014447454051868668,0.018497258684064294,1.5234375
0.33492802921188575,-0.049512179719367104,-0.01092833518833378,-0.008567104729000791,-0.042957957588864164,-0.04704972126762384,-0.02636249785620983,2.5455475418067977,0.024970731363596916,-2.824361121921599,0.07280651992293738,0.009265318015209578,-0.062239953738053834,0.08487408474698513,1.53125
0.39515814371955704,-0.058544349686903786,-0.012908604300250997,-0.010342997888927586,-0.050665588504878685,-0.055405694829380424,-0.03123518763279378,3.0021339678537933,0.029194920161038737,-3.330983662447705,0.08565673354066472,0.011203373654561683,-0.0733091626124725,0.10023418856411521,1.5390625
0.31266947360771224,-0.04615895837412285,-0.010190651686291647,-0.00790758145733512,-0.04011680972085756,-0.04396114556176187,-0.02456758102810352,2.3752650711772554,0.023406725552718884,-2.6362694853292314,0.06803368504097479,0.00854109556449802,-0.05815778264084606,0.07917549324207443,1.546875
0.24422452526097027,-0.035888391520893625,-0.007938015160855657,-0.005887839759181522,-0.0313585385399711,-0.03446430297183927,-0.019031781539851852,1.8558009493143974,0.018606564877557057,-2.0602750349668386,0.053422693642676364,0.006335368603076976,-0.045580652311227376,0.06170889462726164,1.5546875
0.08987446462035063,-0.012734007593419201,-0.002859397137193577,-0.0013331440819116618,-0.0116090512753778,-0.013049450032590303,-0.006547458764223875,0.6846049400047676,0.007774498893057048,-0.761137147655319,0.020461084513399737,0.0013632389682095075,-0.017215728010940557,0.022330792001583992,1.5625
-0.23786873366593497,0.03644365400133882,0.007928416753639365,0.00833915777567271,0.030313341193666805,0.03241995987542787,0.019954886361809542,-1.803338994331973,-0.015231295657450438,1.9981833811932534,-0.04954309070803583,-0.009199328634166962,0.04300389349990455,-0.0612895570830848,1.5703125
-0.4613014065055487,0.0699783711490641,0.015284413782547416,0.014933085556506263,0.05888539110030595,0.06341742069410768,0.038020571671629075,-3.499912251754415,-0.03091748051066147,3.879677866091786,-0.09726955432853589,-0.016402595630811027,0.08405453656290546,-0.11829826999289514,1.578125
-0.3005907236063218,0.04586672014555069,0.009994706694702149,0.01018958402965429,0.03832317589142066,0.04112149988539363,0.025026490510105446,-2.280069046521373,-0.019639543466600174,2.526900321630144,-0.06294692956446236,-0.011224361249039182,0.05452557316836602,-0.07729332097177084,1.5859375
0.041200685097369905,-0.005433377169325113,-0.0012573861461977365,0.00010176865354507412,-0.005391119930447474,-0.00629679339431084,-0.0026081547646027775,0.3150272896136479,0.004352939351147562,-0.35100094414161637,0.010052686953752499,-0.0002071628041165524,-0.008274302552472098,0.009916327880106032,1.59375
0.17298584549907614,-0.025226423409396848,-0.005596426715419173,-0.0037873584079409126,-0.022238569968701515,-0.02458077016586574,-0.013264873732071069,1.315974162310047,0.013608072243296356,-1.4611399990629783,0.03820121544630942,0.004042913311738928,-0.032492345707277784,0.043545242191917445,1.6015625
0.07373078198035408,-0.01033337562590276,-0.0023284248124645288,-0.0008565690501693481,-0.009540483076188894,-0.010810593390497605,-0.005244037307987463,0.5624307276100717,0.006643111665064918,-0.6256227105716724,0.017005716009164017,0.000845429592689975,-0.01426310147247669,0.018223509263468628,1.609375
-0.01029232713415142,0.0022929817892884353,0.00043893824132247556,0.00162464514904357,0.0012004445189972416,0.0008479022501330175,0.0015456633298116136,-0.07598043903512754,0.0007417067706746521,0.08236198675692072,-0.0009401096860602986,-0.0018630172254251404,0.0011702576199630304,-0.0032168096401603073,1.6171875
-0.005780185826456296,0.0016300219247648426,0.0002906632432049708,0.0014911704478690218,0.0006182202716565347,0.00022225030483966684,0.0011817141166402232,-0.04208773793759426,0.0010549182374817094,0.04486076668437713,2.007971605185455e-05,-0.001718922614121071,0.00034583864028610707,-0.0020708489369831284,1.625
-0.019348446127076438,0.0036605239969237477,0.0007361042342257771,0.0018900269047575633,0.0023575708703409875,0.0021019353931480793,0.0022838693035627795,-0.14485017517576596,0.00010443251231914924,0.15879224486868468,-0.0028759736017246844,-0.002157368071747386,0.0028522482249384914,-0.005534548864163902,1.6328125
-0.08074034807448846,0.012859682559968715,0.0027560885007935033,0.0037011957969004185,0.010217108354363773,0.010616118949315185,0.007251329051964527,-0.6104457497111102,-0.004200730707538489,0.6750134221223508,-0.01597904173043736,-0.004136310147168582,0.014142290209912586,-0.021194859546922913,1.640625
-0.12438550527760033,0.019408453464603976,0.004193389129726688,0.004990118226711279,0.015799265500021236,0.016671440454176515,0.010778661807765282,-0.9417495496258594,-0.007264120541853331,1.0424068411082084,-0.025296321936712635,-0.005542672018502809,0.022157168226230463,-0.032328330036873326,1.6484375
-0.10445824601645683,0.01643082052893647,0.003538735709471345,0.0044027788452423436,0.01324230566206052,0.013909608208958812,0.009163946027723703,-0.7909584822299565,-0.005869234994726607,0.8752439808897412,-0.02104773868943122,-0.004900790080388633,0.01848486380950012,-0.027247107905679253,1.65625
-0.012928317094948478,0.0027044606970331635,0.000526196071717503,0.0017012332528576364,0.0015290509292346308,0.0012126463458641322,0.001763510274786817,-0.09651404857667477,0.0005521125802518057,0.10510112501870353,-0.0015075711506039352,-0.0019522997999045777,0.0016682576958805997,-0.0038960486311144316,1.6640625
0.10103923631410808,-0.014402847891632613,-0.003226278927461827,-0.0016627503154284424,-0.013045547007117377,-0.01460049195313932,-0.007447723583910804,0.7688683709986704,0.00855155879388587,-0.8546253040470495,0.022836328409896692,0.0017200989431467118,-0.019258989966661772,0.025186480073329912,1.671875
0.12806874791348644,-0.01846873269143415,-0.004117051734459924,-0.00246064918043102,-0.016496365585695148,-0.018352418845159545,-0.009631756848773486,0.9745922591483306,0.010451026206247502,-1.0826555385237444,0.02861717865239619,0.0025926514196285616,-0.024221113549176696,0.03208518334729357,1.6796875
0.049351777540347475,-0.006657488463973964,-0.0015254102877806527,-0.00013776295410268346,-0.006426167052307453,-0.007428939193165911,-0.0032704290451833857,0.37712272649015693,0.0049283534748730965,-0.4199473144783646,0.011801877490983879,5.707584699184605e-05,-0.009772383731052806,0.01198999513103877,1.6875
0.005053729937065576,-4.3729083464446835e-06,-6.545602138385784e-05,0.0011693940233927782,-0.0007641440185010395,-0.0012770687387344743,0.00030689690228673244,0.04036532658906413,0.0018199059918994974,-0.04660654327435531,0.0023282035449776694,-0.0013714778044101041,-0.0016496555094061749,0.0006738198444873562,1.6953125
0.07853115913463471,-0.01103056047429638,-0.002483379276977086,-0.0009987226615197308,-0.010165704499362936,-0.011469026824389243,-0.0056348156841490565,0.597864753137269,0.006975491684279443,-0.6650518658558007,0.01801751333528754,0.0009955364172584253,-0.01514960956440089,0.019427782866234554,1.703125
0.1627869607430436,-0.02368256795540905,-0.005258783082463885,-0.0034851054408987807,-0.020941225611446204,-0.023164298313599462,-0.012444030231966541,1.237941243787419,0.012886581024496144,-1.3747104463648239,0.036023587566134684,0.0037129058807601257,-0.0306176709195401,0.040950156776357126,1.7109375
0.15323273096767706,-0.022253363223977318,-0.004947228048731028,-0.003204113176051354,-0.019716670912909844,-0.021845846820043903,-0.011668077664467836,1.1661267471413406,0.012215324067349818,-1.2945914191625465,0.03399374912651041,0.0034082624143125925,-0.028854840961581613,0.038524364331856895,1.71875
0.07577989456867268,-0.010623055858127312,-0.0023982477495779605,-0.0009191912969578409,-0.009809852795005717,-0.011100510813675621,-0.005405507005841276,0.5782332691250285,0.006781113674754414,-0.6424578006656688,0.01745143973481299,0.0009123473796684193,-0.01462637764790639,0.018746248744394598,1.7265625
-0.036359502041756,0.006214572762558335,0.0012955398966128027,0.0023915788675901266,0.004533781909562095,0.004461607414566989,0.0036588214020643753,-0.27364282008180274,-0.0010877292227261953,0.301839633423745,-0.006502071906998324,-0.002704643383507611,0.005975421554760945,-0.009884515379715606,1.734375
-0.15454061254024878,0.02394711715538746,0.005188006629658126,0.005881744967130921,0.01965227997146353,0.020859029155786083,0.013212278490159714,-1.1712462743217495,-0.009382771060608324,1.2967594260067077,-0.031740612089835266,-0.006515346162283668,0.02769159040906394,-0.04003097047215541,1.7421875
-0.1651650883987927,0.02553080917181116,0.00553710406441774,0.0061955229786474055,0.021010950227898638,0.02233126105542732,0.014071787453501601,-1.251759980567033,-0.01012924272216559,1.3860077909376816,-0.034008336588330274,-0.0068566245133927,0.02964274432308958,-0.04272059465328989,1.75
-0.052902580986354336,0.008679969847143022,0.0018397133994955614,0.0028803622418137748,0.006647200130980343,0.006756624410987059,0.004996468825013951,-0.3992558048188154,-0.0022487322243118875,0.4408580530746743,-0.010039154526442889,-0.00323724134208355,0.009009285064503167,-0.014075035389849172,1.7578125
-0.05423208953017183,0.008885555578438583,0.0018833037544425607,0.0029186332525265447,0.006816729369850778,0.006944003099371662,0.005105364931608258,-0.40949369726442475,-0.0023396066819208346,0.4522550000377187,-0.01033514007997769,-0.003281548142830597,0.00924981147349734,-0.014437732376576945,1.765625
-0.2820154289783182,0.04307351833358322,0.009383076093830704,0.009642344571980753,0.035959995503262544,0.03854724378308279,0.023524221751535658,-2.1390656522823965,-0.0183261768110524,2.3701190901297213,-0.058990084106798076,-0.010625506480655031,0.051107423160991046,-0.07257776115743453,1.7734375
-0.4212019675473154,0.06395906495728558,0.013965775870477289,0.013751077501732685,0.053768970282233944,0.05785601259437685,0.03477936188560284,-3.195747966956601,-0.02809776741837081,3.541934706245299,-0.08871278964569622,-0.015112020544315501,0.07668902954390612,-0.10808697431251911,1.78125
-0.19049260994461312,0.02933458668881544,0.006370961471211749,0.0069415761297581995,0.024252989629826652,0.025846651448203105,0.016124539853373022,-1.4440898712976027,-0.011909498944632512,1.5995998555398503,-0.03943053396233809,-0.00767498929917173,0.03430049488044664,-0.049200203787850186,1.7890625
0.1879079533350339,-0.027448669235280953,-0.006085242004913079,-0.004226789321172679,-0.02415859725349526,-0.026651546274456414,-0.014474267931080026,1.4286184100160357,0.014646466822372254,-1.5860785179377523,0.04139231585236521,0.004521516866473117,-0.035229824485959724,0.04736251437657011,1.796875
0.37543279119510026,-0.05558575455947238,-0.012257717639194523,-0.009761229891376698,-0.04814689226242508,-0.05266871851260535,-0.02963959995483321,2.852184598320897,0.027809617686339008,-3.164886712315855,0.08144765185778265,0.010565436786890633,-0.06968726688633455,0.0952066636622297,1.8046875
0.3987991356313256,-0.05909038181258783,-0.013027779697090434,-0.010451310637856035,-0.051129995750511914,-0.05591260866750456,-0.03152895902684841,3.0298479034234833,0.029453222053568456,-3.3618577744271305,0.08644607066447234,0.011320095537685352,-0.07397785547589793,0.1011618487614074,1.8125
0.37356420641826776,-0.05530396156671969,-0.012199297208019627,-0.009707151674703663,-0.04789811628332393,-0.05241325885605073,-0.029486357360325084,2.8387104019399647,0.02768369497320338,-3.149613323436286,0.08106173469269251,0.010509478375372904,-0.06933761237998222,0.0947239091738497,1.8203125
0.20960960801519274,-0.030700794933358387,-0.006802839617620405,-0.004867534285977516,-0.026927039071273296,-0.02966535117911265,-0.016228540768235385,1.5939532247332504,0.01617479542122751,-1.7691297795229808,0.04603661811158595,0.005225445129439555,-0.03921404382555158,0.05289308712010062,1.828125
-0.0579873876699184,0.009456686442873357,0.002008132519285077,0.003031574465051653,0.0072991694246482405,0.007464062169687624,0.005406835929148365,-0.4381887621479033,-0.0026086824723521866,0.4841676638080098,-0.011132291024330703,-0.0034025115841763037,0.00994719596605665,-0.015390161473850765,1.8359375
-0.1496559447542259,0.02321388247530683,0.005027743057171167,0.0057369497768087864,0.01902229408822347,0.020184888384179304,0.012817840697796994,-1.1345259442051467,-0.009042052896840385,1.2561110134233988,-0.030717061132731028,-0.006360021284986675,0.02678531334524721,-0.03878868300069851,1.84375
-0.03908436751456456,0.0066185564111327895,0.0013870045640215444,0.002472432986538268,0.004879721666243932,0.004844984698659466,0.0038798968074169994,-0.2948106587881231,-0.0012790625521610303,0.3249589159495896,-0.007094872993417635,-0.0027957269258385674,0.006471866322444403,-0.010578260516859972,1.8515625
-0.049274892851883106,0.008140613387142876,0.001720042610864747,0.0027731284452399796,0.006188795047288969,0.006258400047236074,0.004706879776984325,-0.37162489779970515,-0.001992406500202029,0.4103696608731861,-0.0092662336534182,-0.0031213837637306323,0.008349614801803799,-0.013172660428153736,1.859375
-0.2608009503688011,0.03987912337861791,0.00868265285217025,0.009016999618747558,0.03324920702902395,0.03560482189213612,0.02180898375248871,-1.9773531473764692,-0.016839213563837628,2.1911311071168544,-0.05444502550137891,-0.009937448487883417,0.04721450785224472,-0.06713814671334031,1.8671875
-0.3604036190047345,0.054833299191327775,0.011963311671149387,0.011956728649334175,0.045984346361711746,0.049421343162157134,0.029858833923056546,-2.733894694876605,-0.023832748880330296,3.029956204702715,-0.07571640472545141,-0.01314895859801433,0.06551220764962924,-0.09255048701121076,1.875
-0.19527130682657295,0.030062642986144875,0.0065288649147777445,0.007081938498454557,0.02485449183705004,0.02650581560119848,0.016506138250966258,-1.4806008863024995,-0.012244503443084928,1.6398997076046828,-0.04044193990448816,-0.007828882209682779,0.03517378668434861,-0.05041719085698781,1.8828125
0.022416646871729957,-0.00261113858089921,-0.000637942616014465,0.0006560655152111602,-0.0029881702620539233,-0.003700759086282172,-0.0010929396934890806,0.1722310354364281,0.0030365332302256156,-0.19309223199423556,0.006051273268725858,-0.0008127932482812233,-0.00482003719161045,0.0051272892115274546,1.890625
0.11372292313323615,-0.016333343145931076,-0.003645263257400713,-0.0020391683941315157,-0.014659178322514513,-0.016367817715342976,-0.008475011008601367,0.8660023102891131,0.009449337294164592,-0.9623273650022826,0.025546070610071383,0.002132519314369259,-0.021602732581777664,0.028426482169059377,1.8984375
0.12041507128311339,-0.01734375957126821,-0.003865604287145595,-0.002236409176905552,-0.015515349618136439,-0.01729039714334778,-0.00901812165444708,0.9170461552178943,0.009919443151519063,-1.0187278423704438,0.026973348780543787,0.0023499239261094663,-0.02284376722115913,0.030133217417479884,1.90625
0.11269073733772475,-0.016163493953263997,-0.003609845743735666,-0.002007207644688881,-0.014536139239528935,-0.016212934887341376,-0.008394086628954045,0.8578772201711956,0.009371982390897444,-0.9530039500303429,0.02532578998735396,0.0020993199607873708,-0.021424653606854513,0.028156457348326815,1.9140625
0.11131850913825893,-0.015934570663385248,-0.0035638511774155088,-0.0019651337828813934,-0.014363542062649759,-0.016020731714270167,-0.008280654586223242,0.846791899882899,0.009270430808862381,-0.9407357375529287,0.025031407821963083,0.0020523584478229526,-0.021158541652650045,0.027801134684161136,1.921875
0.11729775352929152,-0.016834641296640165,-0.003761574298094623,-0.002141093916191875,-0.01511956881302513,-0.016851709120997472,-0.008761803654297335,0.8922338229610595,0.009690962248840591,-0.9911993334420043,0.02630663079739196,0.002244972860219399,-0.022243776779040603,0.029328711875631044,1.9296875
0.06207231143432994,-0.008565105410200497,-0.0019448156123898772,-0.0005117871783929871,-0.008046384895442352,-0.009191402345106113,-0.004296917132508653,0.4735525970248385,0.0058200647221146855,-0.526940756155491,0.014516183131813845,0.00046699637259859587,-0.012096128158815733,0.015242281131144123,1.9375
-0.10580334932285591,0.01662368661557084,0.0035816649898249586,0.004442584316124262,0.01342546291559349,0.014099887194386084,0.009274315750265714,-0.800753857441625,-0.005959976895352608,0.8862173384674156,-0.021334187366508644,-0.004942974614516302,0.01873874617121586,-0.027593819134960357,1.9453125
-0.24799764795881765,0.03797518028692089,0.008263834312598903,0.008639708063136999,0.031604782544845444,0.033829321209455136,0.02076889138576294,-1.8807319879976143,-0.015942796346713133,2.0838825708224618,-0.0517081636764172,-0.009526940143958199,0.044854496348798935,-0.06388015878311026,1.953125
-0.1772382441638688,0.027362383873902642,0.005935085393749827,0.006551209592312481,0.02254762956089223,0.024010853124859337,0.015046689856334767,-1.3438668409922616,-0.010979840473724495,1.488469573568094,-0.036599262029837154,-0.0072468159181614126,0.03185252444541544,-0.04582026706130979,1.9609375
0.05740131678555763,-0.007860014446105186,-0.0017899975666536816,-0.0003751158828443005,-0.0074646249418819,-0.008549647972069713,-0.003923456381491084,0.4378078383723763,0.00548935143893902,-0.48745330677276805,0.013523033692905648,0.00031637858200954,-0.011249248927690967,0.014064285635298077,1.96875
0.2517590507170562,-0.03703749649989662,-0.008189234950857096,-0.006112580418937927,-0.03232209882183944,-0.03552214080617812,-0.01963580346645582,1.9138121754100879,0.01913405320573093,-2.124376927371378,0.05504409731757176,0.006580866737925244,-0.046951163830189976,0.06366190623932157,1.9765625
0.3101954071197001,-0.045804808335515944,-0.010112302097868495,-0.007837470046998793,-0.0397968803386843,-0.043628949237702115,-0.02436054279786771,2.3573549735530688,0.023237279649898777,-2.6163076421165936,0.06751958359229988,0.008463327956159757,-0.05769341132725818,0.07855816679769055,1.984375
0.24921297501049675,-0.03664822652581291,-0.008102865352007462,-0.006037044715018363,-0.031998392291854284,-0.03515855132502416,-0.019431811562926813,1.8939100647929425,0.018956313756305364,-2.1024468497363524,0.05447843269314727,0.006496753025405498,-0.04650231646700309,0.06297911595996442,1.9921875
0.09973630508694542,-0.014220784036518722,-0.0031817474808972326,-0.0016247364557521581,-0.012877683908093985,-0.014411027565810327,-0.007346610625146896,0.7590300515501602,0.00846408966157295,-0.8438914846623445,0.022546323772268836,0.0016793814398611301,-0.019042942126736438,0.024838741643936752,2.0
-0.06339098069404579,0.010252955832511686,0.0021859615546963593,0.0031900694746889715,0.007991083621681282,0.008221585267717069,0.00584480208499782,-0.4788978262507429,-0.0029851852268059503,0.5292393270116119,-0.012285711896116215,-0.003576419858636924,0.010936093193115856,-0.01676819962491284,2.0078125
-0.16749132632562863,0.02587941847858499,0.005610286013627761,0.0062622416950589566,0.021307730699989258,0.022659257563644643,0.01426369489273098,-1.2687660584557645,-0.010291573981050772,1.4056400248144814,-0.03451077783946356,-0.006929940346372309,0.03006832559102636,-0.043323431269524176,2.015625
-0.25834804087024493,0.03952444256806069,0.008601279729048898,0.008943307475578243,0.03293029047040806,0.03526212566523885,0.021610409235113048,-1.9586438439673,-0.016668938313370702,2.170877844332784,-0.053919364670843704,-0.009858574184441497,0.04676021527877405,-0.06652046790864134,2.0234375
-0.3798470256717964,0.0577588840428478,0.012602885055399915,0.012529152413075804,0.04847641363981701,0.05211982922508206,0.03143423440887093,-2.8813980874420917,-0.02519685808831122,3.193967492686873,-0.07987673825664741,-0.013776090048283023,0.06908346749125302,-0.0975356914801413,2.03125
-0.4050774066364011,0.06153736459843077,0.01343460590894998,0.013274391431795797,0.051708136149946474,0.055619275783256074,0.033473495956624855,-3.073059987531428,-0.026968046613116834,3.4062117067094104,-0.08526298525948886,-0.014589570148147622,0.07372327865890278,-0.10396318886541246,2.0390625
-0.21779566760409647,0.03342938344899807,0.007269354316708822,0.007747613634893401,0.02774772971941549,0.029631441271573102,0.01832793527359458,-1.6512095365855233,-0.01382444946116357,1.8292647813939278,-0.04525149875093344,-0.008551973670421114,0.03931342765577273,-0.056151807804820236,2.046875
0.0659110602830928,-0.009139451982738188,-0.002069796757362741,-0.000625533343355884,-0.00855283748269483,-0.009732519294771516,-0.004614355804391826,0.502490956634646,0.006086907588581821,-0.5592371249299488,0.015348895969102348,0.000592427890817646,-0.012818753821987123,0.016248029313816543,2.0546875
0.2613436199560746,-0.03846137893242938,-0.00850242389710098,-0.0063933686273217084,-0.033554756461011775,-0.036843959694767274,-0.020415451756426423,1.9858870105711002,0.019804181919602395,-2.2044307258498783,0.057081882593297543,0.006889035985074864,-0.04872722443341234,0.06609835509352342,2.0625
0.31807072339606834,-0.046975321014640095,-0.010369738746216649,-0.008067004805412612,-0.04080326427982462,-0.0447098512133456,-0.024997932388356982,2.416479952949549,0.023787579827214675,-2.681994164866062,0.06918586678561574,0.008714885978501119,-0.05914214388806077,0.08055126242302033,2.0703125
0.24868974491375964,-0.0365686715201536,-0.008086796633899098,-0.006019146529057943,-0.03192191311850718,-0.03508369069179476,-0.019385356829248555,1.8899980279134665,0.018919212923859,-2.0980091851827427,0.054364669615758095,0.006478947198303615,-0.046389259844730746,0.06284396694632675,2.078125
0.10370914419741152,-0.01481540373086439,-0.0033149203637933074,-0.0017414178139618889,-0.013381634443224174,-0.014972623818741784,-0.007664225076167954,0.7895558263351116,0.008742876582244983,-0.877523546233388,0.023405510064720345,0.0018079081457818926,-0.019756215261642434,0.02586350340097351,2.0859375
0.05593816990437979,-0.007644851113137971,-0.001741981313515249,-0.0003329334349859923,-0.007280671833606926,-0.008346180706100204,-0.0038041857178170075,0.4268167712851202,0.005388435611127871,-0.4752770576924596,0.013207719669146268,0.0002684741703823727,-0.01098537212999786,0.013685202083141888,2.09375
0.20303588674951167,-0.02971251922495536,-0.0065839040808855845,-0.0046742202381825915,-0.026097942972048576,-0.028750197174283097,-0.015698105500099657,1.5434108720494346,0.01571190290882281,-1.7135291437866014,0.044626700935107184,0.005008899353942899,-0.038010433736326496,0.05121653862635905,2.1015625
0.31765686617437444,-0.04690886757369366,-0.010358004410170306,-0.008056108491913079,-0.04075109090284789,-0.044647026725800655,-0.024964333614736888,2.4137912533183763,0.023757464765887318,-2.6784920810088155,0.06910964669873586,0.008704714488957929,-0.05906491237532517,0.08045528527822898,2.109375
0.13193030589120866,-0.019043587532174232,-0.004245483195376761,-0.0025747495330342967,-0.016985926159626793,-0.018878904545022463,-0.009946775872159634,1.0042494979080556,0.010723962894103038,-1.1150725900632215,0.02944324238466994,0.002721610137597339,-0.024941994305898094,0.03306247036401344,2.1171875
-0.2312396326305851,0.03544512328618323,0.007709824443385009,0.008142709777391208,0.029468318307940042,0.03150225826364506,0.01941588573433456,-1.7527518536413802,-0.014763925047217373,1.9422548313810963,-0.04812741524163826,-0.008983219347997824,0.04177677150148546,-0.05960179947177362,2.125
-0.43098345368694974,0.06541839386431496,0.014287067274921222,0.014037925028600986,0.05501220987691943,0.05921036628969579,0.03556448045695485,-3.2696247389033717,-0.028784132273289877,3.6240311448777565,-0.09079552030180138,-0.015424211575287748,0.07847225060997451,-0.11056586190521651,2.1328125
-0.3543308560843343,0.053922684119180726,0.011765085680011236,0.011776702568598387,0.04520307192088047,0.048575508954093884,0.029367651650654213,-2.688110197510995,-0.02340743986503739,2.9789794512357903,-0.07442332150689047,-0.01295629467933534,0.06439376813687421,-0.09100322858039771,2.140625
-0.15201058321670236,0.023561158072133218,0.005104136015895966,0.005805643723605295,0.01932487167887359,0.020506854422495654,0.013011890993291036,-1.1519256217184177,-0.009208548612846017,1.275582369979223,-0.03120506762205578,-0.006434660838213061,0.027226936216120306,-0.039374080886440614,2.1484375
-0.039612617850435704,0.006683080848415872,0.0014026923361072918,0.0024875670145463403,0.004951647749449539,0.004912506990878146,0.003924631845483058,-0.2981554649096676,-0.0013164871404178083,0.32894402419596197,-0.007199733557235336,-0.002809785125729787,0.006570715989687312,-0.010695881139397685,2.15625
-0.14923440385950773,0.02313091726915774,0.005011527571633407,0.005723336158682444,0.01897558222906886,0.020121934112001222,0.01278561933962715,-1.1304648957104757,-0.009007718484525886,1.2518895965285814,-0.030624189526524598,-0.006342580153352971,0.026700364560356803,-0.038677279239741055,2.1640625
-0.30926943837537485,0.04716417911823908,0.010281241671100422,0.010448487415030938,0.03944398595801625,0.04232803245600073,0.02572352407452701,-2.346080729988196,-0.020243146706435428,2.5998595489082885,-0.06481148731144674,-0.011502448390296148,0.05610471629538712,-0.07952043947381111,2.171875
-0.11606789352857964,0.018189750214615778,0.003921816749912995,0.004747145950130483,0.01472734013986368,0.01552394676859467,0.0101030382084143,-0.879727487786138,-0.006687683632466487,0.973659019059115,-0.023537743061569992,-0.005276802360459181,0.020623504991365522,-0.030219614788914287,2.1796875
0.4133155086460908,-0.06125856828173093,-0.013506282739234493,-0.010878787730889735,-0.05298796517557189,-0.057927613376588874,-0.03269977270731033,3.139684673728262,0.03046959866833394,-3.48382613246512,0.08954447657327264,0.011786986590876377,-0.07662986458933795,0.10486942453075364,2.1875
0.6589979681913375,-0.09815019768624828,-0.021595443808996872,-0.018132016276830816,-0.08440967997748305,-0.09201819591656084,-0.052565323691677796,5.0056126107895995,0.0477189945244768,-5.553103765716196,0.14202221512272153,0.019708289953304276,-0.1217755112441717,0.16756452529042967,2.1953125
0.3498563222343427,-0.05176574019417765,-0.011418430898995788,-0.009007976082159131,-0.04486365034433205,-0.04912434616760357,-0.027569677756460954,2.65878692281559,0.02602202210779588,-2.950398001365584,0.07598784245475566,0.009744883866525238,-0.06498698983472251,0.08867895109211482,2.203125
0.06041926604309962,-0.008311760629154756,-0.0018885614433084984,-0.00046372428423444907,-0.007845366933292455,-0.008960038575182402,-0.0041666421424912435,0.46080437419752995,0.00570222795146304,-0.5127754221849468,0.01416354170405409,0.00041359589061099516,-0.011810101304155886,0.014815810176397487,2.2109375
0.16005476346656247,-0.023247038248535554,-0.005167882501443081,-0.0034033540534174145,-0.02059677297859624,-0.022782703771258152,-0.01222289277123218,1.2167612846701519,0.012692806971443848,-1.3511884695198955,0.03544584106602797,0.0036231383207040724,-0.030112061674177678,0.04023711629678535,2.21875
0.11924465467688294,-0.01713434763296755,-0.003826674723879388,-0.0021998446693854284,-0.015375007182725572,-0.01712784907502797,-0.008921192795867795,0.9073381128608125,0.009831823328780588,-1.0081083231741808,0.026731902419879373,0.0023088061927755603,-0.02260812388243611,0.02983448256068991,2.2265625
-0.4013222096469102,0.06096244540555327,0.013307328460668646,0.013162647925526095,0.05122136307980149,0.055092496269878055,0.033174882810677715,-3.044019428230631,-0.026701647349856535,3.3740278216418687,-0.08445674642523794,-0.014468459248298024,0.07304222666197122,-0.10298740816276304,2.234375
-0.7366780577482083,0.11128610702440722,0.024347549044609087,0.02306013595388416,0.09412122058693691,0.10162694841822882,0.060291761260401214,-5.589988585730529,-0.05023967111492713,6.197637019709402,-0.15609168268767,-0.02527833847600114,0.13465399138381054,-0.18856876005885007,2.2421875
-0.3405217022788733,0.05185313590864568,0.011309753293431032,0.011369114795927815,0.04344029639605278,0.046672501170021405,0.028252696522921207,-2.5830898249633316,-0.022436900124054342,2.862952084112416,-0.07148276660672022,-0.012510602236148326,0.061850139902415904,-0.0874993288235547,2.25
0.22450245435756866,-0.03293027671933083,-0.00728843862146853,-0.005306082476936768,-0.028840836021559305,-0.0317200296484558,-0.01744072569448842,1.7061317840907178,0.01721871286266297,-1.8939193216075476,0.04920301907458897,0.005702322622730832,-0.0419747037946987,0.056680238753252676,2.2578125
0.25674283487636496,-0.037776921345547505,-0.00835118788244425,-0.0062579470969069285,-0.03296235805278854,-0.036201338730981185,-0.020045389769973773,1.9512199098796612,0.019480510386989582,-2.165715850098258,0.056098119179747157,0.006743119289643496,-0.04788736310250998,0.06492729923005276,2.265625
-0.006923578317613583,0.0017841555881373471,0.00032655778688522505,0.0015229792927528108,0.000770094102665988,0.0003725286975587168,0.0012809500623460607,-0.05014212661556954,0.0009751672973075153,0.05383790515511317,-0.00021310249696737674,-0.0017559638148498893,0.0005742784926635615,-0.002345688292511456,2.2734375
-0.029782395875229954,0.005217029574023122,0.0010796529978778302,0.0021973725044962464,0.0036946787807847813,0.0035408741230425317,0.003129865862289346,-0.22381361383884046,-0.0006262692808250068,0.24623410903381762,-0.005097241467432595,-0.002494392731326877,0.004772837814325978,-0.008192103604378186,2.28125
0.11714851373969824,-0.016833580817064066,-0.0037552235877607145,-0.0021385159327141096,-0.015102040239990823,-0.016843826149495453,-0.008756058232398691,0.8913917194769329,0.009689100041278412,-0.9908774384046606,0.02628249964509978,0.002241429181094598,-0.02223792695905116,0.029292200568632628,2.2890625
0.12975661041243622,-0.018733337556532646,-0.004170020343295151,-0.002509979338360518,-0.016713950565389612,-0.018588541520307773,-0.009777997883099592,0.9871643781562589,0.010573752387209602,-1.0971173599027784,0.02897349023344591,0.0026491013469593966,-0.024559488558383705,0.03251695965359699,2.296875
0.06671117817484082,-0.009271263098392485,-0.0020963696872259834,-0.0006492938707082851,-0.00864837859926966,-0.009835023573323552,-0.0046774943404970315,0.5087612101206997,0.006146340450201484,-0.5661507975417248,0.015505542629881408,0.0006176724951216915,-0.012968263271091877,0.016433651023466393,2.3046875
0.07052706361029164,-0.009828258786914457,-0.002223443934289295,-0.0007624435272184122,-0.00913966547330005,-0.010361099456037604,-0.004982719870982085,0.5377484928652002,0.006411757134195823,-0.5978542209051759,0.016319517888654437,0.000739973089120649,-0.013661469952176567,0.017397075749565567,2.3125
0.04690161961550575,-0.006268570581227494,-0.001445806240520547,-6.548068413536379e-05,-0.006120280055355018,-0.00708449940208302,-0.0030699250961752048,0.35821723664776534,0.004752118223560275,-0.3986525673273472,0.011273998029836564,-2.2967470070889276e-05,-0.009314634480527939,0.0113567980900033,2.3203125
-0.05053143678636467,0.008351073485415863,0.0017617834557357652,0.0028103977452802156,0.006347622380023235,0.006431640031770464,0.004811133293758822,-0.38153016807931867,-0.002085891563720437,0.42155824695750566,-0.009536690757047788,-0.003164465672569831,0.008594621233702974,-0.013506236324772955,2.328125
-0.08448300513348679,0.013433513114760818,0.002879168238025183,0.0038128722774679667,0.010697351434922737,0.011140847683125014,0.007556433269970686,-0.6391277050381273,-0.004465989823551311,0.707027699898843,-0.016787112756671028,-0.004257987840958685,0.01483383926643974,-0.02215995567658898,2.3359375
-0.044346596123944544,0.007402372766351231,0.0015579880347357156,0.002628410125934643,0.005560921756027526,0.005569131265372584,0.004305883787808495,-0.33430293323414456,-0.00164693358368536,0.368844157106822,-0.008208602538974933,-0.002961924248208818,0.007447615414275959,-0.011903136639919902,2.34375
-0.06566515610710202,0.010604499307915577,0.002260789825957568,0.0032575959237943694,0.008278328451497528,0.008524413494348548,0.0060246447386165585,-0.49631682559391754,-0.0031455472631620575,0.5484940214857673,-0.012758994333772698,-0.0036479776248014616,0.011351463018973782,-0.017333759230193292,2.3515625
-0.11366903523149896,0.01781470307971219,0.0038421921176676212,0.004674584620363569,0.014415856807105406,0.015188223032186032,0.00990733634148519,-0.8610429220420797,-0.006518641432363431,0.9530569544374932,-0.023019854846501524,-0.005197085508597182,0.020171445620067827,-0.029591540852427916,2.359375
-0.06828986141177984,0.011002483186267972,0.0023485210196431045,0.003335106037125585,0.008618742636427486,0.008898371560351155,0.006242178186538536,-0.516475574514374,-0.0033329368361615197,0.5710239863508513,-0.01333572757067971,-0.0037363585991227496,0.011841059645131801,-0.018029263614435697,2.3671875
-0.049185885151713044,0.008121967681891476,0.0017188010585522401,0.0027700613045964,0.006180746468423261,0.00624634707348613,0.004697836721545392,-0.3709532069519968,-0.0019873037263412425,0.4096313064918089,-0.009250909500632162,-0.0031195404649889996,0.008329976407197036,-0.013155302377385627,2.375
-0.1870810832670274,0.028804356626708924,0.006257532257580407,0.0068386772438490465,0.023814660988628736,0.025370114641672572,0.015845169994086132,-1.4175519562095125,-0.011663543687568459,1.5701812484405333,-0.03869638961017118,-0.007562312548680644,0.03365730575635405,-0.04832559040002228,2.3828125
-0.21262522618344282,0.032644523300520256,0.0070989432400731444,0.007593109761240676,0.027073759798364894,0.028912102956836307,0.01791009703825522,-1.6119198949202926,-0.01345944135228734,1.7855792996643984,-0.04415740566666803,-0.008386927574892036,0.038349244963333196,-0.05483713039736537,2.390625
0.1582555686134555,-0.022993696002080555,-0.005109159315068244,-0.0033513628565785126,-0.020368697164819257,-0.022537299438512615,-0.012076731217480596,1.2031638058470981,0.01256805317470584,-1.3363572128830017,0.03505214599281584,0.0035644220760035726,-0.02978329399741481,0.03978808855320527,2.3984375
0.5724159498898308,-0.08513754378435048,-0.018743260531327376,-0.015574389347610091,-0.07334013367367323,-0.07999384326104597,-0.045563963574424673,4.347601320017225,0.04163723630043418,-4.823318038499537,0.1235225550829436,0.01691409913983007,-0.1058679748469356,0.14546087321812598,2.40625
0.45432676146651824,-0.06742648352782266,-0.014857263674021957,-0.012090075818306205,-0.0582284607894385,-0.06361462620945299,-0.03601662387721869,3.4518009234579115,0.03335218456014437,-3.8296657891105044,0.0983145087014993,0.013111572135886915,-0.0841730665724931,0.11533477176518882,2.4140625
-0.03776653793889257,0.006410947722422989,0.0013419267442699838,0.0024334464676834602,0.004720039514578541,0.0046534777672115925,0.0037706970826879046,-0.28403139865361277,-0.001184227043455077,0.3132307404207614,-0.00679749674030955,-0.00274791149391218,0.006229124618031988,-0.010229599640759781,2.421875
-0.23424573656421308,0.035903046075631065,0.007811700244612715,0.008233836389161796,0.029850655875644876,0.031914439971476444,0.019655560778391,-1.7764706884868957,-0.014975315000310782,1.9679532643247135,-0.04878284954667378,-0.009083414226523439,0.04232187826575969,-0.0603752766776254,2.4296875
-0.03618619328592443,0.006193084194673217,0.0012925920200488146,0.0023890678094204924,0.004511677507501553,0.004438082959850501,0.003641977404002034,-0.2733467610010058,-0.0010765032658898613,0.30083951375084544,-0.006483152285825092,-0.002702356174401639,0.005939580887215979,-0.009840093384233814,2.4375
0.07454144145594861,-0.010426310441685132,-0.0023546441040892237,-0.0008805762924125332,-0.009654290872713318,-0.010926863782264977,-0.005306528399187301,0.5678273722923269,0.006694020166734999,-0.6317229534386875,0.017182731177910648,0.0008675657982049504,-0.014390965399270785,0.018428217375236602,2.4453125
-0.015162932414975966,0.0030205096224896226,0.0005958938273537603,0.001764879526235338,0.0018215623043575117,0.0015161462558044457,0.0019497859931814957,-0.11231647802294557,0.0003990805337959387,0.12296973701353214,-0.0019671201677721067,-0.002020632347001934,0.002090896314714268,-0.004450722852189302,2.453125
-0.022760483459792407,0.0041567570159399825,0.0008468550654789866,0.001989414484842812,0.0027949862282869793,0.0025753035911955276,0.0025615532557688426,-0.16993977621890455,-0.00013359913954885777,0.18701576324836275,-0.0035983989190056633,-0.0022647066355243523,0.0034723339384510905,-0.006400293410043322,2.4609375
-0.0389011391776088,0.006593868476478955,0.0013810895026251057,0.002468104052603641,0.004858814070206292,0.0048238368047473675,0.003863398393853308,-0.2932516315763029,-0.00126910478196692,0.3236175981237365,-0.007058868486873609,-0.0027878848216783716,0.006431876990253281,-0.010536953265997491,2.46875
-0.3357846205212352,0.05115791432190115,0.01115488162153029,0.011231508577567575,0.04283391306643018,0.0460157430267233,0.027870734202837404,-2.5476635033905017,-0.022109710386560056,2.8235784392924055,-0.07047197448455755,-0.012359852175851194,0.0609925993670741,-0.08629141210163431,2.4765625
-0.5934199537757405,0.08980847984252135,0.019633478814317536,0.018833793896366764,0.07579125848411204,0.08175299836081258,0.048706698472109816,-4.503141929166381,-0.04019161424207352,4.992245391675561,-0.12549366215058158,-0.02066261180825778,0.10834058012353738,-0.1520122645825701,2.484375
-0.3122855484302871,0.04759970897609223,0.010376665585206602,0.010534275076090066,0.03983208298791369,0.04274217649374027,0.025974810896029137,-2.3680428165295297,-0.020455757685248713,2.6246391119765686,-0.06544207144498683,-0.011597584320715145,0.056679689304712184,-0.08026371098916049,2.4921875
0.2323814481034235,-0.034133615288140594,-0.007552084058506923,-0.005540836865286126,-0.029840563382127854,-0.03282221819938227,-0.018069254316274482,1.766952723518077,0.017774680834291397,-1.9610353059485166,0.05089252952990742,0.005958312844304891,-0.043405878875817025,0.05870623898464176,2.5
0.39633717152954934,-0.0587163105712315,-0.012946330977623242,-0.010378019658581313,-0.050817386354295425,-0.05556402133533003,-0.031329264608555216,3.010894734020633,0.029280928276224135,-3.340901429934557,0.08591140937433657,0.011239692274360696,-0.07353098316544174,0.10052393898239974,2.5078125
0.20354353767068017,-0.029779722831243284,-0.006598411561250017,-0.004687435830693942,-0.0261583034194939,-0.028818733890722658,-0.015741978473284502,1.5468541740859214,0.015748742523804756,-1.7176612468204666,0.04473447808157477,0.005024394747577822,-0.03810626633675903,0.05133015004604091,2.515625
0.11471614168477402,-0.016470937656478085,-0.0036756892966767016,-0.002067124543719506,-0.014792568776478124,-0.0165049011484323,-0.008560222141875759,0.8729827588866657,0.009516849541681664,-0.9704136711277893,0.025762899017757756,0.00216382843301711,-0.02178899372186916,0.028681956736391397,2.5234375
0.17324506644984,-0.025269922487738995,-0.005604256008715189,-0.003795483915607927,-0.02227409513476629,-0.02463129071275963,-0.013291811031528844,1.3178534159515327,0.013628632063584311,-1.4636894111183985,0.03826447073164913,0.004052002165966786,-0.03254335298007271,0.04362476050193444,2.53125
0.15091292089239777,-0.02190999044089842,-0.004869255547985808,-0.0031360068682629067,-0.01941722308421477,-0.021529979007107923,-0.011485029381428946,1.1482135073418056,0.012062917141384362,-1.2755669546326562,0.033497904346110774,0.0033310474702616124,-0.028436306024787524,0.03791745725910538,2.5390625
0.0897989379018856,-0.012725406736899312,-0.002856487850564652,-0.0013316149015343466,-0.011604667353562938,-0.013044101238930223,-0.0065441094774932014,0.683947435840633,0.007771357265097334,-0.7606556368262389,0.020448868807398213,0.0013607449034916878,-0.01720895346740409,0.022317740209568244,2.546875
0.08973810531844108,-0.012715275948652563,-0.0028541585530555942,-0.0013288695078146854,-0.011599448228301024,-0.01302985089458893,-0.006539335516701363,0.6834625935467402,0.007761381958994672,-0.759835340845317,0.02043362565546946,0.001360321850225236,-0.01720111272353384,0.02231035106596763,2.5546875
0.0326431465608882,-0.004146630656890772,-0.0009749835277181186,0.00035790812715643186,-0.004293546587534539,-0.00510478360656659,-0.001920250043072807,0.24998531888569245,0.0037477796643668364,-0.27879484381634845,0.008229401397334012,-0.0004797931004327627,-0.0067040838845484705,0.007746096955185906,2.5625
-0.08158928482683843,0.013006787646514929,0.00278560538157283,0.0037301678271297023,0.010319760578528923,0.010744513235410874,0.007318948604370396,-0.6175199513465144,-0.00427241151945006,0.6833336400483124,-0.016176699221423008,-0.0041644106810307035,0.014295034109806247,-0.021414595086705776,2.5703125
-0.05767338765889974,0.009425431327621872,0.0019988007143497367,0.0030225173140932906,0.00725728946044781,0.0074238472381486145,0.005385586178790573,-0.43609096591472435,-0.002591083157181091,0.4820302452132217,-0.011067613857391988,-0.003395945156051561,0.009900971906108167,-0.015328239547304272,2.578125
0.03356281598159853,-0.004275494932032204,-0.0010052025401719549,0.00032702924881304206,-0.004413783909417193,-0.005236749457576917,-0.0019915080820387897,0.2569009781498262,0.0038177699788174823,-0.28653875284721086,0.008424364255428451,-0.0004545595792906018,-0.006869003705439708,0.007950576288023,2.5859375
-0.09153525013748899,0.01448128203694269,0.0031113448120770808,0.004018505924491915,0.011594047921193637,0.012119945838203526,0.00812394539757216,-0.6923428524200002,-0.004959088020244815,0.7661972501048492,-0.018292718415728878,-0.004483973438710631,0.01611370687200558,-0.023958443990612654,2.59375
-0.3570092986095429,0.05431685517774482,0.011849919143267846,0.011855168060695101,0.04555585511652414,0.04895374374069196,0.029588124593858667,-2.707748518306688,-0.02359273046025049,3.0012628967289676,-0.07499602195673725,-0.013038924628376539,0.06489145170005098,-0.09168852738706827,2.6015625
-0.4066053244940628,0.06177216077652652,0.013483752641573343,0.013320222456253554,0.051895201771831746,0.05583473318845067,0.03359637162690222,-3.084741746896777,-0.02707700080340956,3.419252173173643,-0.08559119488915629,-0.014638529609030584,0.07400349725406026,-0.10434523368632201,2.609375
-0.21379133146729587,0.03284698264890269,0.007137691801437721,0.007629389420558401,0.027227055895513653,0.029081115954093375,0.018006180103387646,-1.6212890003644338,-0.01354448459529646,1.796131775708858,-0.04440866957498289,-0.008425962594488875,0.03857714963644715,-0.05515334204656761,2.6171875
-0.050951642804173795,0.008400145247399668,0.0017768122105015945,0.0028223916665352424,0.006402385298105907,0.006484464734218665,0.004839768217885488,-0.38476728032194746,-0.0021101649958857535,0.4246680267763939,-0.00962497386807867,-0.0031771096962689453,0.008656981733226625,-0.01360371384549062,2.625
0.023202670779022362,-0.0027481244392099763,-0.0006652637678328358,0.000633125751629695,-0.0030764756976070185,-0.0038074918206231125,-0.0011583595338886107,0.17877580578612579,0.003099888587455844,-0.20037572329588277,0.006218327538981238,-0.0007843451891207348,-0.004973306323468951,0.005327021913544045,2.6328125
0.13969355619809604,-0.020233434362267422,-0.004499963004893171,-0.0028045246535110127,-0.017981542632411283,-0.019969593393179354,-0.010578910962826746,1.063233230255808,0.011273632723360119,-1.1811600659174377,0.031101119538802655,0.0029711926399738123,-0.02637966934022456,0.03506231417494273,2.640625
0.2655756156807026,-0.039107235777726075,-0.008642768408679771,-0.006518542657623089,-0.03409484490799441,-0.03743085890146976,-0.020755224391749743,2.0183738378450538,0.0201003440656096,-2.240264834155202,0.057984471120953604,0.007026219180507072,-0.04950311024737211,0.06718519401649235,2.6484375
0.28791382662739395,-0.042447092355552496,-0.009377238139417356,-0.007177456280053317,-0.03695573436513185,-0.04052744139514714,-0.022560110311176978,2.1875899422787013,0.0216643454761191,-2.4278856238916413,0.06275238509323931,0.007744589375301989,-0.05360320875042525,0.07287881959345888,2.65625
0.24127187517815343,-0.035455181923951605,-0.007841889954811216,-0.005802051578790318,-0.03098196431400476,-0.03405790238648931,-0.018791377772271606,1.833780271221082,0.018396183180764008,-2.035606927299738,0.05279426326078424,0.006242685634169708,-0.045037433416952946,0.06097018260278825,2.6640625
0.17362952683168537,-0.025315023016687376,-0.005615876027891302,-0.0038065829834139316,-0.02232221694889984,-0.02467495528651425,-0.013323980925013622,1.3207205243611098,0.013655036059458846,-1.4666687362082267,0.03835398646844087,0.0040642162057408756,-0.03261320666998136,0.043706418776836765,2.671875
0.05553339212294143,-0.007588324559085358,-0.0017287865442740797,-0.0003201522314569762,-0.007217773341970251,-0.008286849124888522,-0.0037732889355561097,0.424114720618143,0.005365057041580535,-0.47219626927994207,0.013127529047676459,0.00025740446902847294,-0.010914735654999841,0.013570589844049042,2.6796875
-0.03575784091023144,0.006124849749292108,0.001276779934132151,0.0023758497270898074,0.004453116650651847,0.004385142144205142,0.003610446033239952,-0.2694909364492213,-0.0010486928910081565,0.2971613299093619,-0.0063852684361578975,-0.0026867148638373348,0.005858712206003423,-0.009725664422248375,2.6875
0.01659722077039815,-0.0017244315705795233,-0.0004460221019726164,0.0008309806321057617,-0.0022462508014160893,-0.0028772976726191414,-0.0006216254821352268,0.1275659353123593,0.002622076161531003,-0.1432128958527999,0.004789518031455032,-0.0010008799094523332,-0.0037554359152786854,0.0036336932663242477,2.6953125
0.0805653607558683,-0.011327195623741616,-0.002552265265619966,-0.001057934567616215,-0.01042459758668891,-0.011757506998596323,-0.005791403148248658,0.6134262840936365,0.007112833840161508,-0.6821044978356435,0.01846334247762894,0.0010603245968100162,-0.01549455999541617,0.019961448524452276,2.703125
-0.03141048079230568,0.005466173665451666,0.001132337011521376,0.002245923554074785,0.0039042510935682626,0.0037736934774670996,0.0032640036632628003,-0.236009692146351,-0.0007428158315995053,0.26004250227600145,-0.005439469282894112,-0.002546932674456065,0.005083208940396097,-0.008605428395573505,2.7109375
-0.1678055557990419,0.02592646617766631,0.005622005777522578,0.0062712028310712474,0.021352551580215547,0.0226994949767358,0.014288355988520634,-1.2712100435254348,-0.010312669566362424,1.4081960879437085,-0.03457563075880882,-0.006940234341576791,0.03012528458060776,-0.043412844721654346,2.71875
-0.1291524662423784,0.020130384706117697,0.004351257015140165,0.005130879504051436,0.016405394014388088,0.017341193775595187,0.01115765705218612,-0.9782712101496871,-0.007599028163942269,1.083113613633145,-0.026333629444680456,-0.005694612155627934,0.023007999534838088,-0.03356015337600551,2.7265625
-0.1388078327036763,0.021588934032685383,0.004670042336712527,0.005416436839441907,0.017638234613712063,0.01867973678196647,0.011939880529371808,-1.0521403455975782,-0.008278755457328642,1.1647239492008532,-0.028398533303066575,-0.00600889169709889,0.02479311626233107,-0.036022727008408174,2.734375
-0.4221195406698774,0.06409885544900322,0.013994487814307628,0.013777536730537774,0.053879908949977615,0.05798109886363991,0.03485406940350353,-3.2026818953835483,-0.02816504642201464,3.549775540789734,-0.08890314800426447,-0.01514094203016119,0.07686371219919276,-0.10829851649274076,2.7421875
-0.6041395518828375,0.09139559930441905,0.01998410493559712,0.019147992690443705,0.07716620699042616,0.08323254554728553,0.049574642418082564,-4.58373100122924,-0.040939257773641755,5.081773162087646,-0.1277798602369512,-0.021004786116522664,0.11030251026783013,-0.15473678730745605,2.75
-0.22593890606329686,0.03463854260002422,0.007535000699029924,0.007985181564107723,0.028787772498213113,0.030764234445727973,0.01899200208620947,-1.712393864852741,-0.014393295212013062,1.8975664269653774,-0.047006157548731976,-0.008814208141282054,0.040802856211233106,-0.0582491378995724,2.7578125
0.41779022103050995,-0.06194154489033072,-0.013652667617423214,-0.011012089796135542,-0.053560361380158794,-0.05854440264698077,-0.033062276222204326,3.173938684534362,0.030786770810937433,-3.521745471524603,0.09049112511345027,0.01193099406866658,-0.07746917299567625,0.10599137481231383,2.765625
0.651852423736836,-0.09705182265651889,-0.021356283275013776,-0.017918311678760603,-0.08350515548748108,-0.09102131744948687,-0.05199187305287151,4.950448212470055,0.047213554692918644,-5.4922100467907695,0.14049872351521453,0.019474282216145,-0.12046908088105679,0.1657260341147064,2.7734375
0.3755284038885717,-0.05559683725524001,-0.012261813925616621,-0.009763340555978325,-0.04815860665071918,-0.05268891897277853,-0.029650678740657053,2.8530521950981136,0.0278203882135501,-3.166075540329004,0.08148591298585567,0.010571375758603499,-0.06970493932865368,0.09524326749633692,2.78125
0.044845490927069846,-0.005987696542133908,-0.0013782329813576753,-5.11222650759799e-06,-0.005854911905392404,-0.006809538469595309,-0.0029088629012800553,0.34298046349625416,0.004612170756143918,-0.38213968002244514,0.010845157969198202,-8.55095623645002e-05,-0.00895098792820527,0.010869430129841118,2.7890625
-0.04711133458229178,0.007816307275602771,0.0016495129241620428,0.0027090611915553432,0.005911107230239763,0.0059547271553229975,0.004531479864683947,-0.3554598427546479,-0.0018424792718010985,0.3923989423699956,-0.008811443073941841,-0.0030528871360518306,0.007950808748437295,-0.012617123839906905,2.796875
0.004453442866067517,8.770154550124793e-05,-4.557113787319314e-05,0.0011887712894448114,-0.0006848604427515847,-0.0011942716576523473,0.0003600961777881724,0.0355337547491039,0.0017762987289907707,-0.041458212800043706,0.0021985976025580187,-0.0013933554832947803,-0.0015243197670176771,0.0005227738446074678,2.8046875
0.006868396566500328,-0.00028108470661918945,-0.00012437474948830162,0.0011181012237525634,-0.0009951102074569331,-0.0015303076745506279,0.00015795272260821393,0.05405615968423147,0.0019465090293966176,-0.062042508207885046,0.0027218682512752733,-0.0013126003149070476,-0.0019808685503907323,0.0011484376265154799,2.8125
-0.0914875185788345,0.01446660296162945,0.003111664926719663,0.004020193855328396,0.011586010598629534,0.012111589392282063,0.008110007477745698,-0.6921313511521736,-0.004957612549032095,0.7657098262549419,-0.018282929579347445,-0.004479410987145566,0.01608712012800116,-0.023930293211800152,2.8203125
-0.13444912183007943,0.02091741596684683,0.004524487310918008,0.005287487532010174,0.017081357139049767,0.01807046345737949,0.011590896875097612,-1.0182914652129027,-0.007975797977263057,1.127585236885516,-0.027465029534196782,-0.005865927689687217,0.023995145578075982,-0.034892551650131526,2.828125
0.04526586089277766,-0.006035132702536955,-0.0013911453802681753,-1.6961270380274785e-05,-0.00590883420870373,-0.00686230020580934,-0.0029351339312838113,0.3456846997204577,0.004636810845153818,-0.38511258596670367,0.010920357471244658,-7.726671164985687e-05,-0.009010812358292973,0.010951077324700638,2.8359375
0.26279149160419,-0.038670257112657966,-0.008551628652092563,-0.006437890924794694,-0.03373462980375396,-0.03704102748781514,-0.020524445133152994,1.9971331292751207,0.019906547703667597,-2.2165635867515823,0.057395368310756596,0.0069341149876418675,-0.04897621085810257,0.06645286701374521,2.84375
0.13181882324685593,-0.019023432936931484,-0.0042414724262585055,-0.002573204343632056,-0.016978209202517403,-0.018869204431827998,-0.009935647421243256,1.0032810274435255,0.010715779595082825,-1.1141880192432654,0.02943078434450671,0.0027160759065787245,-0.02491500014896981,0.033043774502816765,2.8515625
-0.2833932460648567,0.04327627306414917,0.009426147668995561,0.00968197554028867,0.036136678850240904,0.03873835014181038,0.023637394259959588,-2.148836162906549,-0.01842818790991961,2.3815926234377134,-0.059263695777908895,-0.010665684161631958,0.051371188514560434,-0.07289754194785189,2.859375
-0.45386727467607957,0.06886016816387937,0.015039707863823377,0.014714980292951485,0.05794046386246722,0.06238946698156118,0.03741927800525863,-3.443551563880766,-0.03039533733924387,3.8171764397072456,-0.09569005245290427,-0.01616272649216425,0.0826880568706083,-0.1164038531155097,2.8671875
-0.17789002928830874,0.02745197431008818,0.005956886240406197,0.006570558969507415,0.022635287903349885,0.024098039630460033,0.015100883729637825,-1.348761012240741,-0.011023819366196631,1.4937128159961401,-0.03674435548637398,-0.007269595274400353,0.03197668625491589,-0.04599537981177254,2.875
0.15257020522960965,-0.022141732614344746,-0.004921881323152442,-0.003183306549394621,-0.019632440805568363,-0.021751681543021213,-0.011619854853130303,1.1603120002608227,0.012175025638614615,-1.2889343621130607,0.0338477871383369,0.0033827735208889647,-0.02874086112264242,0.038323222884037,2.8828125
0.18446448426577342,-0.02693978179400332,-0.005973476981922872,-0.00412543129609779,-0.023706259629635237,-0.02617641873773074,-0.014197366406234833,1.4029379627044587,0.014416646728203702,-1.5578706658349286,0.04066254207722577,0.004413275565018512,-0.03460151653328478,0.04646784275256679,2.890625
0.002694307528494819,0.0003348673452488046,1.008413987266903e-05,0.0012394753306959206,-0.0004572664554956661,-0.0009564831237890604,0.0004998930903439749,0.022956542925740713,0.00165570842356093,-0.027343474213678838,0.0018340942445611841,-0.0014450536967178782,-0.0012064483612743886,9.494562828363204e-05,2.8984375
-0.1242987658568235,0.019406235951588986,0.0041919719489411,0.004988082219137581,0.015777255177791993,0.016663740661428655,0.010767904113044712,-0.9416628447019061,-0.007264205955562901,1.042469446323653,-0.02529248492954215,-0.0055406091802807315,0.022128482806374417,-0.03230767866309099,2.90625
-0.042279967291894774,0.00710992358728082,0.0014925668550420284,0.002567070155399678,0.005280910827954738,0.005284681485488595,0.004137952896435417,-0.31930098634040127,-0.0015101685820171065,0.3522944514337919,-0.007774856387818154,-0.0028991925076917884,0.007064292049280829,-0.011385240615338578,2.9140625
0.1570483767650211,-0.02281321803063973,-0.005070227559423113,-0.003317127560304795,-0.02021000108381349,-0.022371983619526054,-0.011977825242097093,1.1943139975284986,0.012484781142190716,-1.326296356667668,0.03479696174886742,0.0035264149702211893,-0.029560415582656267,0.039473252369108265,2.921875
0.1741463031700522,-0.025400789054994356,-0.005634254362586961,-0.003822349438833507,-0.02238816857691744,-0.0247455216174429,-0.013361978461423299,1.3247158047640573,0.013690643907068192,-1.4709211024274715,0.03844811443712601,0.00408055623960685,-0.03271092340501752,0.04384187637978903,2.9296875
-0.09092127947701045,0.01437477986562711,0.003091705322592528,0.0040021546357891374,0.011519225344413082,0.012032755555137135,0.00806851158758487,-0.6875720409311695,-0.0049143485794631925,0.7607118347285493,-0.018164123855430175,-0.004461467216985937,0.01598654206101076,-0.023787766952200282,2.9375
-0.2728666791716268,0.04170094592293291,0.00908218369427416,0.009374251022186319,0.034787121734083847,0.0372799031729472,0.022780661990666404,-2.0694410928578675,-0.0176905089750636,2.2932194485297623,-0.057023108560704965,-0.010327268140390635,0.04942340930816721,-0.0702163675518528,2.9453125
-0.06264225588306396,0.010170719155355955,0.002162099817892114,0.003170370264718203,0.007892761672834817,0.00811229033389101,0.005785314512615159,-0.4738802642349577,-0.002938924751148707,0.5237197742118019,-0.012121528884321095,-0.0035536000148415816,0.010810953396115862,-0.016580441554716118,2.953125
0.28541468824759364,-0.04206922562717755,-0.00929636375389012,-0.007103600555615117,-0.03662573501147418,-0.040182394365102056,-0.022355049471724463,2.1688123195081843,0.02149293769158147,-2.407081100135885,0.06222354835654764,0.007664240505501386,-0.05313021205445294,0.07223217695555562,2.9609375
0.3989520496199668,-0.05912489134542484,-0.013034508354110911,-0.010456259713237584,-0.05114479415946694,-0.05593745303480547,-0.031535845463579924,3.0313908188113117,0.029466773170005303,-3.3637106567677098,0.0864847572912283,0.011324893237791666,-0.0739921482929725,0.10120826176625161,2.96875
0.3140334110908897,-0.04638184234882349,-0.010238506289573259,-0.007950249244541298,-0.040284773205614466,-0.0441542424986694,-0.024673772347320197,2.3868022339928103,0.02350812660892461,-2.648852765606133,0.06835364016239684,0.008589163673559552,-0.0584003215825253,0.07954020489040904,2.9765625
0.169891401457389,-0.02473670806223856,-0.005492410053094133,-0.003695238582483983,-0.021853281281257096,-0.024152408842470566,-0.013022516080351635,1.2919421257377492,0.013388218179539807,-1.4346340897743484,0.03755628533196604,0.003943057348224997,-0.03192719782473524,0.042753906986287074,2.984375
-0.09008574395460671,0.014282086407789227,0.003065920701034073,0.003978025244068378,0.011399596929245717,0.011920545578578105,0.008000661275391471,-0.6822199709679617,-0.004862786900684575,0.7547627700347381,-0.01799085467941638,-0.0044380129992544985,0.0158392629557453,-0.02358680919798889,2.9921875
-0.3999808835164377,0.06077403156450716,0.013266129750733463,0.013123429149716799,0.0510444348251607,0.05491706768273636,0.033063960333410025,-3.0346122900361596,-0.02661412212359034,3.363693063706527,-0.08418732731589516,-0.014427147530536553,0.07278533497379923,-0.1026568115428564,3.0
-0.5090786498329924,0.07713222427121275,0.016856232720824343,0.01634252030216529,0.0650054003662995,0.0700508831086333,0.04188801349823061,-3.862256965211838,-0.034268190745299014,4.281643566911348,-0.10748150048329291,-0.01794233585896235,0.0928330565682244,-0.1304911040781445,3.0078125
-0.39613517289114913,0.06018569499486474,0.013138723490993372,0.013009863193157863,0.05056021068639948,0.054378119421601964,0.03275286771977289,-3.0048505439562057,-0.026337647367175098,3.3306162899952114,-0.08335689072466156,-0.014301538427708595,0.07207528369188623,-0.10168045825182982,3.015625
-0.22031851041473918,0.033815564085707864,0.007353146949970279,0.007822820773729993,0.028068928366210465,0.02998626358287808,0.018532826407603273,-1.6708392034515733,-0.013997575294406086,1.8508262846030206,-0.04581469862985755,-0.008636861330782097,0.03976715931332336,-0.056831601464843715,3.0234375
0.04569172220840908,-0.006095883403730973,-0.0014026077926006404,-2.7303494699369233e-05,-0.0059609210977811505,-0.006919300786165421,-0.0029777184386347785,0.3483179118271498,0.00467064305126619,-0.38855233451831983,0.01100327469276472,-6.410507614154553e-05,-0.009103808445067783,0.011048116954555246,3.03125
0.3971503927643635,-0.05884399245617293,-0.01297432082928744,-0.010401914169088386,-0.05092032459694332,-0.05568612615666302,-0.03139541172119056,3.017260103733705,0.029337477157428946,-3.3480177667480833,0.08609100050870463,0.0112673815067703,-0.07367298929877476,0.10074957347480393,3.0390625
0.5032392869784468,-0.0747726331943939,-0.01646942918319884,-0.013535468437192794,-0.06449162382266982,-0.07041064608682102,-0.039972280552090844,3.823523198619082,0.03678427713723157,-4.2416465653425135,0.10876340902520605,0.014690954906261836,-0.09316627223431034,0.12783215506864412,3.046875
0.18904277484177132,-0.027619817946319698,-0.006125942696075667,-0.004262572900502528,-0.024301110310024084,-0.026815870780845727,-0.014566366432682758,1.4380192585302038,0.0147318943003374,-1.5961233453042856,0.041646179524485454,0.004562773805376337,-0.03544141852865929,0.047647490893320814,3.0546875
-0.16050859727172473,0.024844133331754236,0.005384106177088466,0.006056148747959665,0.02041194954889677,0.021688571160106248,0.013696519419997458,-1.2165107094734064,-0.009803183507691635,1.3472465415023729,-0.03302206069681101,-0.00670835185486292,0.028785190588757687,-0.041560505612495545,3.0625
-0.16317857183358286,0.025243160275253924,0.005473583427026677,0.006136855771820251,0.020754120370564254,0.02206084170457121,0.013910905150373663,-1.2370121075654184,-0.009991498351084545,1.3696265675477224,-0.033585469753556293,-0.006795675966247835,0.029280801404665414,-0.04223250006763974,3.0703125
0.011047648701646035,-0.0009133349887328003,-0.00026311763091831965,0.0009948658840068204,-0.0015310245065969742,-0.002113594934528652,-0.00017572035596246844,0.08602581505238381,0.0022366479073630103,-0.09750330012974905,0.0036288559273851195,-0.001177795827702344,-0.0027319698858223216,0.002242456834392711,3.078125
