AF3,AF4,F3,F4,F7,F8,FC5,FC6,O1,O2,P7,P8,T7,T8,time
-0.21101505829776804,0.03243285827136338,0.00704521709184889,0.0075477297135424035,0.02687755223564385,0.02869486019355341,0.017787151034944614,-1.6002759144815955,-0.013346546627003691,1.7727071818501567,-0.0438221466275306,-0.008338815520738238,0.03807968838165636,-0.054458621481463895,0.0
-0.16266882679427955,0.025154976078417563,0.005451795879564114,0.006120556497970023,0.020699368776995214,0.02198309259602977,0.013875624888538694,-1.2322942635405434,-0.00995214480655969,1.3649845111495449,-0.03348708389036882,-0.006775127765760774,0.029188875865289367,-0.04209984593956806,0.0078125
-0.09962860403462392,0.015683990508887725,0.0033776411367603533,0.004258865249457542,0.012630941419770149,0.013235084376628757,0.008773876424608976,-0.7535623795310042,-0.005526634472608801,0.8339698925272359,-0.020018184219421902,-0.004742238095944602,0.017593179557120527,-0.026006003923225714,0.015625
-0.010728397525569151,0.00235578781121598,0.0004539924553413133,0.0016350962151831742,0.0012503458706670401,0.0009039772803931672,0.001584020041273578,-0.07948858124274993,0.0007118879956953115,0.08595622363634431,-0.0010353108832950766,-0.0018811518301393338,0.001257288538238262,-0.0033323972856669874,0.0234375
0.04103610273152122,-0.005397968627990851,-0.0012489908616640864,0.00010821273197031772,-0.00537249951380633,-0.006274010303605178,-0.0025987898723170842,0.312900103425054,0.004342767618933429,-0.34937425150409696,0.010013503143508047,-0.0002160014997544933,-0.00824419595594264,0.0098644035017239,0.03125
0.03924352683117134,-0.005136571439624077,-0.0011917866610586336,0.0001604378155637834,-0.005138264906922391,-0.006025049612820763,-0.0024519130764003656,0.2998996388915539,0.004216666247744689,-0.3345221600336275,0.009634405510210954,-0.0002709586450476073,-0.00791340350045314,0.009411521752227092,0.0390625
0.05240903457924116,-0.007131638711804665,-0.001627267414158354,-0.00022998632992563215,-0.006820755015750005,-0.007853946453582122,-0.0035194444609744197,0.4009650027177356,0.005142430320590084,-0.44604235954529653,0.012462853071973704,0.00015957693042734848,-0.01034559374412777,0.012790356625608202,0.046875
0.09813092027671605,-0.013993450230413767,-0.003132168320799612,-0.0015788712375653209,-0.012672289610178135,-0.014197428805926799,-0.0072205264980351935,0.7482066831717014,0.008351176954837067,-0.8311042926999526,0.022240240417356026,0.0016355577516147135,-0.01875335975669107,0.024471033047946587,0.0546875
0.10497912999462694,-0.014996593936072224,-0.0033557225959084313,-0.0017773490723593205,-0.013548717410184506,-0.015143531384816136,-0.0077733645104648575,0.7991183511341394,0.008828390289012975,-0.8880437351904935,0.023695252470532956,0.0018521444981655243,-0.019996637582420696,0.026209076636997022,0.0625
0.05317905365621673,-0.007203067406117773,-0.0016497340560929876,-0.0002460692936437148,-0.006918729885647618,-0.007953435856921228,-0.0035800750503071966,0.404990117632051,0.005190621147476233,-0.4512738266912715,0.012614812837673883,0.00017758502209737822,-0.010459238372745459,0.012969407085177609,0.0703125
0.010245511999669542,-0.0007700986652031875,-0.00023786256080177764,0.001019202071653744,-0.0014239875673137277,-0.0019994686127572324,-0.00010641558324862598,0.0795155172620295,0.0021795672890041946,-0.09005963213059141,0.0034413582719032038,-0.0012055101465000674,-0.002572618125407645,0.002009048136889452,0.078125
0.001024351629063573,0.0005872144314574062,6.406153322048674e-05,0.0012877800800769764,-0.00024496139870849675,-0.0007260102758679702,0.0006361811954773817,0.010613292471117128,0.0015361033572640242,-0.013180222930708366,0.0014817691375568387,-0.001497864736470948,-0.0008991354423685267,-0.0003287804481079952,0.0859375
-0.01608140233173363,0.0031458205034307195,0.0006279262572598517,0.00179183989114182,0.0019421699598028105,0.0016465188557918404,0.002016298345088682,-0.11909079300017507,0.00033630397643472,0.13066155172734917,-0.0021702707366360752,-0.002048085173299169,0.002232292161571583,-0.004690116216418743,0.09375
-0.03741185359783721,0.0063662361370676185,0.0013325878288821035,0.0024235761290234844,0.004669640523884955,0.004611380796079549,0.003743356553073953,-0.2820855402695872,-0.001163273761046546,0.31089181858726667,-0.006739997659431867,-0.0027411997463336057,0.006164421176396155,-0.010154433531365768,0.1015625
-0.013968164080631371,0.002867482781221554,0.000561621206189419,0.0017330342791325294,0.0016676266249803008,0.0013607040952031504,0.0018533902756604763,-0.10495310592471553,0.0004797617313879666,0.11403818741437345,-0.00174125432959701,-0.0019908440599665507,0.0018771393847397577,-0.004185056823466563,0.109375
0.04243553713528427,-0.005605350638641816,-0.0012975957501665035,6.655006413875573e-05,-0.00555017300455112,-0.006472217065862147,-0.0027053179557880776,0.3237917161629928,0.004439752234603406,-0.36124753682217664,0.010316637475130766,-0.00017035988995118374,-0.008485293768526973,0.01022878659312951,0.1171875
0.06335621443932282,-0.008771139707593379,-0.00198899533416097,-0.0005537183714420292,-0.00822424337051526,-0.00938291222585182,-0.004401323114967087,0.4838322898313784,0.005913057305458474,-0.5382846210460991,0.014798973532780717,0.0005108577114666087,-0.012348695949726082,0.015591600800534917,0.125
0.01765108023690101,-0.0019222795421286294,-0.0004836793012432805,0.0007949549949526617,-0.002373055658836845,-0.0030396293037590998,-0.0007113736974225484,0.13713669117690144,0.002709110415718718,-0.15376994925770157,0.005034689265714492,-0.0009604098623470779,-0.003966427839673194,0.00391817699097666,0.1328125
-0.0683436190260707,0.01100007766109413,0.0023503928638133613,0.0033355501826106714,0.008628553861963782,0.008900759974174915,0.0062408809565102545,-0.5165947684098571,-0.003328425301016966,0.5708394583689522,-0.01334329330560205,-0.003736665115167656,0.011839631851508211,-0.018052855236252816,0.140625
-0.13988976253580962,0.021756366143499305,0.0047067538436496295,0.005449412983353545,0.017778931555088407,0.01883225899314417,0.012028792050668974,-1.0604436411861051,-0.008355440939649858,1.1738375965514944,-0.028625212195877853,-0.00604568984256369,0.0250011697076654,-0.03631080150262684,0.1484375
-0.13394094893277497,0.020862673861668454,0.004508507379808399,0.0052737114383331835,0.017017974984398884,0.01800460830568099,0.01155044857674127,-1.0149248022007438,-0.007940395532041846,1.1237297911211908,-0.027347501847447993,-0.005851608962927121,0.023915405810294395,-0.03477115096685408,0.15625
-0.04086826211542057,0.006883755703224114,0.0014423839797912566,0.0025255971540308277,0.005113332675352166,0.005089014190814276,0.004026266048235141,-0.30775023855093436,-0.0014065638970215096,0.33982784655309667,-0.0074691523366788555,-0.0028496618539500607,0.0068118290244734946,-0.01101387782551602,0.1640625
0.0446613558565035,-0.005954453777542942,-0.0013722189034724103,1.1411615231173764e-06,-0.0058291592408089244,-0.006775873427277894,-0.00288824008591953,0.34143835936013256,0.0045966703545346045,-0.38020500340292507,0.010789997645640596,-9.492174758616587e-05,-0.008907048141406942,0.010799629627416464,0.171875
0.033571974442601765,-0.00428742551072177,-0.0010050277317593202,0.00032910427145768856,-0.004413266322113656,-0.005235467795410584,-0.001992178601211456,0.2568395798308224,0.0038162192922693594,-0.28661874743824406,0.00841950323000763,-0.0004535952884022189,-0.006874455040511424,0.007968924330041887,0.1796875
-0.012970001403550568,0.0026933462716478723,0.0005273395036446862,0.001702774598394387,0.0015404387627110422,0.0012196015248522039,0.0017669822297389408,-0.09635472035204336,0.0005496010292475999,0.10504565619110541,-0.0015109752513957782,-0.0019504410100174363,0.0016685884724484206,-0.0038911908205939627,0.1875
0.027882372822900594,-0.003440872869939615,-0.0008181096327772112,0.0004962950340268797,-0.0036854172423942434,-0.004452481410690979,-0.0015408021372462339,0.21412009807655266,0.003420130991091098,-0.23929418408196737,0.007225544047752764,-0.0006311525303374867,-0.005842202837353616,0.0065387509170268115,0.1953125
0.14184475548222608,-0.02053333050572782,-0.004568739283412889,-0.0028677639112960154,-0.018267261310396923,-0.02026490950896097,-0.010755886200547472,1.0790290483844818,0.011420855831638434,-1.198736268276757,0.031567915052637174,0.003038856481272767,-0.026775499053958134,0.03560074594710411,0.203125
0.19750637958616488,-0.028874048929783395,-0.006400041363946791,-0.004510540522834015,-0.02538939252339973,-0.027984790845132404,-0.015253136482758682,1.5011553571610825,0.015326627344386022,-1.6670174127324975,0.04345198684083707,0.004829065114125406,-0.03699351248743641,0.049787387121409774,0.2109375
0.13368525913865817,-0.01930296916905836,-0.004300890490881569,-0.0026267383346362553,-0.0172187644019073,-0.01912766944503157,-0.010089904290431254,1.0170196114021002,0.010846244380619888,-1.129731907418815,0.02981818904239919,0.002774561448797605,-0.025265788195541813,0.033510619165662364,0.21875
0.009224038277873964,-0.0006447027842241365,-0.00020685988439206305,0.0010466513183014163,-0.0012891651635078961,-0.0018604030176431737,-2.59858319768377e-05,0.0730171837199116,0.0021109325405096247,-0.08227834018212905,0.0032343858420098696,-0.0012313733139774352,-0.0024025892598745235,0.0017718562299678306,0.2265625
-0.10004214987601409,0.01574860728596397,0.003389935210214681,0.004271597433416938,0.012686882653442318,0.013297518811761402,0.008808859425586594,-0.7564865622206686,-0.005558877846177642,0.837661351292927,-0.02010861929489557,-0.0047534575781472774,0.01767212223457984,-0.026108224928476528,0.234375
-0.1572728388411873,0.024355584802886972,0.005276883727307422,0.0059609710308809565,0.01999937584180892,0.021238008692723912,0.013437925649328037,-1.1920206075774937,-0.009577676798833921,1.3201283967876156,-0.03234286668297857,-0.00660486928766396,0.028194094114943946,-0.040732565487658245,0.2421875
-0.15535285719196826,0.024082291936780426,0.005215274770907986,0.00590448490002254,0.019751401779765303,0.020972840925362477,0.013285110518739124,-1.1781673009087983,-0.009443160012571818,1.3043770926471392,-0.03193888175039302,-0.006547556689832058,0.027850738921497944,-0.04025855115931807,0.25
-0.11743856272449789,0.018382192138045577,0.003965229989198726,0.004785035833780742,0.014907728038163218,0.015711261235212163,0.010220030648162544,-0.889743845738328,-0.006779554086502539,0.9847135918741396,-0.023834159384465245,-0.00532251486106417,0.02088645468430314,-0.030574890046736695,0.2578125
-0.07786109493959999,0.012420984384426395,0.0026600976326343184,0.003616144165635428,0.009849270098164761,0.010217223857124801,0.0070173661290681534,-0.5882451482684495,-0.003999064952688676,0.6507237522082586,-0.015368213369575737,-0.004041182282904129,0.01360544337359053,-0.020455016423461727,0.265625
-0.04172264123258718,0.006994355088615366,0.0014713551777486014,0.0025497284195236673,0.005222948238726389,0.0052034935706707156,0.004092179448704354,-0.3139010054950534,-0.0014623653335786935,0.34638491019039447,-0.0076469737753743225,-0.0028759044476441933,0.006955995277979844,-0.011229178950723537,0.2734375
0.0044535149055878066,8.502226683167028e-05,-4.562582602085834e-05,0.0011884081144375013,-0.0006889636309954876,-0.001199166983998948,0.00035806177794122783,0.03553905793036903,0.0017769343065938568,-0.04167375132110856,0.0022044821848005965,-0.0013928082118352869,-0.001526013163555618,0.0005355056383310832,0.28125
0.050565191924906217,-0.006819312946435763,-0.0015620276671360165,-0.00017172815065429704,-0.0065883299108807575,-0.00759539216763625,-0.003369286193572053,0.3848960125194504,0.005012454825398111,-0.42939885513629056,0.01204474553951492,8.991646526367815e-05,-0.009992368064276207,0.012286037292627129,0.2890625
0.07960442333095967,-0.011190178685372455,-0.0025196193774199432,-0.001030527359996054,-0.010301479392596265,-0.011628630760358765,-0.005718701534666988,0.6061370764152127,0.007051955283696814,-0.6743399026241995,0.018255693817483327,0.0010298106786545689,-0.015335966122868715,0.019705519829064662,0.296875
0.09931806069654327,-0.014173609764772737,-0.003171209307776335,-0.0016146159120204273,-0.01282258963461281,-0.014366813317071559,-0.0073163347503000555,0.7571632868761732,0.008437079864494622,-0.8411134280934085,0.022483307228539286,0.0016725992588091522,-0.018975282432926732,0.02475996803422893,0.3046875
0.11573748665332995,-0.016637226322403494,-0.003712096225259246,-0.00209824350729578,-0.014922572192289749,-0.016639169212729055,-0.008644583376619828,0.8819487103147128,0.00958766974124265,-0.9793067779446106,0.025994656943014772,0.002203503922394346,-0.02199197581924811,0.02895666837098912,0.3125
0.11027149154322859,-0.015786576699472716,-0.003530156146357961,-0.001933051548966449,-0.014222364662527279,-0.015871031911138946,-0.008197962788952504,0.8391475876851988,0.009199237206889652,-0.9323275260210219,0.024814508563781902,0.002021306655362855,-0.020962880324042466,0.027543230714368525,0.3203125
0.07814667272623875,-0.010944101377504218,-0.0024715415216000464,-0.0009830253044400873,-0.010112809507109976,-0.011412416583433022,-0.005595418610406802,0.5943250165400422,0.006941588280857247,-0.6612330667837206,0.017942399840545027,0.0009806154541964383,-0.015038937460035531,0.01933088090747129,0.328125
0.04908087088423863,-0.006598297113741619,-0.001516534589940881,-0.00012802724189300922,-0.006396463029938875,-0.00738909454190074,-0.003245596551617087,0.3744070984470354,0.00490374133613152,-0.417063287709716,0.0117420172855953,4.6564508339420345e-05,-0.009706679940317965,0.011928502915328184,0.3359375
0.03181398456694529,-0.004039152802765134,-0.0009503525980318867,0.0003774127269740636,-0.004189688917699644,-0.005002454618777246,-0.0018543188480197087,0.2447078659588282,0.003696520689467014,-0.2726710605399778,0.008070001125760694,-0.0005033883633278492,-0.00656075804729487,0.007547873177678621,0.34375
-0.015755259950190226,0.003092342479137882,0.0006162803206214597,0.0017808537712781086,0.0018955287772696257,0.0015985190124035273,0.001989063477038599,-0.11628337463213505,0.0003599595627179694,0.12765373393633309,-0.0020896602853626334,-0.002035885127483858,0.0021679584256277563,-0.004592632326091758,0.3515625
-0.10570511226104447,0.016613393246728184,0.003580007169944952,0.004438633658207371,0.01340378400531111,0.01408519524975846,0.00926535399958271,-0.8003634083612746,-0.005955315244068125,0.8856886432132707,-0.02132008637147331,-0.004941595328784247,0.018711580988060205,-0.02757513205942108,0.359375
-0.16098949585912467,0.024927988033591312,0.0054008382609598456,0.006072275703752994,0.020476173592906172,0.021756631620040982,0.013741042723928946,-1.220952647196442,-0.009838493075396292,1.3516945129621587,-0.03314180233235681,-0.0067287609139854545,0.028891015165340317,-0.0416980969694279,0.3671875
-0.12668097877894033,0.01976940341788623,0.004269756709541312,0.00505830744483239,0.016085920452528442,0.01698985327462887,0.010967517703481644,-0.9600373932977002,-0.0074300444281688955,1.0625092253335837,-0.02580717705087181,-0.005620870989145851,0.02258618486971188,-0.032925199499381504,0.375
-0.08719292432219032,0.013821331545860741,0.0029683613374826704,0.003890815685374159,0.011035803871568306,0.011506493585695334,0.007769864647044936,-0.6593409142738635,-0.004654681040320521,0.7293932999817005,-0.01736241646028247,-0.004342867478570881,0.015310819784416658,-0.022829244400754702,0.3828125
-0.13601366451569907,0.021143880662692165,0.004576252523511551,0.005332357656813688,0.017287285580214525,0.01828535760451379,0.01171478893235048,-1.029935244560304,-0.008079230170617435,1.1404464566975856,-0.02779756229468896,-0.005915513624304494,0.024270648033418055,-0.035299712916939126,0.390625
-0.18568393611266967,0.028614955186158964,0.006213108962314194,0.006800796940426826,0.02364653077282276,0.025186418883645336,0.01573369314994014,-1.4077690580727462,-0.011568279612972741,1.5593053786749664,-0.038421957260681476,-0.007519805350160315,0.0334074018336258,-0.047999825445480634,0.3984375
-0.09879572267859416,0.015587512190922722,0.0033531141279822072,0.004237111734063515,0.012529025884215464,0.01313335522768624,0.008709825907364917,-0.7484567652257741,-0.005472869546466474,0.8280508170462212,-0.019859430144929826,-0.004720571135194954,0.0174544862643223,-0.02582596051533781,0.40625
0.06393575929605219,-0.00884271718770916,-0.0020055403487145387,-0.0005678863380607895,-0.008296433781417995,-0.009451811878134741,-0.004451324576568465,0.48757076046626974,0.005951187896370903,-0.5426462553825048,0.01492080008579499,0.0005271408953641041,-0.012448516708506198,0.015725266672933443,0.4140625
0.15900930967025328,-0.0231230988653867,-0.005136827969963835,-0.0033761760353796747,-0.02046449719074325,-0.022649295932128957,-0.0121408107488452,1.2099858380237332,0.0126286835765009,-1.3437622550996406,0.035240073906087764,0.003593025096521124,-0.029923934867259572,0.03999623731156016,0.421875
0.22827354939097094,-0.03351157888332673,-0.007416275955486882,-0.005420007107546179,-0.02932392648846246,-0.03225797848984385,-0.01773861818349919,1.7356033507310138,0.017489480889965266,-1.9267030531461486,0.05002619838130785,0.005823331998108806,-0.042647326712348124,0.05765423205639665,0.4296875
0.3592362173853269,-0.05314825840096618,-0.01172535766972313,-0.009282632694179222,-0.046071671598669386,-0.050422345626383126,-0.028326447039295106,2.7291881243169844,0.026676013615003602,-3.0285820712610594,0.0779885538121781,0.010043104362860654,-0.06670598950280514,0.09105922600178246,0.4375
0.39483578381686846,-0.05848608505563047,-0.012896393441238644,-0.010331510714501838,-0.05062238943247332,-0.055357605501852515,-0.031208665870286968,2.999291654357156,0.02917123403466183,-3.3279852010567237,0.08559270686444014,0.01119317999339657,-0.07325366881464378,0.10015192030397572,0.4453125
0.14462559032185426,-0.020944951666931454,-0.004660674698287386,-0.0029474627072105697,-0.018617955263498204,-0.020642221264682136,-0.010979521357282472,1.100028433365733,0.011609884038409868,-1.2215321611955778,0.03215165135031373,0.0031307201204921575,-0.027288427579030262,0.03631626993578141,0.453125
-0.21664524374176994,0.033268692933869914,0.007231105507274407,0.007713176273972597,0.02759025373375338,0.029479820178969073,0.018236413741764823,-1.6426305554317941,-0.013746251430712496,1.820072517451328,-0.04501600296496388,-0.008515986297510145,0.039095844756847534,-0.05587461404023516,0.4609375
-0.33958657977500234,0.05172137884871387,0.011278116452501126,0.011340513725355038,0.043315955496885154,0.046534056969414934,0.028181842495257743,-2.576094937931247,-0.0223745135111843,2.8551432178168854,-0.07127478600410656,-0.012481328353756834,0.061694889130529916,-0.08725213820316277,0.46875
-0.19757361732547632,0.030399254741103533,0.006602596932821037,0.007149229782424181,0.025156296306937605,0.026827994106325612,0.016696803077999398,-1.4975692332066204,-0.01240412253528098,1.6590484415341202,-0.04093462304641903,-0.00790152015726642,0.03559971809292709,-0.05100389631072185,0.4765625
-0.0522988766204743,0.008578006133794117,0.0018192035426566602,0.002862192604715376,0.0065792286163892785,0.006671308018738229,0.0049452712164196515,-0.39401337825497995,-0.0022051600331429444,0.4353581525633777,-0.009902207122831146,-0.0032145878132813217,0.00889678130037175,-0.013917859722155751,0.484375
-0.02830952889582767,0.004976686611649632,0.0010299238045671886,0.0021546969028160045,0.003508500912885019,0.00334405227569408,0.0030058280013269944,-0.21201965235316372,-0.0005230608111353156,0.23350349265249423,-0.004786748289925514,-0.002442511389729394,0.0044884380991877795,-0.007800638484563441,0.4921875
-0.03624302709183837,0.006190539873690084,0.0012932530575816645,0.0023889164476951046,0.004516556725540945,0.004446549418283408,0.003652250360616989,-0.2732446389058395,-0.001082958281703829,0.30105997697886017,-0.00649264812053229,-0.0027047336437262663,0.005957765546706674,-0.009849778065800282,0.5
-0.025796530737220474,0.004637861644915872,0.0009505205727664053,0.002079951514654326,0.003178988576997263,0.0029982018319012435,0.002810198551362512,-0.1945030297053432,-0.0003486745964899138,0.21347074029466034,-0.00426470594244433,-0.002371601927946993,0.004044426083632833,-0.007201143871039045,0.5078125
-0.03638552215551539,0.006211555197724256,0.0012977098359572496,0.0023917930307175124,0.004539705432731375,0.004466281004381011,0.003663546950782195,-0.2742577804240603,-0.0010875336490068347,0.30208252392766766,-0.006520651129552314,-0.0027091041737534265,0.00598065891503721,-0.009893235343752974,0.515625
-0.058486684274048684,0.009507411040828386,0.0020235264968414923,0.003044739604932151,0.007372336228227733,0.0075301325478492965,0.005445926890593122,-0.44119077417379354,-0.0026369224944410097,0.48751068006510223,-0.011232715394417378,-0.0034157718844775187,0.01003063607735406,-0.015511784656948567,0.5234375
-0.04274294329192187,0.007153324166869799,0.001505719013710843,0.0025820411037355702,0.00535715299929465,0.005345063443667489,0.004171878083423025,-0.3219027206453792,-0.0015344702390316873,0.35513829777588984,-0.007865997427268697,-0.0029083982441182273,0.0071437336519517185,-0.011491839988840994,0.53125
-0.005211309005815638,0.0015507402145657596,0.00027198094253377245,0.0014755788797153752,0.0005510710812279712,0.00014017458205237723,0.0011408586939293786,-0.03801501131796307,0.0010966888954235835,0.03992341470199346,0.00014660535359343625,-0.0017041521031713495,0.0002656520993498036,-0.0019343417909470381,0.5390625
0.000543302657570997,0.0006988723322033788,8.288862952089082e-05,0.0013047163884906112,-0.00018829184200764017,-0.0006560983340540385,0.0006790732962682453,0.005281506703993412,0.0015005144186440113,-0.008176266243046501,0.0013697129331943503,-0.0015218053829358228,-0.0007856127262478346,-0.000480763314334464,0.546875
-0.014889411737013492,0.002993529891183,0.0005893064764245843,0.001757805659695543,0.0017852162804653851,0.0014842614686231708,0.0019247374728368878,-0.11100679823022291,0.00041953793890141136,0.12124863424305697,-0.0019244196757339405,-0.0020152270508606044,0.0020319604760825442,-0.0044076148785815355,0.5546875
0.015183435969002209,-0.0015470365820665917,-0.0004020398129302051,0.0008685971948208694,-0.0020623514903220373,-0.002689735882907186,-0.0005129473506531681,0.11841316473377375,0.002531530560212864,-0.13265733380900854,0.004509776179916024,-0.0010393655080966722,-0.0035174497327694187,0.003291358947550081,0.5625
0.09700781668921185,-0.013828861715798179,-0.003095061103915827,-0.001546113477830782,-0.012530216086769715,-0.014041467457392754,-0.007130739377318369,0.7396657303840118,0.0082727090849892,-0.8216065859185357,0.021992310058803127,0.0015989363714209663,-0.01855315362701641,0.02418039979291286,0.5703125
0.1412461638103029,-0.020445658610320085,-0.004549773487438826,-0.002850113536261358,-0.018188238893790752,-0.020176266175133756,-0.010701381457642276,1.0745369916072016,0.011373537545529283,-1.1933645585137567,0.03143095886893729,0.0030190428725241163,-0.02665779734092738,0.035453114479421156,0.578125
0.12301775362937471,-0.017690229932546823,-0.003949097203610263,-0.002310582029124993,-0.015854317654187107,-0.017644600905533946,-0.009220488861739467,0.9353394675956295,0.01009106308480338,-1.0392310735237476,0.027522877672202694,0.0024263905377778163,-0.023287631463084588,0.030782624825389446,0.5859375
0.17591299144073666,-0.025631541666781475,-0.005691120657224385,-0.00387167018245696,-0.022620638727113385,-0.024983464766138025,-0.013499464142681158,1.337172330758117,0.013804874644871278,-1.4847109227995214,0.03882257731681315,0.004133205626812003,-0.03301308391825867,0.044283075070086726,0.59375
0.32950952430114566,-0.04870261132425899,-0.0107482137124305,-0.008406103307911765,-0.042270423150499344,-0.046297201723645195,-0.02592832861335839,2.5041617300628114,0.024590562415987657,-2.778690406017601,0.07164639103314534,0.009090106805394472,-0.06126035681852856,0.0834964379465111,0.6015625
0.3045220564578146,-0.044965751740284145,-0.009925422498809516,-0.0076691765364825,-0.03907280290066823,-0.042834187436987664,-0.02391289076971203,2.3148088299251945,0.022840894471196048,-2.5688087912883266,0.06631666432718519,0.008287042354272623,-0.05668211815290904,0.07712710287467932,0.609375
-0.06378504299680722,0.010316910628973419,0.0021998611322235225,0.0032021940846940137,0.00804579771611864,0.008265443490048588,0.005873596485728817,-0.48202079644694,-0.003011298656332076,0.5325285435674529,-0.012364232158232888,-0.00358871092676613,0.011006964784981402,-0.01687126250689983,0.6171875
-0.3887719952170971,0.05910768882913334,0.012898468847327512,0.01279512626096033,0.04961981380602988,0.05335719056837255,0.03216036184566484,-2.9500979789048514,-0.025826815993837578,3.2694574544623483,-0.0817926998949469,-0.014069013499733619,0.07074627574745142,-0.09981278437450064,0.625
-0.2726073684609465,0.04167550329388435,0.009073397490692614,0.009365861089567414,0.03475483560306913,0.03723990372047785,0.022768216221690528,-2.0680014500731008,-0.0176752395200874,2.2914040703798215,-0.05697494094446895,-0.010324353869604026,0.049405831296065156,-0.07015994391109553,0.6328125
-0.06444099268618164,0.010414236585176654,0.0022193047813868997,0.003219949195210999,0.00812088703850164,0.008355604441812069,0.005930024588428823,-0.486677155672913,-0.0030593324802801742,0.5379715938886178,-0.012498473637412917,-0.003610360425100131,0.011135752864674059,-0.017024279307660234,0.640625
-0.3212564600682427,0.048938789356213375,0.01067331723013432,0.010799084908445772,0.040975818784095265,0.04398711569159502,0.026693168902742422,-2.4359776979688,-0.02107892439588897,2.699703496977598,-0.06735295456059927,-0.011886546468274537,0.05830693009953877,-0.08256103255825037,0.6484375
-0.7286854374594519,0.11009104176330382,0.024086834016928318,0.02282566092593372,0.09310253860064634,0.10051894198386377,0.05964113360672801,-5.529688886923904,-0.049676469529217476,6.130402688089218,-0.15438772438862294,-0.025021234309313037,0.13317624871607595,-0.1865438923135425,0.65625
-0.5128148264515545,0.077713996147802,0.0169815708397044,0.016455713997211126,0.06549086335348758,0.07057031374599194,0.04218806599672667,-3.8913835720906964,-0.03453041425869517,4.31352466284293,-0.10828094284784923,-0.018064231443903105,0.0935258830865124,-0.13146297410263563,0.6640625
0.21929955202557544,-0.03214908142471787,-0.007119218383187028,-0.005153055899234382,-0.028167834304871662,-0.031008555557925456,-0.017013920695614998,1.6668765627683284,0.016852880559448846,-1.8503457898454372,0.04810167425700466,0.005535570138933408,-0.04099604861231609,0.055363395767030116,0.671875
0.6072054418547148,-0.0903676230391267,-0.019889107200032976,-0.016603575224278553,-0.07779502569564148,-0.08483161469209217,-0.048382794000486076,4.61209058421351,0.044081719445027576,-5.116527124567603,0.130957201317268,0.01803941618446783,-0.11228024086277208,0.15434629301590427,0.6796875
0.4224865983427958,-0.06265014849901562,-0.013808216008375772,-0.011151823016813668,-0.05416340251735468,-0.05920290810569737,-0.03344373311063902,3.209644377132208,0.031119231589036494,-3.5613937585271476,0.09149449443286256,0.012083411822642973,-0.07833861670336555,0.10719835182697292,0.6875
0.24515916629051748,-0.03604125451302192,-0.007971330742743296,-0.005916723323531877,-0.031473283593107027,-0.034596475726984204,-0.019101710894089297,1.8634279448311706,0.018672965576566013,-2.068419332771403,0.05361533298908642,0.00636748314659047,-0.04574978306571477,0.06194911412894595,0.6953125
0.3107219622140805,-0.04588694385669319,-0.010130888947533594,-0.007850913278478831,-0.039860083811815994,-0.04368998152760728,-0.024404920689693202,2.361586597690744,0.02327353394087734,-2.620580735753736,0.06762659149549341,0.008483708097796154,-0.057798890243209854,0.07869761874340694,0.703125
0.2645905765629186,-0.03896402860207871,-0.00861185158756229,-0.006489757491264295,-0.03396702309480468,-0.03728885701097905,-0.020677990238430692,2.0113766263287784,0.020033497152960232,-2.2321561869720243,0.057779796797904924,0.0069970658471436515,-0.049327040123818534,0.06693721622269083,0.7109375
0.050174050128004966,-0.006771329531740539,-0.0015506319653958247,-0.0001619030583888547,-0.006546645043142229,-0.007539912583379643,-0.00333885718256565,0.3827628388795467,0.00497997102927779,-0.4263855756750657,0.011978963340903634,8.088228387772114e-05,-0.00992303638455393,0.012211751466882028,0.71875
0.02169208870236486,-0.002482886563929058,-0.0006114101316038029,0.0006787974660644033,-0.002903470660782008,-0.003587301473043729,-0.0010322464287651747,0.16599287156141995,0.002977909147511458,-0.18612738458605563,0.005891095024511761,-0.0008403528970488661,-0.0046811145051182034,0.004929657308171476,0.7265625
0.15370653818415614,-0.022302707911730314,-0.004959428473323721,-0.0032171880240705287,-0.019784270313362565,-0.02190294130783562,-0.011707805027496685,1.168867154940347,0.01224606253736958,-1.297924286922483,0.0340918510817822,0.0034192791659258016,-0.028943679691824285,0.03862373847133073,0.734375
0.03414110449275756,-0.004381819739150757,-0.0010264995804556672,0.00031216462205882337,-0.004482131650431417,-0.005315748574908609,-0.0020441491794927088,0.2620694040413056,0.003859617794166883,-0.292014289843051,0.00855801890774958,-0.00042826760543148036,-0.006987687472309502,0.008131915486563232,0.7421875
-0.34216775738660193,0.05208506925910119,0.011361507700092418,0.011419282434312195,0.04365838009338859,0.04689189865571101,0.028383298971756354,-2.595011219724947,-0.022550155300826456,2.876098093961617,-0.07182412161731716,-0.012558419384972536,0.06215638964435814,-0.08789222646281737,0.75
-0.5376237792324864,0.08143514859620977,0.017798104645663775,0.01718805057434202,0.06865957347418275,0.07400865860575818,0.04419252103485474,-4.07988884787329,-0.03627045933827229,4.522284553242985,-0.11358238771864865,-0.018864761688825345,0.09808402421237704,-0.13778793108151172,0.7578125
-0.40850740465590507,0.06207124248706681,0.013548056905474216,0.013376024720794352,0.0521415453461259,0.05609367779896433,0.03375622982878299,-3.099899710116201,-0.027208959513925747,3.435536908937995,-0.08600509768950428,-0.014705472831777394,0.07436675441284317,-0.10485361470034495,0.765625
-0.2342947606586023,0.03591109838794291,0.007811239515945669,0.008232755897382038,0.029858833161268424,0.03192044040665313,0.019667277113204328,-1.7763636455966505,-0.014979040712459996,1.9682383299238235,-0.048784224740507996,-0.009085509046470083,0.04234515938501609,-0.0603859832661664,0.7734375
-0.15661515263890277,0.024228824428718702,0.005253310997633828,0.005940018503423086,0.019925351510769986,0.02114029887779208,0.013380347796412522,-1.1858097912785008,-0.009524817535873826,1.3134953730618406,-0.032182866116699516,-0.006576668230068544,0.028057986498563052,-0.0405420488371251,0.78125
-0.04252409592623219,0.007109549336721782,0.0014990310164476074,0.0025740331025946002,0.005328564959163773,0.005311278473499452,0.0041531204051386975,-0.3200554250647588,-0.0015183145994527836,0.3529879142469026,-0.007814536057881476,-0.0029007451296045317,0.007099025191425805,-0.011426894088839146,0.7890625
0.12941679808078016,-0.018665358934345937,-0.0041595452085807895,-0.002499577950367673,-0.01667264684535321,-0.01854061240899189,-0.009745136403824281,0.9841986137016682,0.01054688630191061,-1.0938620085005506,0.028901178375339634,0.002634807691302639,-0.024473636798016927,0.032426188923360987,0.796875
0.20663196648098578,-0.030236651193937838,-0.006701493582503233,-0.004778732611048181,-0.026553455361257725,-0.029249192634932076,-0.015983576357694266,1.5699815421438565,0.015965169004020407,-1.743420929747882,0.04538316957922315,0.005119739231478663,-0.03865200250531547,0.05210881170260525,0.8046875
0.1787326826704396,-0.026064637549169718,-0.005784277260236692,-0.003956487810725485,-0.02298347069395053,-0.025375661137689205,-0.01372974703414484,1.3588842675112054,0.014008088022093756,-1.5087660600776616,0.0394222751112976,0.004223858699781064,-0.03354323052391014,0.04499253036637333,0.8125
0.19934095289272039,-0.029179482201070008,-0.006463794321187955,-0.0045659823933859875,-0.025619364903394753,-0.028234824220238677,-0.01540311190409866,1.5163178279762866,0.01545602938718756,-1.682852435708632,0.043834349887358806,0.004894923353522571,-0.037354641080959275,0.050271414899827095,0.8203125
0.28628231390817677,-0.04222673337200158,-0.00932608837958978,-0.00713235606694041,-0.03674245618398377,-0.040298944931266976,-0.022435029164248534,2.1765193606394684,0.02155765068522718,-2.414983953033479,0.06241473913313083,0.0076994330276293835,-0.05332978920558242,0.07246782412478181,0.828125
0.281630230816745,-0.04150891055730648,-0.009172060898764831,-0.006993935135363098,-0.036146595906166,-0.039655047489588056,-0.022052544549637693,2.1404095834610817,0.021227949374469864,-2.3753186105821857,0.06141620450429676,0.007544711667974687,-0.052450643375017245,0.07126999426809809,0.8359375
0.13222275301833958,-0.01907236966196054,-0.004252359550601391,-0.002582491472945457,-0.017031953092185623,-0.018926362207819885,-0.009966257277122864,1.00530640290867,0.010738407836244211,-1.1168421588256159,0.02949021034977473,0.0027238965582541755,-0.024981781558130158,0.033130067309053116,0.84375
-0.02350025206905316,0.004291657403891582,0.0008742163885671181,0.00201423064810595,0.0028873815915584564,0.0026794119597362918,0.0026213644025944957,-0.17684348707563,-0.00019051750618942216,0.194161629665005,-0.0037707606922268372,-0.0022937927974718618,0.003618294657555415,-0.0066005500992767155,0.8515625
-0.08656853377886108,0.013737756885500926,0.002949299201359313,0.003874867104979115,0.010952775227424612,0.011431260847812319,0.007712817016371927,-0.6548076637765733,-0.0046127368945746115,0.724470217599899,-0.017223970523358004,-0.00432054729506484,0.015182581453573835,-0.022671314022664108,0.859375
-0.11576954717124452,0.018110862122125093,0.003909712907057617,0.004736320017441575,0.014690645108655032,0.015485503635682749,0.010073029516406415,-0.8760196342164697,-0.0066595909277183465,0.9699074767410528,-0.023449757126157197,-0.005259658180585947,0.02054540660795334,-0.030113629098205058,0.8671875
-0.1610705372076103,0.024923566167540268,0.005401622088371118,0.006074320637345239,0.020491223320872824,0.021771472323902426,0.01374385761289493,-1.2205403989190555,-0.009841679894243867,1.3517501462708448,-0.03313525677282481,-0.006724706452770782,0.028893304713872817,-0.041690189327315996,0.875
-0.15766616430458352,0.02443282019820178,0.005290619283887613,0.005974350663197035,0.020056228533156608,0.0212940633797868,0.0134750806003568,-1.195600060916722,-0.009606760576617135,1.3237323108097834,-0.032421941756240275,-0.00662050961858858,0.028290820165789154,-0.0408381347026245,0.8828125
-0.06719545978587457,0.01085077683002213,0.002312128078087705,0.0033025183698211103,0.00847756979572789,0.008733560526256515,0.006157269859324156,-0.5086732528928836,-0.003255951033885065,0.5618305516628226,-0.013096210263233656,-0.0037040151041675996,0.01166344775701302,-0.017743833157602994,0.890625
0.010376364853161183,-0.0008175677229962584,-0.0002426335828584963,0.0010109833265271274,-0.0014482648971438224,-0.002032058388386576,-0.00012169051152176874,0.08120629689801197,0.002193927563801589,-0.09212793924719799,0.0034826771869382145,-0.0011994439452172234,-0.002612051989300097,0.002067372019968296,0.8984375
-0.02550643439488818,0.004555303175340309,0.0009384792268964567,0.0020704715919068863,0.003147261114384161,0.0029523571226425043,0.0027785847784702906,-0.1907643020401784,-0.0003221973514343152,0.20970107346476205,-0.004183887300750456,-0.0023545692288426327,0.003970979119856345,-0.007095388623219799,0.90625
-0.11435561182522036,0.017905038640357605,0.003864324877678394,0.004695093296461839,0.014520588079012159,0.015287149253114644,0.009967604623078958,-0.8658654015447239,-0.006561767806979769,0.9583939752559398,-0.023176376959334194,-0.005220515249187197,0.02030658858291673,-0.029790796572179184,0.9140625
-0.13091790737702735,0.0204049670656982,0.0044096987503944775,0.00518469859860562,0.016640008591070447,0.017584959769497054,0.011309250489601479,-0.9920905604555912,-0.007727604709313545,1.0983480538847656,-0.026721653574877602,-0.0057549780383264375,0.02335759540303253,-0.03402331601832682,0.921875
-0.07785979581672113,0.012435727597515812,0.0026618496608269383,0.00361694595503921,0.009845330861651664,0.0102173454301301,0.007015666960579153,-0.5889397994814197,-0.004001940648017253,0.6513533334702168,-0.015380459097092741,-0.0040424786849099946,0.013599418116893273,-0.02046832263190048,0.9296875
-0.047699714313530664,0.007900735913944064,0.00166827016947118,0.0027249303772449935,0.0059794657044365054,0.006030655638850438,0.004574076677230686,-0.35954459594051413,-0.0018818716036843848,0.39704975860218056,-0.008928899450121623,-0.0030694348765647134,0.008046847201125815,-0.012764032591716492,0.9375
-0.030174815607179436,0.005274445350759478,0.001091943047746064,0.002207640879523983,0.0037373074637994507,0.0036044846610653737,0.0031589471321475343,-0.22664408352603435,-0.0006515105311069182,0.24963550432182344,-0.005188046012882622,-0.002506312576987519,0.004828268515187599,-0.008302196451371341,0.9453125
0.06321178418322368,-0.008739111069270592,-0.001981947051139011,-0.0005476429882486595,-0.008203579481269745,-0.00934702215755367,-0.004390520920632301,0.4821921858439857,0.005902001956053499,-0.536473004096215,0.01475361572522932,0.0005038036986673565,-0.01232706650915492,0.015525474621731176,0.953125
0.1775455974766276,-0.02590517435187007,-0.005746223741211048,-0.003921190917490009,-0.022827457898967927,-0.025210610507185746,-0.01363827952009653,1.3504659281244937,0.013925916998003732,-1.4992972108265437,0.03918016620332428,0.004191915980566985,-0.033338094110389786,0.04471934473304186,0.9609375
0.15532574047994063,-0.02256615229406262,-0.005014188009929463,-0.0032644082278683196,-0.019990458896035335,-0.022130223724504603,-0.011844141908943588,1.1817133201083618,0.01236312606581823,-1.3121605951194844,0.034444264868567484,0.003475794332929458,-0.029253713828037348,0.03906276666643723,0.96875
0.0514921348367126,-0.006960584215796912,-0.001593922300427607,-0.0001992942219954215,-0.006713743094021432,-0.007723969987224948,-0.003445787545721189,0.39268055691365483,0.005070485685794148,-0.43732987343776414,0.012267624634588633,0.0001243779392517493,-0.010162063497398253,0.012553866542893748,0.9765625
0.09800239205168346,-0.013927620690230916,-0.0031241071723794186,-0.0015727614240764998,-0.01266162323709628,-0.01417668560698081,-0.00720362729676323,0.7454118646801665,0.00833496578944559,-0.8286312924704993,0.02219876978038416,0.001621012578573436,-0.018699769292695886,0.0244036067006821,0.984375
0.2600020052119952,-0.038255668232965674,-0.008459007964639487,-0.0063550557775946094,-0.03337685764168601,-0.0366546323930499,-0.020304920821435146,1.976007889311195,0.019711577275782367,-2.193205374060508,0.05680323598907481,0.006846729374031933,-0.04847447979357676,0.06574627547783102,0.9921875
0.22861072765717402,-0.033566940359572736,-0.007427710867205938,-0.005427891119705761,-0.029355066212682,-0.032299971376120826,-0.017770273943504323,1.73842020958259,0.017512777980407148,-1.9295866243971311,0.05009983003838075,0.0058393556369326395,-0.04271697251041526,0.05775204181250746,1.0
-0.01699868234353399,0.003295466641925241,0.0006584861753165908,0.0018227514332466853,0.0020636293760823523,0.001777706238834533,0.002091242157884527,-0.12670479772712864,0.0002713243359127015,0.1386064793872281,-0.00237145049275846,-0.002079985961477831,0.002418359171179423,-0.0049249068090713366,1.0078125
-0.13622279022662767,0.021209865395379585,0.004585554650942022,0.005341651613866012,0.01731158829355752,0.018318633616008176,0.011737753339625397,-1.0329150798139235,-0.008101413129068214,1.1432449406118028,-0.027851436128310286,-0.00592976248477236,0.024341658629316996,-0.03537090842943125,1.015625
-0.04724286887711965,0.00786338835960546,0.0016562885031458116,0.002713623198579982,0.005927194508351208,0.005971145474796719,0.004546135941295953,-0.3574590613112709,-0.0018554967358893814,0.3942232140368703,-0.008846220090191662,-0.0030634929597519807,0.00799629996991225,-0.012676317241068193,1.0234375
-0.0341232188629423,0.005871893052869222,0.001221756845943578,0.0023247731976383692,0.004249328517157045,0.004150597090807339,0.003481886453578366,-0.2567056855627969,-0.0009295381858381037,0.2829372748541943,-0.0060310869352603064,-0.0026349983240264584,0.005568589994933658,-0.0093120666551972,1.03125
-0.1393630250626367,0.02163831974768398,0.00468449145037459,0.0054307438636099405,0.017712094933878993,0.01875210039369506,0.011985804181997335,-1.0547083701959876,-0.008312795302932208,1.1681776559304868,-0.028501015579745066,-0.006021355086295165,0.024885984421543435,-0.036144513157709585,1.0390625
-0.13918651462632817,0.0216111435227094,0.00467974111444477,0.00542635874909874,0.017688518686735457,0.018725034863643637,0.0119707822278662,-1.0536609698929462,-0.008302308486913627,1.1667549209157726,-0.028467975232748844,-0.0060163179471583745,0.024854678675774882,-0.03609739411961145,1.046875
-0.1506047562031835,0.023345535904094043,0.005057429906564272,0.005764233053909583,0.01914862848513972,0.020307279433105684,0.012899452667295445,-1.141366175340068,-0.009107978498939491,1.2636051120730354,-0.0309188276443541,-0.006389447111827341,0.02697063292720847,-0.039025943135408615,1.0546875
-0.44347204256312284,0.06730632625109158,0.014698699960513933,0.014408221783101098,0.056613633572000034,0.060943963011592064,0.036584630311894205,-3.365234967222593,-0.029665142665319305,3.7298315534573985,-0.09348250440352578,-0.015831697159844324,0.08078828850646916,-0.1137681821990168,1.0625
-0.679785184663979,0.10275630393174368,0.022477108543066452,0.021381848088624446,0.08684329762124747,0.09373566530346057,0.05568867108645534,-5.158714389526347,-0.04624893583722913,5.71918896462563,-0.14395481904508725,-0.023445137620863775,0.12418880466713679,-0.17406274623986612,1.0703125
-0.27799567272829395,0.04244663247467749,0.009250060965124039,0.009521977859331301,0.03544342649312478,0.03799051545032707,0.023191732996669486,-2.107523505798592,-0.018045867412532668,2.3358463573684998,-0.058117747082330425,-0.010489066915749495,0.0503429343761736,-0.07152177249214056,1.078125
0.5046974630497082,-0.07499944556333106,-0.016515208934636268,-0.013578283225569362,-0.06468176004007918,-0.07060441642991118,-0.040098953543934744,3.8346683819629845,0.036888255971923904,-4.253992611728437,0.10908042503938169,0.014740106713605624,-0.09346049700328744,0.12820736016496587,1.0859375
0.8237682799112658,-0.12285201465639461,-0.027018001635691912,-0.02299301677465895,-0.10549628331793459,-0.114871691280126,-0.06589268366572759,6.2561303809549775,0.05927952162257397,-6.939759805565152,0.17723339725975518,0.025019756262536705,-0.15205483153834215,0.2096141966459218,1.09375
0.5204688000504281,-0.07731700692231348,-0.0170328360259425,-0.014039313921741086,-0.06669562444550418,-0.072788217542452,-0.0413612783762293,3.952524649702447,0.037989125263597205,-4.385440924372391,0.11243105022862034,0.015237863380086673,-0.096307121750661,0.13220043796724348,1.1015625
0.2044478980625216,-0.02990092851155384,-0.006629331803342117,-0.004712600301269789,-0.026271409902736437,-0.028943333956548543,-0.015808546800215362,1.5532539176767517,0.015808141520402007,-1.7246249123679473,0.044915321437187676,0.0050508694100275175,-0.038252667573460526,0.05155623868100305,1.109375
0.16122802491994062,-0.02344155961554879,-0.005207046580324452,-0.0034390176346488265,-0.02074635508855373,-0.02294979929750404,-0.012319928472306112,1.2260121417400351,0.012776819245226775,-1.3614011989853416,0.035692078832178974,0.0036622108147913706,-0.03033645031914681,0.0405467494847158,1.1171875
0.08745720969857299,-0.012388588319728468,-0.002779452435209406,-0.0012630995277000021,-0.011309394995700288,-0.012715473452898186,-0.006358140458446166,0.6667357096714374,0.007602893352189362,-0.7410570310381819,0.019953116574353762,0.0012881578533798642,-0.016792340762576335,0.02173904050827769,1.125
-0.14714255198573828,0.022824642498480183,0.004942824738133943,0.005661057457055923,0.018705505984760597,0.019833980035150578,0.012615646658105177,-1.1144733853128515,-0.008860996077290942,1.234090642206992,-0.030155087142763343,-0.0062751242297568195,0.026326385628956568,-0.03813419893853223,1.1328125
-0.2797475094363386,0.042741503726811333,0.009307779675768622,0.00957538515582491,0.035671777676371384,0.03823020055426265,0.02334442134296676,-2.1217951895644163,-0.0181705651085665,2.351082688619472,-0.05849404554899828,-0.010553037287972706,0.050710821102176964,-0.071990397311042,1.140625
-0.19982983803682455,0.03074635588684446,0.0066765739615246384,0.007216506374824029,0.025447033876433715,0.027138905193440963,0.016882299390685286,-1.5150631148229572,-0.012564274922182525,1.6783747135690756,-0.04143256221685033,-0.007976887302985904,0.03602694282894312,-0.05159503696499984,1.1484375
-0.110326539933229,0.017292849195559918,0.0037300873442311817,0.0045741186447773915,0.0139951020207663,0.014720272005913462,0.009639093149475716,-0.8349740167630191,-0.006280227554204882,0.9242866450206519,-0.022311749189689388,-0.005088368876554207,0.01956058342475139,-0.028740870786158505,1.15625
-0.1298146463954078,0.020206822283396125,0.004372162430867713,0.005149366892995608,0.016489755428428253,0.017427591205035033,0.011212478468039341,-0.9827576425031543,-0.0076436602164600955,1.088055019396179,-0.026475764922816353,-0.00571550724906312,0.023126490972182487,-0.033717910405289396,1.1640625
-0.1514314169723116,0.023467053370807723,0.005084473529495441,0.0057889555678617205,0.0192597854614916,0.020430961829229273,0.012965225475188148,-1.1474491760194605,-0.009161387943460194,1.2705349917073994,-0.03110232531245742,-0.006415195451773299,0.02710884102590411,-0.03925403260990541,1.171875
-0.10529561297732606,0.016561978462397906,0.003566057746104086,0.004428886261367825,0.013359659866307796,0.014030134396352189,0.009238489772677352,-0.7976997285804044,-0.0059283809502191104,0.882665147825499,-0.021248510667006126,-0.004930088382731584,0.018650153096753833,-0.02748286414376571,1.1796875
-0.07715849025834372,0.012335652146716792,0.0026399726560598813,0.003598074314834748,0.009755900708197124,0.010121970417805319,0.006960566344257874,-0.583952140588212,-0.003956360258900097,0.6456663622723964,-0.015227016112012836,-0.004022086235433644,0.013481260312600723,-0.020281390764209678,1.1875
-0.12520538916938156,0.01953247878643551,0.004221725904471479,0.005014230130610912,0.015896260152258958,0.016783989534845854,0.010842735007471937,-0.948378453692487,-0.007327047505088564,1.049792419791043,-0.025481584001766686,-0.005570073475354166,0.022299776165993438,-0.03252856750363709,1.1953125
-0.14105454512781607,0.02191136350573501,0.004743077674150422,0.005480923282452735,0.017922843590661194,0.018983799666684217,0.012126210614843744,-1.068623918315908,-0.008437312162589269,1.183158067465211,-0.02886578313151432,-0.00608167276094378,0.025212204563039683,-0.036579805868118195,1.203125
0.007841649901740624,-0.0004231096974375363,-0.000159202814696761,0.0010871555405682699,-0.0011201456951446035,-0.0016692515143382238,8.683598652122673e-05,0.06182304199272487,0.0020142202686210986,-0.07038219397364673,0.002944325636917506,-0.0012808933026047637,-0.0021403797677833174,0.0014100946387592046,1.2109375
0.24937081060560765,-0.036666859952499437,-0.008110331708791258,-0.006040268994870928,-0.03201472472913567,-0.03517519506629468,-0.019448631644157395,1.8956939020044326,0.018966957435558894,-2.1040039255377168,0.05454348736422114,0.006508076705839197,-0.04652504712588957,0.06304994829070595,1.21875
0.35839941009541476,-0.0530320173234759,-0.011698669691100403,-0.009258444964700671,-0.0459659373617333,-0.050302135250313296,-0.02826789460012038,2.723419449704353,0.02661808803974988,-3.021902017853466,0.07782705931342336,0.010022913714528247,-0.06656864994151275,0.09087214289706007,1.2265625
0.26088650904951016,-0.03839404029692209,-0.008487618453249805,-0.006381746569777504,-0.03349810449982864,-0.03677619339502997,-0.02037812211760174,1.9826790027777403,0.019770923478411518,-2.2004850477270765,0.05698211201473726,0.006875091487735756,-0.04864864286147662,0.06597325323624503,1.234375
0.12169834889430983,-0.01749918882213256,-0.0039056751705534676,-0.0022743250743914203,-0.015693162982166015,-0.017467269950970324,-0.009118450656960616,0.9256885114834639,0.010002084347050124,-1.0284030449822632,0.0272453560819123,0.002385158788296799,-0.023064526736229,0.030441869883484133,1.2421875
0.06958645467279713,-0.009684306256633706,-0.002191661023103241,-0.0007353992253500732,-0.009019869333410157,-0.010236773876433663,-0.004907811141778263,0.530451118739254,0.006350415427108691,-0.5901138684777303,0.01612354503927041,0.0007084851574575014,-0.013492744563076978,0.01714943786807054,1.25
0.03457753010588599,-0.004444228517332525,-0.0010409183496802791,0.0002991757330992558,-0.00453453139704344,-0.005378468136587408,-0.0020820684131778342,0.2652779532872873,0.003897381135419941,-0.2958961939709051,0.008652370214909248,-0.0004147513810535437,-0.007070716382701063,0.008230720326983063,1.2578125
-0.06285445370621849,0.010175198422321355,0.002166445615108476,0.0031751868223885856,0.007929258693081398,0.008139110443359434,0.0057988343076986965,-0.47448394644289693,-0.0029453605512816242,0.5246129648505868,-0.012166768890052639,-0.003555761183143698,0.010835646677101286,-0.016628172643633535,1.265625
-0.16666111430385988,0.025765486225502603,0.005585642227755244,0.006238533445436312,0.0212040603588007,0.02254095253947149,0.014200282441495791,-1.2633360779663219,-0.010238863240504282,1.399301997862419,-0.03435320077710411,-0.006907928336709457,0.02992681027938772,-0.04312915631813663,1.2734375
-0.20735274681898438,0.031878311676999734,0.006926898207920007,0.007439345095810813,0.026407781454973474,0.02818773512470118,0.01749360916394678,-1.5727501147466836,-0.013096529029238323,1.7421900600413773,-0.04305048007120298,-0.008223728334727965,0.03741109002613932,-0.05352392877254114,1.28125
-0.18824700274906292,0.028999307751387066,0.006297519629300492,0.006875636640701038,0.02396628960871076,0.02553769617664078,0.015944394652186954,-1.4272747051547028,-0.011751012146357794,1.5808486416499596,-0.03896283736059138,-0.007605256922939329,0.033889067504704044,-0.04864248953581472,1.2890625
-0.11294026673657075,0.01768224861508104,0.0038170020699902787,0.004652793908362511,0.014334205882746764,0.015086890925096736,0.009849599967847242,-0.8548005818565729,-0.006461810746765416,0.946134477957176,-0.022863582633746472,-0.005172442491120882,0.020038846374099976,-0.029406208370882113,1.296875
0.01312517616452713,-0.001235249559593598,-0.0003330768591606892,0.0009316359897084815,-0.001795718915044209,-0.0024072446298235425,-0.0003447010481894607,0.10230036686786166,0.0023857453853317573,-0.11538910015810694,0.004072629001145156,-0.0011080007606931693,-0.0031223152919983865,0.0027739828486528463,1.3046875
0.1050304486299948,-0.015009737129711058,-0.0033570939518886792,-0.001780700370352836,-0.01355709619843693,-0.015157997692146779,-0.007772505524673958,0.7992423294299158,0.00883431532926398,-0.8886826476698105,0.023698019110560763,0.0018498364743625806,-0.019996337362251898,0.02621461596580022,1.3125
0.07770993051169725,-0.010896752466869733,-0.002457026461342046,-0.0009742055053026122,-0.010063297146741638,-0.011364026135344055,-0.00556084930520231,0.5913051947139034,0.006916630103397577,-0.6581900262756858,0.01785108592919121,0.0009658744889606986,-0.01497206606561997,0.01922342045589147,1.3203125
-0.014735441353532287,0.002968846829997158,0.0005846786345789401,0.0017530405525816243,0.0017652913807414963,0.0014630573949894808,0.0019121381068659049,-0.10990777333295708,0.0004299721981249557,0.11997497255999445,-0.001893756063617155,-0.002010391923648988,0.0020016948632980624,-0.004368024010711771,1.328125
-0.05255203797615564,0.008625584561249419,0.0018272535446207756,0.0028676386514586267,0.006606425314142379,0.006707573673017807,0.0049659356931271055,-0.3958570565142268,-0.002222545443635999,0.437761984906743,-0.009956296737439684,-0.0032224316945295545,0.008934939545807461,-0.013999379073662527,1.3359375
-0.019796260087071638,0.0037061272996305396,0.0007485945290538915,0.0019018043051831294,0.0024181463573578377,0.00216298935834199,0.0023164714243777283,-0.1469689669691727,7.59531600293499e-05,0.1617903216753436,-0.0029518860038269053,-0.002164933714972928,0.002917735169898346,-0.0056286832517997215,1.34375
0.010770714113183632,-0.0008617054326913434,-0.0002555159403686067,0.0010030230663162327,-0.0014920966382701104,-0.0020731426159666297,-0.00015221115302578917,0.08399179745467336,0.0022183810410131306,-0.09494613650526301,0.00356571821055761,-0.0011852999016086418,-0.002680664007695065,0.0021595797173141673,1.3515625
0.01542976048766307,-0.0015412163330791712,-0.0004069913318853404,0.0008675234019088267,-0.002089114315610994,-0.002715391046340773,-0.000526343391496636,0.11833682077310503,0.002542648158172626,-0.1334613314743625,0.004545690841718837,-0.0010404275826708517,-0.0035236531691182162,0.0033307008950125066,1.359375
0.030988636866640825,-0.0038833840442365156,-0.0009200182846450398,0.00040626917716561953,-0.00408034878648785,-0.004876492278816147,-0.0017855639775085925,0.23687310776747017,0.0036353458632653055,-0.2646005839160986,0.007870555911855707,-0.000536817142603906,-0.0063915792565595415,0.007304756756955472,1.3671875
0.05778775917522003,-0.007932730494912915,-0.0018043092660706772,-0.0003884768676055894,-0.007509240550979598,-0.008601444800304125,-0.0039565108876814924,0.4416128985956753,0.005520035239162785,-0.4910845482281205,0.013609040741183458,0.0003331837481667105,-0.011337904043980251,0.014163287995412922,1.375
0.052776445329270956,-0.007192907367451144,-0.0016391147108500055,-0.00024172851160102413,-0.006869370902171019,-0.007909186609539959,-0.0035538226651772326,0.4039225116021787,0.005170787853853557,-0.4493185294388373,0.012544050847187741,0.0001727267382188277,-0.010426415182709446,0.012888237475942917,1.3828125
0.015149029026296647,-0.0015261441425903734,-0.0003978127164557781,0.0008711232810555281,-0.002057676660101014,-0.0026845732556114834,-0.0005087136785480679,0.11717549167640258,0.0025276391159511596,-0.13193297123383926,0.004495386421766999,-0.0010463017471095404,-0.003497240743099072,0.00326413534702131,1.390625
0.0005571248251503536,0.0006882692522491716,8.373658682414448e-05,0.0013041438130756695,-0.0001917816218103166,-0.0006553081946206704,0.0006767982850888197,0.005382525064780337,0.0014991953188423527,-0.008306307062124587,0.001365661802015557,-0.001522020007446957,-0.0007941959838661786,-0.00047739332930117465,1.3984375
0.0337239077499329,-0.004293951270275046,-0.0010102769131514458,0.000324821736491581,-0.004433061117666168,-0.005259223412122982,-0.0020028554424106606,0.2575803298408534,0.003826695887003328,-0.28767968910886327,0.008450905551572477,-0.00045080635476166974,-0.006886056630826753,0.007997143035585444,1.40625
0.06337116491231772,-0.008768682852497645,-0.0019886816730313064,-0.0005520165347775607,-0.008222820545251704,-0.009378832170859823,-0.004403186609675015,0.4837288030460571,0.005911746227041923,-0.538070167441639,0.014791040074417257,0.000510239506503713,-0.012350140239402209,0.015582092020276876,1.4140625
0.032835135257019726,-0.0041950395675575585,-0.0009826344426856661,0.0003491693430053374,-0.004314964990543058,-0.005142082974426859,-0.0019365820673279438,0.2520301229124243,0.0037708530421536363,-0.2812016826588768,0.008266996823300512,-0.00047361503530227086,-0.006749854665156153,0.007786012954887001,1.421875
-0.038182743147172765,0.006479552819238887,0.0013579005213510405,0.002447077074605065,0.004769183007089213,0.004718973975595927,0.0038076352280254654,-0.2879862915200397,-0.0012168060906184897,0.31732507183574515,-0.006909777589290519,-0.002766852284445218,0.006306914697841777,-0.010353970241920047,1.4296875
-0.07596365945218106,0.01216307269744796,0.00260205576883831,0.0035631227450959512,0.009600796936108463,0.009964871638958603,0.006864413974351847,-0.5752201630274526,-0.0038717454575933007,0.6357887151783945,-0.014975598331397652,-0.003985805888871616,0.013260243912010654,-0.01999225508828317,1.4375
-0.048880888429868145,0.008091165728252614,0.0017079708060898137,0.0027623926759237044,0.006135556535672743,0.006200347021321676,0.004673067516480858,-0.3689692063816668,-0.0019685777416261793,0.4072702733845448,-0.009173915921491955,-0.00310938494391705,0.00828583095789462,-0.013058508363716675,1.4453125
-0.00931004264417516,0.0021409897284750796,0.0004031030882843451,0.0015924669278926439,0.0010731018089595898,0.0007009099847597015,0.0014722541712976877,-0.06786177374425853,0.0008133420424684818,0.07348600684720753,-0.0007109159200344549,-0.001831755836021345,0.0010131211675218803,-0.0029504660661422754,1.453125
-0.018796104673032665,0.0035655705353478057,0.0007157517544555564,0.0018719406351513047,0.002286522301320776,0.002017483714724338,0.002240786671185198,-0.13995420019263805,0.0001482280022963565,0.15340747451442024,-0.0027414809389716493,-0.002138888118063569,0.0027558484413735,-0.005381775857469124,1.4609375
-0.05776931237691113,0.009418456413988082,0.002000394294168595,0.003023192322758692,0.007273974623025157,0.0074332632083371495,0.005391867996714705,-0.4361872985956724,-0.00258984861751991,0.48193109806718465,-0.011073732865743422,-0.003395163653972184,0.009910993848231487,-0.015333806066548853,1.46875
-0.06321904018629851,0.010233027648533287,0.0021809142404248453,0.0031852416567897104,0.0079738217598816,0.00819541370515965,0.005828177122028016,-0.47761432529324305,-0.002974304197481742,0.5279563666693295,-0.01224041300514239,-0.0035680057860414042,0.0108995719442745,-0.01671835291543001,1.4765625
-0.039776707496775615,0.0067151707031920475,0.0014100241033287032,0.0024940516371374493,0.004973599438754368,0.004942574735947012,0.00392977185868739,-0.29977334663707866,-0.0013299988315154836,0.33069205285191416,-0.00723793659691548,-0.0028123013645415984,0.006586228040114425,-0.010738058115434043,1.484375
-0.04175902119881768,0.0070250479714926645,0.0014763061485985026,0.0025526849353060188,0.005220995378520453,0.005215340689021537,0.004093151651588264,-0.315370221071194,-0.0014708085240060199,0.3477718051621821,-0.0076707410199319025,-0.002881251782352213,0.0069591476205660965,-0.01126105084964808,1.4921875
-0.05118604317682087,0.008449055707170434,0.0017866373293320879,0.0028306260649248686,0.006423945959381366,0.006522260579712494,0.004860214014910458,-0.38722163817541083,-0.0021332836018362273,0.4273606312883596,-0.009686571843428972,-0.003188699740914349,0.008703361340033166,-0.013675816505588249,1.5
-0.00660513377303791,0.0017480397415191304,0.0003170982780829846,0.001514391832945787,0.000727038114575883,0.00033543866827710056,0.0012555880236526352,-0.048111639862157614,0.0009974488272588816,0.05157144651238595,-0.0001541927009988729,-0.0017480573554459653,0.0005126942889188447,-0.0022851068202723816,1.5078125
0.05631637939120801,-0.007714511299995242,-0.0017563262291206976,-0.00034311310965884145,-0.007314292265764654,-0.00839766461339681,-0.003836056745737559,0.4305159920327197,0.005416014786229271,-0.4788393399167319,0.013294572549874753,0.0002864166204029832,-0.011058414562419983,0.013791144600658434,1.515625
0.0694647097037707,-0.009690468473789375,-0.0021887570540924817,-0.0007314316156970459,-0.008997759582010522,-0.010223846281806753,-0.0049013674216747335,0.5303087180206358,0.006339060782683123,-0.589554585353259,0.01609866605237842,0.0007103549819962179,-0.013480380693440989,0.01714486166899474,1.5234375
0.10290700604546146,-0.014689597873004145,-0.003287244661728959,-0.001718396131067686,-0.013284390807978573,-0.01486130951246038,-0.007603203413868539,0.7832150227432642,0.008685122685665363,-0.8704965495748379,0.023230647936289366,0.001781649336045475,-0.019618094239086357,0.02565521524334188,1.53125
0.23715063650278137,-0.03481874809887934,-0.007705332821335345,-0.0056803250588694214,-0.030460424771987148,-0.033482039889281195,-0.018454500838293208,1.8017979024909456,0.01810734644694489,-2.000347652494699,0.05190085304381911,0.006103873553765312,-0.044272546301342024,0.05989168752314462,1.5390625
0.31572751210374916,-0.046620426614941965,-0.010293917582972809,-0.007999874746446428,-0.04050623284709968,-0.044383815936950004,-0.024807593020548357,2.3990124764884784,0.023624553299429283,-2.6623400079756596,0.06869237057867594,0.008639641760758647,-0.058709655416585085,0.07994996470778427,1.546875
0.12668434595053565,-0.018275537154005442,-0.004073441526259097,-0.002421352665508445,-0.016318105349184677,-0.018161907992827457,-0.009523604699644885,0.9648408059725971,0.010358657698276593,-1.0715183446191643,0.028325169921388744,0.0025524226512601386,-0.023983436023728297,0.03173780467637748,1.5546875
-0.20767978117847433,0.03189698690352439,0.006933275832673406,0.007447160774944433,0.026451491137816634,0.02822314034053553,0.017512672846470626,-1.5736776242877633,-0.013109036461738421,1.743411008525192,-0.04308839775296906,-0.008224537852957054,0.037453260883716824,-0.05356774687773554,1.5625
-0.3542955614232439,0.05392300841861397,0.011761833824269473,0.011776113486179518,0.045200990184150545,0.048568730446925466,0.029370800880837378,-2.6878965485260156,-0.023401809996226257,2.978483723946361,-0.07441028718179661,-0.012956074225041359,0.06440707532727068,-0.09099311256016998,1.5703125
-0.24678144976733515,0.037808526952512994,0.008224097502195495,0.008604317517641766,0.03144746387826565,0.033661304253765324,0.0206792666603667,-1.8723539860168907,-0.015857969106946687,2.0739577952951196,-0.05145492561571682,-0.009494191717025716,0.04466046329467767,-0.06357980633308277,1.578125
-0.1108903895367398,0.01740409538225203,0.003750073537930114,0.0045925946985149145,0.014068856812581253,0.01481139377982532,0.009688836490329639,-0.8400465538314599,-0.006320365402731361,0.9297057537836887,-0.022430508441355294,-0.005110182440337748,0.019677603285822437,-0.028904063799191464,1.5859375
-0.0629627999459421,0.010186590040170737,0.002171427485007054,0.00317625479361103,0.007940659079850719,0.008158129041711896,0.005808514016206782,-0.4751899429056301,-0.0029562063902070215,0.5256255099750304,-0.012186124055118399,-0.003558930842708261,0.010848951147161504,-0.01665441354080196,1.59375
-0.015052649108654687,0.002994144776533921,0.000595361643658691,0.0017630770475722415,0.0018108487487051913,0.0015079385212905323,0.0019313870004094972,-0.11156073254559636,0.000404749436489097,0.12225454345786994,-0.0019506501327417644,-0.002013640697370166,0.0020394751888693683,-0.004418743642503548,1.6015625
0.06534162435123492,-0.009049464839411494,-0.0020489376956460774,-0.0006065266168772669,-0.008474208942477414,-0.009644391154237443,-0.004568569809911506,0.4977100648763904,0.006044837818278155,-0.5539773096690833,0.015210156352714138,0.0005729035651828874,-0.012719684828996717,0.01608254504006454,1.609375
0.10306794623470517,-0.014698249108759975,-0.003290554515597478,-0.0017188412576605023,-0.013299502510349679,-0.014877883849139826,-0.00761625652913021,0.7835920633474907,0.008692429851197944,-0.8712723480330691,0.02325794300714847,0.0017852687338302635,-0.019638301909188055,0.025693874578405468,1.6171875
0.09345576656265574,-0.013269616164518619,-0.0029765524628379905,-0.001438220621483297,-0.012070553586192008,-0.01354919811740043,-0.0068377401086497595,0.7114557489395436,0.008020332743159287,-0.7908715482789348,0.021212923798563127,0.001477879842217662,-0.017874610567162722,0.023248658796919917,1.625
0.09741548340456302,-0.01388747407396207,-0.003109328502527632,-0.0015591571318960234,-0.012580056675782408,-0.014104665631807338,-0.007160072535754029,0.7427787823761544,0.008301666683574264,-0.8250502639910055,0.02207835360063888,0.00161084045756104,-0.018617488695534656,0.02428078459318548,1.6328125
0.10012827397465791,-0.014300397455843957,-0.003198413383424993,-0.001639989779720816,-0.01292931513992979,-0.01448133287368404,-0.0073815196370142985,0.763587924762078,0.00849403192915884,-0.8481368801834198,0.02266385678233042,0.0016990449804493418,-0.019123858611030407,0.024975803297396515,1.640625
0.05150014511166276,-0.006984333054393219,-0.0015956368146806,-0.00020224797643414298,-0.006708443465648053,-0.00772928383551544,-0.003446492266297383,0.3934255814694889,0.0050799789287816555,-0.43817615265881077,0.012262440261095736,0.00012580932971372732,-0.010174202797566242,0.012541967583669622,1.6484375
-0.01170975849803582,0.002523424923165477,0.0004858502021527011,0.0016655988505683897,0.001378976197899783,0.001044573551111557,0.0016708206031716638,-0.08735221684770073,0.0006404236739808674,0.09466193384448005,-0.0012529515770987182,-0.0019171494498914808,0.0014647047462425682,-0.003608374152453383,1.65625
-0.021936478161168293,0.004058923125466463,0.0008207476903632414,0.0019671468652023376,0.0026891755863016668,0.0024617594350048303,0.00249973261890326,-0.16476373669442465,-7.847049405418603e-05,0.18077716413967243,-0.0034338344827120107,-0.0022451809556534494,0.003350037957039524,-0.006207411632636055,1.6640625
-0.0009800628796443785,0.0008968211520038804,0.00012900937014958297,0.0013471178141998747,1.0745827248990099e-05,-0.0004485829288338176,0.0008012082722196247,-0.00484411106247291,0.0013956192155822355,0.0038366097990489233,0.0010517099581620775,-0.0015640563928510669,-0.0005184261490165827,-0.0008397808290262302,1.671875
-0.015341799454392353,0.003045064473626114,0.0006025114367314652,0.0017708630662973902,0.0018483496135136745,0.001547770622864869,0.0019587765820796603,-0.11376920770184325,0.00039133610782595747,0.12458829290093064,-0.0020184657173123515,-0.0020257767266823037,0.0021029065726061117,-0.004511017015103611,1.6796875
-0.05959229313848979,0.0097001252917847,0.002061939894496311,0.0030786006563227456,0.007506022242527528,0.0076957515623973325,0.005537257663755624,-0.4505206227631655,-0.002715648703697265,0.4976410452471364,-0.01147913769666004,-0.0034562430238390426,0.010235154784645139,-0.015824691403627154,1.6875
-0.07491080668496769,0.012010091083274234,0.0025676348584341563,0.0035321211668809713,0.009463185427666262,0.009822892487835322,0.006777439347873984,-0.5673558284372759,-0.003795664398999197,0.6270039315508447,-0.014749814873230047,-0.0039521888177753515,0.013061390938651364,-0.019729987148544608,1.6953125
-0.050003019814164454,0.00825981773519304,0.0017461558581668396,0.0027962255803903294,0.006278864149193584,0.006356973259552452,0.004763839425911374,-0.3777717779040658,-0.0020499304578873,0.4169349763295488,-0.009419025632010565,-0.003146499190636377,0.008491045518908481,-0.013343738107518325,1.703125
-0.02312240188393129,0.004208733825490727,0.0008591880720223343,0.0020008806843991697,0.0028431890876910535,0.002615377071200074,0.0025910259398422386,-0.17298330451321206,-0.00016129855085929564,0.19001686830901712,-0.0036718855113488406,-0.0022774782923268987,0.0035517772418226356,-0.006469161622601078,1.7109375
-0.005527955675008321,0.001571349486640801,0.000280393719137077,0.001480876610033048,0.0005918147121619431,0.00017232549879952472,0.0011683809389324597,-0.03948632266006054,0.0010762561747756478,0.041852947522922186,8.339112041987806e-05,-0.0017113149785400157,0.0003152654619727331,-0.001994552678766124,1.71875
0.01890730972421986,-0.002083172631352729,-0.0005218799777138449,0.0007610386502959253,-0.0025356859052475676,-0.0032104406617367407,-0.0008111242319531449,0.14549700145369024,0.002791307593734043,-0.163487215325535,0.005300099519972835,-0.0009241725632358715,-0.004183439878961359,0.004227496547002939,1.7265625
0.03407893365033961,-0.004360308450618385,-0.0010205459247877716,0.000314978286280081,-0.0044755961983491774,-0.005307628301912967,-0.002042725602737807,0.26063809355316275,0.0038539360688316067,-0.29104304130067854,0.008541292840062237,-0.00043264235681786487,-0.006980868814563264,0.008107415322682818,1.734375
0.013241690419848844,-0.001239306763960789,-0.0003356154201824649,0.000930134287557536,-0.001810548587816199,-0.00241315470406996,-0.000357513921004284,0.1027840153559775,0.0023891190791568958,-0.11562723201332677,0.004089277867543478,-0.001103388026799684,-0.0031515941925365828,0.0027966759347251074,1.7421875
-0.014109704718773345,0.002870350852723179,0.0005641970739111212,0.0017359247281458338,0.0016833110092582476,0.0013820761233666486,0.0018593783255899834,-0.10487886567757161,0.00046908055626983773,0.11475900757430316,-0.0017568075369212965,-0.0019888167965898492,0.0018846986285359355,-0.004197695264478398,1.75
-0.0005648791748106916,0.0008424432346642015,0.00011852417864066306,0.0013345355111925412,-5.147134767179391e-05,-0.0004985071268644628,0.0007674599988955752,-0.0022293251829508948,0.0014223981829598214,0.0007144079309738496,0.0011349122487336646,-0.0015553793606319288,-0.0005979018874888998,-0.0007556927360733792,1.7578125
0.03590131913391611,-0.004643924221885842,-0.0010829587639437613,0.00025774757797292577,-0.00470915197044801,-0.005560735928497078,-0.002182947018567147,0.2750500271651455,0.003985694725655046,-0.306775629431579,0.008927144591527074,-0.0003768010420372626,-0.007304263636864342,0.008560435750573947,1.765625
0.04739840946635303,-0.006386830683769052,-0.0014634742805497388,-8.100013426940637e-05,-0.006172087827275012,-0.007158718921514053,-0.003115319548830655,0.363065477495678,0.004794114898901068,-0.40406007122139104,0.011385966338635221,-9.158752233276406e-07,-0.00942485350521273,0.01151341216013782,1.7734375
0.033646106660922444,-0.004315585268569637,-0.001010508752110367,0.00032573373319813993,-0.004416104439576686,-0.005251800433167482,-0.0020028604269857926,0.25845674715742406,0.003826790168391436,-0.2880398234377639,0.008445587600150338,-0.0004453301897419547,-0.00689591753050051,0.0079998873783841,1.78125
0.010990601134037036,-0.0008888193637784186,-0.00026151507006652797,0.0009949531414064061,-0.001527437737764462,-0.002107635067807555,-0.00016790688667615465,0.08523186245813093,0.0022334100226273396,-0.09649292282964134,0.0035979976548565253,-0.0011829597943537387,-0.002721957857649031,0.002194659862062111,1.7890625
-0.030601835057469516,0.005366313778303153,0.001109677280040198,0.0022227326574521564,0.003791443749507714,0.003664338668057972,0.003198125272466639,-0.231283171922534,-0.0006876214515194204,0.25412876753193936,-0.005290934977069489,-0.0025279182147125343,0.004930043623941911,-0.008429731869096804,1.796875
-0.07241620302640189,0.011628771545531545,0.002484129568601308,0.0034566051417973848,0.009147638669782654,0.00946480203492815,0.0065799807934314395,-0.5480592236425927,-0.0036220182515794086,0.6057837728176708,-0.014215245060183098,-0.0038717105365620595,0.012613767327911345,-0.01908373509372824,1.8046875
-0.04866995061074253,0.00804751248591234,0.0016993020020945298,0.0027551496286968053,0.0061144458466024796,0.006165727308036015,0.0046578032615591835,-0.36670030869984027,-0.0019530367454542654,0.40514208752303504,-0.009128694663998991,-0.0030997505669816206,0.008244180592447846,-0.013002171952013161,1.8125
0.04284792315832132,-0.005686869079536507,-0.001313352247128935,5.4002623803529064e-05,-0.0055962584936274234,-0.006535811699223603,-0.0027458245986354875,0.32809103820274493,0.004473122439589676,-0.36560519183611856,0.010425598742291204,-0.0001489117617096256,-0.008576544929412677,0.010354737244136764,1.8203125
0.09713933427774628,-0.013819230773515061,-0.003098036381716395,-0.0015473290221887995,-0.012546154065411347,-0.014066237907389478,-0.007137618756032044,0.7392879337698324,0.008284520511419799,-0.822248732704273,0.022013164007735477,0.0015966397932910684,-0.018550942310296137,0.024193872423493933,1.828125
0.047939948085551465,-0.006425368091632716,-0.0014771937739128087,-9.444458004671322e-05,-0.006252680005226299,-0.007232535932082539,-0.0031581122632837843,0.3652145879755826,0.004829735492094797,-0.40748013893485535,0.011491705740078269,7.820841604515905e-06,-0.009508999217093647,0.011624618040445367,1.8359375
-0.034440122239636196,0.005928573592962272,0.0012335271874001502,0.002335820759822707,0.004287748955854576,0.004202634989767576,0.0035045462171812004,-0.25962291268304,-0.0009536556212331004,0.2860508763500025,-0.00610458805615455,-0.0026452671309686263,0.005621451792504309,-0.009395735513989823,1.84375
-0.06516326651725031,0.010519839440311462,0.0022437903903254693,0.0032408096458800277,0.008219055028399974,0.008465230923425557,0.0059871751591648635,-0.4919596798784032,-0.003109735823877667,0.5441967573128391,-0.01265568851018966,-0.003631179770152014,0.011254534761552424,-0.017220412932995123,1.8515625
-0.06807186416938911,0.010950885306391274,0.0023402848353209706,0.003327369569844923,0.008591748251459733,0.008868601987722899,0.00621948857917729,-0.513989976465157,-0.003314692566929305,0.5685436441061504,-0.013271834912356775,-0.0037237224640452545,0.011785356340692894,-0.01795180110201622,1.859375
-0.08759784758429168,0.013897076655357091,0.002984498960151667,0.003906752767791073,0.011090489098959861,0.011580285413282957,0.007798962194918522,-0.6630408053721368,-0.0046886596818399955,0.7334886793089446,-0.017452517670561274,-0.004356230664800764,0.015385077762064964,-0.02294115468190081,1.8671875
-0.07790401342366349,0.012455464014572905,0.002665317872346317,0.0036218745642130836,0.00985015508843252,0.010234271576005155,0.007019272748638812,-0.5899280728071539,-0.004010590027741132,0.6522722114956037,-0.015392703760084598,-0.004046952531069862,0.013618089063332171,-0.020479069850738232,1.875
-0.0002847902518690647,0.000794697485884912,0.00010831912866969773,0.0013281330600808106,-8.100748594932985e-05,-0.0005431253601380664,0.0007451691319286378,-2.81532229364695e-06,0.001439743597936022,-0.0017276527791902684,0.0011918582767017733,-0.0015437298055587662,-0.0006462577099802367,-0.0006666850941277245,1.8828125
0.06527461998494223,-0.009067061665630186,-0.002051340985364978,-0.0006103404479205479,-0.008468949635375221,-0.009645799763230956,-0.004558690046201366,0.49872703355575243,0.006045580520511913,-0.5544931890765349,0.015209300394556804,0.0005736132427043734,-0.012708939443906723,0.01607911975717818,1.890625
0.050594635272142204,-0.006865380783405126,-0.0015672244608602006,-0.00017716143487724238,-0.0065910018199236385,-0.00760659470613416,-0.003374976727565567,0.38728197744289783,0.0050167210523765,-0.43093582986160484,0.012076338371414034,0.00010088733782723938,-0.010019575117757888,0.01233098395094187,1.8984375
0.03967080898178025,-0.005203372939688598,-0.0012052360964793696,0.00014772805519493276,-0.005193515144247264,-0.006086114986792951,-0.0024903983037924474,0.3033028409930829,0.004248566481827807,-0.3383278505256803,0.009732121375320155,-0.00025648355401561437,-0.00799903731905876,0.009519035278897189,1.90625
0.11571527621940737,-0.016599429340687703,-0.0037077502683178823,-0.0020952618522126266,-0.014921074520204032,-0.016639411163708644,-0.008634937304062422,0.8798952544753673,0.009584797499370554,-0.9782397780399346,0.0259671344649356,0.002190199572360103,-0.021952338142832303,0.028909952656307043,1.9140625
0.18571200474462443,-0.027112507683363415,-0.006014068864676134,-0.004161913229363809,-0.023872898638210453,-0.02635794214636522,-0.014292886840912533,1.4117427147806256,0.014498510842551162,-1.5679021955430557,0.04092159368846424,0.0044486470904137486,-0.03481095736161374,0.04678606001906998,1.921875
0.1289671749917885,-0.0186122792127735,-0.004148385240484598,-0.002488330488663415,-0.016611093161488896,-0.018486102699468415,-0.009706997594922695,0.9817634301498712,0.010518045539515382,-1.0905585827657207,0.02880735026521025,0.002624890527945473,-0.024398829451052248,0.03232304955579647,1.9296875
-0.0038119846860807695,0.0013163319282514187,0.00022328613660140025,0.0014303888883184753,0.0003731855568823182,-5.671164167332962e-05,0.001025836022296744,-0.02629057679804568,0.0012004959927679475,0.02746807648664302,0.0004473247397386427,-0.0016541701159092064,-1.4238662816669463e-05,-0.0015673834557195395,1.9375
-0.10042340056106745,0.015833616385575306,0.003406508806688032,0.004283011932457746,0.012727532632489866,0.013357787091671226,0.008836719621572819,-0.7605755917799306,-0.0055819717670508445,0.8414715293857352,-0.02019161749569134,-0.0047720048629339125,0.01773884523286709,-0.026240406947925933,1.9453125
-0.14725064398709972,0.02287368089899393,0.004949161862485467,0.005666987061739751,0.018716968563340493,0.01986208724567926,0.01262488743340172,-1.1166217808628753,-0.008873946365273583,1.236282400990778,-0.03019732658736707,-0.006283097459457343,0.02635276720382994,-0.03819078155018987,1.953125
-0.15770913290948,0.02443589762829832,0.0052913703352753146,0.005976398546370096,0.020059377258545324,0.02131208032050381,0.013473155829676087,-1.1956288432300899,-0.009612089303804685,1.324320534112522,-0.032432376545023726,-0.006617427553302357,0.02828136495109494,-0.04084040924542749,1.9609375
-0.12504837666110813,0.019516754790550584,0.004213670478192341,0.005010826271196711,0.015883808962917884,0.0167710476323241,0.010834634766455182,-0.9469182382368642,-0.007318513704574297,1.0487826341394972,-0.025453842816918096,-0.005562313693226939,0.022281281247436766,-0.03249140747385711,1.96875
-0.12543859865761933,0.019565123276200247,0.004226305406502749,0.005020295858138688,0.015929846600980027,0.01681679191333072,0.01086797960567037,-0.9496497569601463,-0.007342262910867143,1.0515980164290575,-0.02553424764944037,-0.005576290114735846,0.022350841145896475,-0.0325919616413999,1.9765625
-0.23699527149321448,0.03630710908793174,0.007899999866136485,0.008313040214505265,0.030196521866255353,0.032296054152765125,0.019887472578738685,-1.7968466054201393,-0.01517077380740812,1.990828362838877,-0.04936121712479685,-0.00917347173849824,0.04284292063313869,-0.06106162528133458,1.984375
-0.3069224473338562,0.046802153680593955,0.010202827771046285,0.010378498508946789,0.03914316898479603,0.04200385283276625,0.025536290162478197,-2.327832564533204,-0.020079052617331686,2.5796729925792143,-0.06429534758906519,-0.011425086723490137,0.05568127151786127,-0.078900345097999,1.9921875
-0.07221730830584842,0.011579103359180274,0.0024772410405496273,0.0034512439029606985,0.009120459326185616,0.009439698301802423,0.006551377844628012,-0.5458366506419093,-0.003604946980777149,0.6034978020218855,-0.014158899076874216,-0.003857511808133509,0.012547239444060629,-0.01900813906835618,2.0
0.4194666720462398,-0.06220155562792692,-0.013706954244046915,-0.011062296664937616,-0.053780757484271,-0.05878322522287901,-0.0332078479403808,3.1868264173645384,0.03090594604334809,-3.53618876017129,0.0908642282132774,0.01198815803569136,-0.07779387881131067,0.10644280165118027,2.0078125
0.7632137967706669,-0.1137767902854969,-0.025021644287908068,-0.021208456095501777,-0.09775573001503383,-0.10647727459580382,-0.0609993788607479,5.796147177586718,0.05503234429593521,-6.43010769435899,0.16428324263895308,0.023063609871992623,-0.1409441270628676,0.19414147749232102,2.015625
0.6535407527663156,-0.09732090079748697,-0.02141272794305028,-0.017970341522603312,-0.08371867186050438,-0.09125932557349183,-0.05212785863596028,4.963681594156284,0.04733509388094269,-5.506760420304804,0.14085406334892078,0.019529554985206907,-0.12078772870774465,0.16615878401615553,2.0234375
0.2069590240213801,-0.030320702982722558,-0.006714458225941043,-0.00478885207703957,-0.02658160144889484,-0.029299938677487876,-0.01601766507892565,1.5739582356929223,0.01599237143493776,-1.7472175844931017,0.04546531311027217,0.005140435705271757,-0.038739303610470156,0.05222092877166884,2.03125
-0.2235436652454652,0.034276983927160415,0.007456538045063777,0.00791687480969299,0.02848754821769514,0.030428732935546845,0.018792712546464207,-1.6942624886182545,-0.014224078766539788,1.8773363903369171,-0.04649331071866107,-0.008734722303242343,0.04035575710006322,-0.05762678679330037,2.0390625
-0.41843462035691714,0.06354270080379402,0.013873919932724405,0.013668943234662933,0.05340858613571252,0.05747314819356705,0.03455603274014639,-3.1747461748853643,-0.027907097251514745,3.5189380366459333,-0.0881322094463305,-0.01502278451352976,0.07617582759882705,-0.10737565143553096,2.046875
-0.41620112900331047,0.06323004242047997,0.01380151702761388,0.013603930288272576,0.0531195443845875,0.05716938646192431,0.034381805261062194,-3.1585826151280987,-0.027753509353945636,3.5007737550988995,-0.08766037735824536,-0.014956867020940371,0.07578716562795117,-0.1068237084723038,2.0546875
-0.3456577332887764,0.05264213750431341,0.0114778415243091,0.011522214174831095,0.04410160393965704,0.047382198499175875,0.028680093916314903,-2.622650228397654,-0.022801024894549028,2.9065517324844863,-0.07258252431146953,-0.012681794223441728,0.06283632808717264,-0.08881732220072992,2.0625
-0.24570708091465113,0.037624314487079744,0.00818540742887434,0.008571091068433645,0.031319096619155766,0.033509769840376596,0.020594380984183015,-1.8628264480889751,-0.015782845066042855,2.064277481319543,-0.051216236576499076,-0.009453629311202853,0.04446006839992236,-0.06328970479474849,2.0703125
-0.09945976302639212,0.015670317523028266,0.0033709486958642403,0.004253579125931861,0.012605098760697292,0.013215577102701829,0.008762263597793394,-0.7522176260289823,-0.005517357384628741,0.8327657047826024,-0.01997136102755694,-0.004735438612005624,0.01756824020413396,-0.02595696077768633,2.078125
0.04237058754691887,-0.005602642636787311,-0.0012961488040627402,6.79702577330651e-05,-0.005544469291972932,-0.006461226717687425,-0.002710219458016305,0.32389770242866334,0.004436664041681373,-0.3609144573789472,0.010314907312491982,-0.00016527000213108556,-0.008500571902592177,0.010227132717418954,2.0859375
0.10036320256244755,-0.01429686157780775,-0.003203851730999453,-0.0016427496607689255,-0.012961781978381715,-0.014504628279649325,-0.0073986540572358855,0.7636371260344352,0.008507418463285643,-0.8488964810184151,0.02269298793702754,0.0017006331094529905,-0.01915049681016083,0.025010569955574862,2.09375
0.09079331435489435,-0.012870171599034018,-0.002889395249492633,-0.001360847817254658,-0.011732484787318826,-0.01317666833431288,-0.006622176324702205,0.6914151928577146,0.007837065245773924,-0.768685838328525,0.020654119748745155,0.0013923064074104327,-0.017387078663774487,0.022568526575407675,2.1015625
0.08903437998719146,-0.012622970879118428,-0.0028324967585242567,-0.0013101946473950245,-0.011505214385436429,-0.012935114970560461,-0.006480841424019101,0.6788704518353045,0.007714131811348312,-0.754417429972923,0.02029107306726607,0.0013392433755888395,-0.017070802515243545,0.022134389293934523,2.109375
0.10886113232622069,-0.01560160280827286,-0.0034841221906263854,-0.0018947620943792938,-0.01404180567314336,-0.01568759840961557,-0.008088967548557608,0.8293343651314861,0.00910519398568509,-0.9213402132577764,0.024525344666908065,0.001979891246333578,-0.02072530812598301,0.027199732068060183,2.1171875
0.12466390523516556,-0.017959668277029616,-0.004001675139811508,-0.0023585976624839297,-0.01606293397915959,-0.017878665896594842,-0.009369815294645815,0.9482876137388454,0.010213461531475615,-1.053814481476037,0.027882864047574552,0.002485654182130366,-0.023629466090952546,0.031217442468603928,2.125
0.1543959405500819,-0.022409409630693523,-0.0049795976188628886,-0.0032346454084961115,-0.019865121528586143,-0.022002190752369855,-0.01177040262117648,1.1733362848090907,0.012298976472840171,-1.3037006563033198,0.03421917792731451,0.0034395767849817443,-0.02907899092248238,0.038788617039887126,2.1328125
0.21195865892856539,-0.03105252752649872,-0.006876993300496984,-0.00493500854796451,-0.0272279388377394,-0.02999085370673695,-0.016418449767715757,1.6109098331478657,0.016337963298893223,-1.7885638075009125,0.04651993093059822,0.005295450316237791,-0.039642522374858324,0.05348282396289146,2.140625
0.22707058825377432,-0.03333459475585743,-0.007377106711543399,-0.005383471399523568,-0.029161027618103297,-0.032091087092752414,-0.017638451038917553,1.7266428047534124,0.017399393234260128,-1.916361394761028,0.049763153220348307,0.0057864370926162395,-0.0424203520770246,0.05735456692960119,2.1484375
0.11819744170369959,-0.016998872319021106,-0.0037925302752752975,-0.0021709691591001784,-0.015235192269320031,-0.01698409090610827,-0.008837981980841828,0.9001944360483007,0.009760278319534077,-0.9998757912727456,0.02651349118049979,0.0022779919851466067,-0.02242533259848154,0.029570666974123052,2.15625
-0.06600859632397485,0.010659820102756448,0.0022737425060995625,0.003266689792948496,0.008325137572610278,0.008579957414513669,0.006056160761238354,-0.49911824521762116,-0.003168538424953131,0.5515120675415921,-0.012840459486396288,-0.0036635323962710934,0.011421548645263522,-0.01745309604536491,2.1640625
-0.1750756370095582,0.027041099886090703,0.00586428963416091,0.006486654914644339,0.022274138939904965,0.023715585856034047,0.014880026718226727,-1.3277057479771384,-0.010827185753252146,1.4703026414882883,-0.036145174982054926,-0.007182413960226742,0.03147508689534611,-0.04529037474701614,2.171875
-0.17670031558336277,0.02727582842728,0.005914862615396999,0.006534056070735703,0.02248337765473104,0.023935336032596965,0.015015189027488508,-1.339495926778967,-0.010942856943859467,1.4837602121433908,-0.03649027106350109,-0.007232255433663302,0.031779564871666686,-0.045685245409395454,2.1796875
-0.2357447407171784,0.036112249124410245,0.007855873529536235,0.00827498239350548,0.03004052911055176,0.032119449798267266,0.019786726096822825,-1.7867340899436512,-0.015082414615508365,1.9800848604034664,-0.04909388617671548,-0.009129706786878628,0.04261389214371347,-0.06073134756159155,2.1875
-0.4209673940607387,0.06390045494167573,0.013953867851498141,0.013741000622512614,0.053735401911682225,0.057819296551152456,0.03475846565498248,-3.1927320058000834,-0.028077363627475593,3.539240001263814,-0.08865438595665276,-0.015098168345759949,0.07662838334764276,-0.10800182696930072,2.1953125
-0.46840312911290444,0.07104028508149436,0.015518587076752232,0.015143059055379184,0.05980025579159531,0.06441103347988199,0.038592398577911025,-3.55376775906757,-0.03140857776354751,3.9392962336593604,-0.09879179525159536,-0.016630857414569742,0.08534427028156051,-0.12012917652735398,2.203125
-0.1456578909040272,0.02262878838938645,0.00489622647931597,0.005620241143773836,0.018512511838709514,0.019636764144993744,0.0124959094507796,-1.1043124644337603,-0.008762113269977941,1.2226741830965804,-0.029855246296561697,-0.006230811484176921,0.026057210855666466,-0.03777738632051607,2.2109375
0.2774274521953374,-0.040868476572669475,-0.009032341657039028,-0.006866974346304219,-0.0356064977750773,-0.03907376586315073,-0.021715335720363136,2.1080448125979165,0.020931727221153287,-2.3397633272247824,0.06052484340348885,0.007408473300986734,-0.05167194724011442,0.07020476554775713,2.21875
0.3724975759736001,-0.05515424142709632,-0.012163771868371028,-0.009675496042039789,-0.0477650472827023,-0.052276431709551915,-0.029402916022630853,2.8305149959281777,0.027608228201875074,-3.140911656311845,0.08083846204247463,0.010475334627633025,-0.0691419598633791,0.09447807592292311,2.2265625
0.23625675464482981,-0.03470730633207632,-0.00767809924299147,-0.00565490553885733,-0.030336929686283882,-0.033370164214580084,-0.01838439290112568,1.7959375290805253,0.018046963635562928,-1.9936597668615326,0.0517258736575414,0.006081688566782371,-0.0441122717591748,0.05969457461591383,2.234375
0.2610390429686727,-0.03840858981867184,-0.008491460309807217,-0.006383357532077731,-0.03350735200956067,-0.03679228982845318,-0.020387469725430086,1.9832249091542895,0.0197826955868332,-2.2014398473228476,0.05700041223759218,0.006877418973681016,-0.048668479707550845,0.0659933446867161,2.2421875
0.3703484293723843,-0.05481047647747953,-0.012089455362482428,-0.009607531803643168,-0.04748925413622383,-0.051950168165722524,-0.029229234409476463,2.8130609532669766,0.02745236990437091,-3.1215556490167495,0.08034702397924667,0.010402820054665732,-0.06875907849665532,0.09389063497326067,2.25
0.1822929577129916,-0.02660528126556702,-0.005900833215060272,-0.004059262470907827,-0.02343488322603843,-0.02586635399617806,-0.014025483037960876,1.3861571111303381,0.014254967697445732,-1.5388895736545907,0.040194336339635775,0.004344949941132766,-0.034209968040031055,0.045926107682925654,2.2578125
-0.18760630019779884,0.028899234298706132,0.006274951837011754,0.006854678927278676,0.023876603850505655,0.02544475091082048,0.01588691867292694,-1.4217823098901954,-0.011704918846189953,1.5750325425286194,-0.03880392826514911,-0.007579725029762199,0.033761321908676756,-0.04845855931680345,2.265625
-0.2619376111665573,0.04006214805518181,0.008722495456973189,0.009047493989548011,0.03338204012199959,0.03575607610773804,0.02190128387399434,-1.9864285115115285,-0.01692118837493823,2.2009774367670936,-0.054681261580606565,-0.009980001968284385,0.04742968534299286,-0.06743810505852249,2.2734375
-0.05000860286048002,0.008253446258852042,0.001745192329702258,0.0027934494688539057,0.006278472395302185,0.006353795664468547,0.004765266648122972,-0.37727378143199863,-0.0020451996362164803,0.4164997038537311,-0.009415245719533913,-0.003147438754248624,0.008491061191426282,-0.01335595136555014,2.28125
0.0013509959148806385,0.0005250265113796889,5.228850951466101e-05,0.0012782346933551938,-0.0002825799349330961,-0.0007738132447686121,0.0006098883903878853,0.013418857538644201,0.0015617239323567338,-0.016450275366490047,0.0015545806720054058,-0.001486038152960765,-0.0009570888107963509,-0.0002324125269748395,2.2890625
-0.18152251673042916,0.02796217023307182,0.006072520847199011,0.006675744456438688,0.023110017819362737,0.024597358793007285,0.015395065317043053,-1.3749623231194599,-0.01127312257747402,1.5232496826204613,-0.037515044499023584,-0.007379809460887816,0.03263246476793679,-0.04689780896916577,2.296875
-0.2493950691626464,0.0381674260161401,0.008309873511500896,0.008679358679059319,0.03178376958020807,0.03401789700668883,0.02088378308976705,-1.8913229259015838,-0.016038794029889974,2.09545103393628,-0.05202626416699758,-0.00957368519436399,0.04510406834570631,-0.06424201329855886,2.3046875
-0.10345773969770061,0.016285807393631873,0.003507283896204418,0.004372646045926361,0.013112059101434778,0.01377507480396083,0.009086471792639066,-0.7840688889249187,-0.005798087129988499,0.8672701072539607,-0.020858455068542513,-0.0048741914185360755,0.018302555188491738,-0.027018723632584615,2.3125
0.013755560492643702,-0.0013064083889547803,-0.00035324749618560107,0.0009132676389448679,-0.0018761494521623947,-0.002486908441008666,-0.0003877036015793615,0.10632579229229389,0.002427917807815301,-0.11987519436029895,0.004189957708387997,-0.0010938135750421939,-0.003220671591149638,0.002901834045119314,2.3203125
0.016446880449757475,-0.0017193271870315214,-0.00044398768919383456,0.0008335935523865874,-0.002216271953439023,-0.002863982509071823,-0.0006051228668954161,0.12752087730041403,0.0026168215158553273,-0.14299946049977733,0.00478085607288811,-0.0010026082026034556,-0.003712915051129597,0.003607164063423454,2.328125
0.048844773389985705,-0.0065761368768439896,-0.0015097989173441023,-0.00012250386469673283,-0.006365405965407002,-0.007361838741852567,-0.003229044555059585,0.37333691599041724,0.00489027127899944,-0.4156494469567053,0.011705313897780975,4.2602063903640595e-05,-0.009673747739697284,0.01187816931589576,2.3359375
0.13691937776932603,-0.01977698472049848,-0.004406971539784332,-0.002721063766803675,-0.017638123070029356,-0.019579821045074882,-0.010354319469050587,1.0411387917559798,0.011070648213991027,-1.1565747371247246,0.0305079903749762,0.002878985387362934,-0.025861652795221644,0.034342292310115215,2.34375
0.1493855934385227,-0.021639504464427015,-0.0048166313624360794,-0.0030880710998724844,-0.019230923309128487,-0.021304723454942366,-0.011360644126663504,1.1353201815648417,0.01194462180362973,-1.261168111345287,0.0331607098110562,0.003278680154548962,-0.02814680540537356,0.037513836567010794,2.3515625
0.056449550673838084,-0.007704320714093588,-0.0017585875232131935,-0.00034571574991513793,-0.007335856734562179,-0.008408286424254974,-0.0038421352529317563,0.4303216821599659,0.005422442870814845,-0.47905693218652334,0.013313909847153799,0.0002843972167300574,-0.011066052909252793,0.013802281867521051,2.359375
-0.022100480934287556,0.004061330099962645,0.0008257918578905718,0.001970818092231355,0.0027144297807433783,0.002487873787103837,0.0025083125072660893,-0.16502596813578638,-8.875085744307284e-05,0.1815794104575356,-0.003451912210897431,-0.002243474845015143,0.003356402807056834,-0.006227998373234083,2.3671875
-0.013219740723535458,0.002718212336953469,0.0005340982653383693,0.001708323920229967,0.0015753892883351645,0.0012537203903083287,0.001784168502459395,-0.09741059506655828,0.0005359398900023341,0.10657929314298865,-0.0015551151844570195,-0.0019551601554115734,0.0017067781122136452,-0.003956056969766371,2.375
0.010058503410992134,-0.0007640456747293397,-0.00022989639751582377,0.001023364436912,-0.0014039242106770253,-0.0019749130600730516,-0.00010177248536943983,0.07840971392527091,0.0021696104155699953,-0.08893606167248691,0.003400353333946468,-0.0012079433838532766,-0.0025733705285021107,0.0019708252570578245,2.3828125
-0.028875968008391626,0.0050922520662370595,0.0010526112390484346,0.002173995488303906,0.0035783122059092117,0.0034271120788464593,0.0030496767634993465,-0.21790823471467158,-0.0005638471468331727,0.23928056186177168,-0.004927635365657906,-0.0024672767869161685,0.004595737447961668,-0.007977773811525488,2.390625
-0.05699305534343182,0.009303625147178016,0.0019758250249234193,0.003001892422286155,0.007175621003393353,0.0073233202284753085,0.005328305392371299,-0.4307417635673666,-0.0025370252846449518,0.4756333012629155,-0.010922887015147268,-0.003372593975949128,0.009771831981335336,-0.015141348693869693,2.3984375
0.011897787125553384,-0.0010571742479689784,-0.0002947734731080695,0.0009650876410114237,-0.001639228294824697,-0.0022408884242454724,-0.0002424576535399529,0.09355685654976342,0.0023003716909697136,-0.10519475828092026,0.003812770259852267,-0.0011466886482667626,-0.0028967448447269296,0.002462436374587003,2.40625
0.05971190748279799,-0.008238452857706928,-0.001868305141972988,-0.0004471130789713219,-0.007757681307757056,-0.008875168723464456,-0.004112455864574852,0.4568055934566425,0.0056587369162038725,-0.5080252315480919,0.014032822738801567,0.00039601541919315463,-0.011694044415087996,0.01466498317030766,2.4140625
-0.03131867676465656,0.005443684923760386,0.0011311145866212877,0.002241875698446145,0.003886514050728587,0.0037604285264320574,0.0032493596096152396,-0.23538597658936983,-0.0007312400369619271,0.25900260782765183,-0.005423122100484268,-0.0025438805036497093,0.005042857431400123,-0.008590299723125779,2.421875
-0.05429986437061317,0.008915571146789323,0.0018886512744648125,0.0029226769956228744,0.006825787623225189,0.006954186538536205,0.005114540086679374,-0.41085518577342156,-0.002348717275620377,0.45325995027168453,-0.010346872976674339,-0.00329050165119032,0.00928882521903772,-0.01447263214216975,2.4296875
0.18490673525766682,-0.026983273873204715,-0.005987811211726198,-0.004137152730975532,-0.02377337750729734,-0.026234545862543493,-0.014223957530693372,1.4054304783177212,0.014437688313983869,-1.56062296173593,0.04074451072884507,0.004421365160215912,-0.03465807681645418,0.04657976027966808,2.4375
0.3397100848944845,-0.05023313249818592,-0.011085829822347763,-0.00870760847338615,-0.04357294297392239,-0.04771594344036767,-0.026745631046494005,2.5815872786947796,0.02530583736308651,-2.8644946698999596,0.07381714948096214,0.00941720445933667,-0.06312008252676658,0.08610029638167241,2.4453125
-0.02166283343449865,0.003990340106523215,0.0008109581795011853,0.0019573559757749986,0.0026570759669501485,0.002422940063559433,0.002469614741168614,-0.16173653557120016,-5.3854256639430996e-05,0.1777917352594596,-0.0033688205943908606,-0.0022290554771053064,0.003263446677832251,-0.006120040183968661,2.453125
-0.5638833163520173,0.0853752605514839,0.01866282156101736,0.017962067904659106,0.07201738345758674,0.07765897444797336,0.046313981435038246,-4.278988911808026,-0.038112594837444405,4.743439414990978,-0.119191678563435,-0.019710297677226412,0.10289649966681985,-0.14450230194307914,2.4609375
-0.5619180337334805,0.08509658290296607,0.018599051007247954,0.017906074535982704,0.0717640845035854,0.07739051445775631,0.04615800601946669,-4.264642722514171,-0.037980212300403084,4.7274560172025994,-0.11877452110959473,-0.019649326711715095,0.10254892890004626,-0.14400277998392363,2.46875
-0.02530255830504842,0.004565003928302912,0.0009324112887584202,0.0020682990190293593,0.0031218055578840893,0.0029338173525309845,0.002767470013479968,-0.19030752251636865,-0.0003181965254713916,0.20934709279364627,-0.0041483336001457306,-0.0023497423918514785,0.003955624782442593,-0.007053111986652847,2.4765625
0.35373331424627785,-0.05233019238870094,-0.011546888664013802,-0.009120626574364,-0.04536217057697024,-0.049663630048862345,-0.027882306898959684,2.6879684759909783,0.026288577634200252,-2.9824392833430946,0.07681780654535895,0.009870504298665038,-0.06569279721864422,0.08967804623626513,2.484375
0.2783764675152593,-0.041027376500091625,-0.009065299866046362,-0.006898047129615481,-0.03572517801214329,-0.039211147423508265,-0.021788829116669114,2.115825444315199,0.021001631385389984,-2.3481410673534,0.06071891170975277,0.007439959411224102,-0.0518526676373834,0.07044167126371487,2.4921875
0.10048297645085823,-0.014327976530297753,-0.0032068359546760165,-0.001647205232324958,-0.012973375531289695,-0.014525954931416969,-0.007406541094810361,0.7648102711602991,0.008515107797631562,-0.8502181910413801,0.02272101804017796,0.0017042778933616485,-0.019173276235802974,0.02504433652458061,2.5
0.08398137818511474,-0.011851704145322295,-0.0026629697280083197,-0.0011588263560552135,-0.010861809680691422,-0.012233432085600597,-0.006078076048650878,0.6395257762100721,0.007357332677407658,-0.7113620750027496,0.019205019189506536,0.0011748886415961872,-0.016148571180315704,0.020844605397003786,2.5078125
0.10226434420811385,-0.014599337503117071,-0.0032660504247470413,-0.0016980712663776667,-0.013198555099418606,-0.014770167657760075,-0.007559709347192968,0.778691238286515,0.008642745839328721,-0.8655509919052891,0.02311608009210205,0.0017665051846638498,-0.01951014186572869,0.025515881154437058,2.515625
0.027885191305698404,-0.0034367262685797624,-0.0008182885459538319,0.0004960048410966724,-0.003688054130728804,-0.0044507134642512184,-0.0015411471744929287,0.2140613307993698,0.003422692932506861,-0.23929519114259787,0.007223415099073303,-0.000633871040281671,-0.005837909791906967,0.006524747221337991,2.5234375
-0.07692543686666395,0.012293119456408055,0.002631874620674288,0.0035877728355669844,0.009714464047720812,0.010091569515015435,0.006941084348616835,-0.5817539583324732,-0.0039353114816319265,0.6432914041362469,-0.015170093209130202,-0.004016065110581995,0.013428411508423254,-0.020229690748890288,2.53125
-0.1267462510030973,0.01976040940337123,0.00427060388435722,0.005057633754392983,0.016092556644997,0.017003072725111135,0.01097216584610043,-0.959593483147692,-0.007432338278696051,1.062523090080068,-0.02580969106146401,-0.005619945650185815,0.022585174064577725,-0.03293291447922615,2.5390625
-0.09157333247740308,0.01446998896862794,0.0031110869449926678,0.0040205429832051295,0.011603531141454092,0.012121772849509715,0.008125204984655687,-0.6920244872474335,-0.004961985107187191,0.766046250229374,-0.018296135595508325,-0.004481321019444571,0.016117234700685996,-0.02394580055235184,2.546875
0.006942880827477119,-0.00030884557127488826,-0.0001308910070528949,0.0011144385357598815,-0.0009974652740916865,-0.0015458315022329732,0.0001565074271000352,0.05552896060852213,0.0019529471111848862,-0.06314099029719761,0.0027359596645500964,-0.0013067108386958979,-0.001989302354539908,0.0011817322419099244,2.5546875
0.07045909762886543,-0.009817397454990455,-0.002218492897924433,-0.0007594116337256363,-0.00913044325686697,-0.010355792237500305,-0.00497741950229233,0.5365236904497676,0.00640870790642914,-0.5971135206384646,0.016288606705788237,0.000733464261601522,-0.013653611524025505,0.01736259686456614,2.5625
0.02279882731279388,-0.0026490958429684665,-0.0006484973785076245,0.0006471117708957296,-0.0030369484732884248,-0.0037423909283699694,-0.0011186317903994186,0.17405610858884948,0.003061085953644185,-0.19539952819688902,0.006105825681487097,-0.0008070882577311245,-0.004881187364896501,0.0051899545878925785,2.5703125
-0.06405861392004109,0.010377124766585344,0.0022080006505942025,0.003209976795783725,0.008079536453104854,0.008306055478101738,0.00590676575212999,-0.48460436026996506,-0.0030354785296051543,0.5354882515138817,-0.012434167852765212,-0.003602523792487237,0.011084622757234078,-0.016956333456981675,2.578125
-0.07944685230264607,0.01266831622338535,0.0027118717037980873,0.003663345582260513,0.010051575521417113,0.010437295376225527,0.007147368833165653,-0.6003043102905361,-0.004113934055513968,0.664351092620809,-0.015703626909789003,-0.004091310276280291,0.013901095695073836,-0.02085786118998593,2.5859375
-0.040124118515214635,0.006765797861955581,0.0014183822365003641,0.0025027659787259524,0.005016720572858968,0.004980533621247094,0.003962436138356292,-0.3017619643598886,-0.001352693009314009,0.33314516061699734,-0.007296571824036599,-0.0028226072385306587,0.006663716059805074,-0.010817380284318433,2.59375
-0.020992107481739773,0.003912817499325887,0.000791555834680045,0.0019394940752305997,0.0025637415079964,0.0023298039089436643,0.0024142843263767113,-0.1575765381642087,-1.034850839766384e-05,0.1726169159994321,-0.0032171967977619436,-0.002211119800348274,0.00315193789830119,-0.005950034838989261,2.6015625
-0.019802879258551648,0.0037471809280949456,0.000753409381489357,0.001905531558328941,0.0024118606015896436,0.002169497881505852,0.00232039253470438,-0.1491785180051199,7.206368966718253e-05,0.16307723327425924,-0.00297415697922291,-0.0021763655327116534,0.0029420252630813323,-0.005661230764502263,2.609375
0.0015664685743644957,0.0005277174290989749,4.8260297793626125e-05,0.0012735436958859374,-0.00031859365646577474,-0.0007950864622400473,0.0005926836130234847,0.013758693476231069,0.0015725123300184588,-0.017120910758781454,0.001590659006972986,-0.001484394759203864,-0.0009917488952999281,-0.00020471056860797454,2.6171875
0.032082901823998033,-0.004077699948874975,-0.0009577543167535333,0.00037052877811701485,-0.0042207736639165985,-0.005032409047939386,-0.0018783375225828118,0.24653344484935397,0.0037162456504518777,-0.2747534114577976,0.008118355041190281,-0.0004951871896737984,-0.006617858754506888,0.007599404157497269,2.625
0.04389353650569297,-0.00585870241540628,-0.0013455071656199513,2.2270466839891474e-05,-0.005730921814170104,-0.006672062759938711,-0.0028363068656427465,0.3362012802005752,0.0045455359176410194,-0.37438592594809983,0.010643057526009726,-0.00011385657702602176,-0.008793975999628651,0.010622304487839304,2.6328125
0.0457084365842875,-0.006112975200682909,-0.0014031609882771598,-2.819615309545044e-05,-0.005961961199823984,-0.0069207816746180775,-0.002981575578654826,0.3489151861674182,0.004670760826534772,-0.38910723697908206,0.011020224977355402,-6.016434231526887e-05,-0.009111676930663247,0.011075072413973952,2.640625
0.0610345576288437,-0.008393339556137759,-0.0019076561505652488,-0.00047904086504556846,-0.007922726225182076,-0.009045368527926577,-0.004216027514122897,0.464637432327277,0.005744246516131161,-0.5176208560499388,0.014285470261118037,0.00043003717938838384,-0.011908947945782105,0.014971253278506394,2.6484375
0.0858868763355816,-0.012128895146255828,-0.002728320445565851,-0.0012150844521378636,-0.011104043011399813,-0.012497213385667196,-0.00622247477081378,0.6540150508005816,0.007488852122244445,-0.7271101758555245,0.019600023706212777,0.0012331655356448352,-0.01647507682499014,0.021317407052322407,2.65625
0.08575107823179577,-0.012132532490563728,-0.0027259739851477633,-0.0012145885474966714,-0.01108819357580265,-0.012484519840323392,-0.006213518484302982,0.6541251912709096,0.007481989445666476,-0.7266961325407928,0.01958452189317516,0.0012339097333324777,-0.016466733871277367,0.02130243289683328,2.6640625
0.03332477681632369,-0.0042743880474478,-0.0009992746995668743,0.00033224325618294543,-0.0043813809030208315,-0.005212613785191642,-0.0019782105788643165,0.25624910199739426,0.0038048559018348366,-0.2856100104268958,0.008390533879688692,-0.0004549056530111506,-0.006844468355315788,0.007928325495347319,2.671875
-0.05127672026554414,0.008439580664365646,0.0017882308038242925,0.0028314671091268537,0.006441236990181423,0.006529405149617358,0.004863713183769471,-0.3870048516791388,-0.002133576737236223,0.4271482878643744,-0.009690474636985521,-0.0031872039382318147,0.008712188843982862,-0.013683492581602619,2.6796875
-0.11072370919936722,0.01738058185378969,0.003745838711419784,0.004587866027757841,0.014045251963295383,0.014781770297823538,0.009676666595978928,-0.8391147129517824,-0.00630930181964908,0.9282820298349154,-0.022400943986907045,-0.005108681007923205,0.019656149360768444,-0.028871936702795448,2.6875
-0.11156687453408033,0.01750177060774854,0.0037714970381627086,0.004612494272296124,0.01415394582491348,0.014897807042902179,0.009747896729421638,-0.8451862411638149,-0.006370063276509403,0.9353770342504745,-0.022582771809934014,-0.005134212578157098,0.01981338428668069,-0.029074022546053558,2.6953125
-0.08037658610277536,0.012801374723648697,0.0027426277713471616,0.0036906557340882465,0.010166444643150242,0.010566791230782215,0.007221822435692854,-0.6075257496789697,-0.004177409740593164,0.6722370273825815,-0.01591387751796916,-0.004122957852865626,0.014062458959297561,-0.02109458345264108,2.703125
-0.05763313088603009,0.009386303409013351,0.001994638093020573,0.0030190241814492345,0.007257689776923186,0.0074129739051591184,0.005377674435973703,-0.43472780389329246,-0.002576433827257111,0.48054378648327434,-0.011053531598520948,-0.0033883492637473062,0.009867632610500783,-0.015301396859408699,2.7109375
-0.038863788668279935,0.0065897604496651385,0.0013795563138182664,0.00246614087208426,0.004854474547500482,0.004815796678618628,0.0038595138339008665,-0.293020007234139,-0.0012597234138744977,0.32299782619772255,-0.007048372600740669,-0.0027874394522653776,0.0064242364062990776,-0.010538548648531569,2.71875
-0.0015383352424666514,0.0010024497055263419,0.0001522624302850603,0.0013658785128745964,7.856715475873868e-05,-0.0003599736839996832,0.0008432505033823713,-0.010235042653917167,0.0013546035852188625,0.009225020560937769,0.0009248230810102138,-0.0015865077312682222,-0.00042007075574193017,-0.0010119408981077538,2.7265625
0.032834366276927256,-0.00416333457839056,-0.0009808108838300423,0.000351681253396657,-0.004316500804088495,-0.005134530253923854,-0.0019352268888284073,0.25105793816814664,0.003763416858161083,-0.28030764507349026,0.008274964084752518,-0.0004756925331674973,-0.006729109343930112,0.007789390766540902,2.734375
0.0314108751567401,-0.003961326797352206,-0.0009359204399790314,0.0003929077721335693,-0.004133008910061824,-0.004943807213896312,-0.0018192345159501338,0.24080567702008288,0.003664260023839097,-0.26870594056927827,0.007975950537652649,-0.0005194382310496268,-0.006466863687051616,0.0074410244268922465,2.7421875
0.02979340410467557,-0.0037179320831292485,-0.0008819321731254863,0.00044002070231207173,-0.003927596887547463,-0.004719993254182473,-0.001687920502503419,0.22840191497941223,0.003552685520024331,-0.25510953497966765,0.007626572937981125,-0.0005735787145757701,-0.0061714065805286225,0.007014676270687276,2.75
0.07670900061813139,-0.010755531934224757,-0.0024239563925410957,-0.0009443035241684169,-0.009929828142694443,-0.01122587799440249,-0.0054842952572666075,0.5841410515356954,0.006846037004877088,-0.6499434370847255,0.01764337540470905,0.0009374212233868327,-0.014799495808693783,0.018976818126414007,2.7578125
0.1174887160543061,-0.01688211139314386,-0.0037658803237716827,-0.0021472137501150827,-0.015144594283089133,-0.016882103910485318,-0.00878613349781916,0.8938512099965004,0.00970800438079206,-0.9933962532893631,0.026356078329022425,0.0022547360890297014,-0.02230288244190196,0.029393627233963097,2.765625
0.0704079491858553,-0.009823585043718712,-0.002217744670952632,-0.0007580034211007474,-0.009122984544977482,-0.010350297885015257,-0.004979396972426162,0.5369209029693468,0.006403644258001046,-0.5972391461201723,0.016302853346320565,0.0007392244313950683,-0.013654267872611732,0.017386308479785978,2.7734375
-0.0065389911412698995,0.0017286933073398711,0.0003142705227846069,0.0015114671979266948,0.0007140218310774025,0.0003259857970671135,0.0012470673196777375,-0.047170862413486996,0.001003514845941084,0.050655361205235235,-0.00013511139352512136,-0.0017440228796734515,0.0004915429183584888,-0.0022634961345967663,2.78125
0.001663864068203429,0.0005039344879810818,4.463918052076135e-05,0.0012679938996745341,-0.000337941884319169,-0.0008107041706467061,0.0005876299667414246,0.014856310498500561,0.001580435271768078,-0.018273291739467457,0.0016134143427922298,-0.0014831702889580424,-0.001008775846103157,-0.00018517988103005249,2.7890625
0.05310627598746088,-0.007224613065150785,-0.0016494607997735904,-0.0002503050126417835,-0.00691110424735751,-0.007948072974726496,-0.003572109460931199,0.40565229588638496,0.005192609286317719,-0.4516295284199846,0.012602947575955164,0.00017711885979447477,-0.010461211358147844,0.012950655598974063,2.796875
0.01749434385389765,-0.0018963674338655476,-0.00047906778016104006,0.0008015037574247031,-0.00234694415183306,-0.0030099615380069916,-0.0006951558664642325,0.1359585395503707,0.002693923229188417,-0.15222219865436046,0.005000287115677858,-0.0009653355320460488,-0.0039243983133386215,0.0038840322302030987,2.8046875
-0.08890912828158214,0.01407203743791254,0.0030238295759270058,0.003942467988049609,0.011262108169824139,0.011750048560003503,0.007906125746423581,-0.671907638753149,-0.00477491087384457,0.7437248902653066,-0.01772957398313353,-0.004394493511401979,0.015619539920816276,-0.023265913169979256,2.8125
-0.14429841636924612,0.02240642486145277,0.004850356446818767,0.0055778946731739965,0.018338651075201995,0.01943620990610647,0.012385017358818083,-1.0935469558970878,-0.00866418441992178,1.2107898242600288,-0.0295707217579354,-0.0061862301940716295,0.025799779508035792,-0.03742272428423896,2.8203125
-0.13198538013246597,0.02057758361595133,0.004446979839309622,0.005215413525781176,0.01676157334490408,0.01773174484703104,0.011392811782742084,-1.0009313687268482,-0.007801423893553396,1.1076607832397063,-0.026947865142809876,-0.005794894782351095,0.023551373081564197,-0.03429980469803915,2.828125
-0.11086027210731858,0.01740071170969592,0.0037494585464109454,0.00459183997411608,0.014065609326317913,0.014801030144056987,0.009687591933157026,-0.8399879149307998,-0.006318732088693161,0.929489345038253,-0.022429297906926333,-0.005111481497414941,0.01967828541953255,-0.028900707864749537,2.8359375
-0.06312159856918143,0.010216838107821416,0.0021749637946837006,0.003181517038033909,0.007962393656711567,0.008173304053451146,0.005825902784111851,-0.4764174532908428,-0.0029665785005998234,0.5268529306467856,-0.01221852535098606,-0.003565931133123934,0.010897934935824846,-0.016696177708436,2.84375
0.03771989476722849,-0.004917957057961961,-0.001144262276894544,0.0002049739778230176,-0.004941369732300182,-0.00581930398959783,-0.002331379435445777,0.28917838574921567,0.004112225778561045,-0.32226334970289683,0.00932534123252437,-0.00031411674682982533,-0.00764062155530477,0.009041783530706008,2.8515625
0.1113708816713689,-0.015949320537309623,-0.003566073431214703,-0.0019668621155245476,-0.014367471826964257,-0.016033015200886826,-0.008286139155328812,0.8471874403208683,0.009280268541373062,-0.9416900824642104,0.025047180042349602,0.00205436514176823,-0.021165627018445415,0.027819077983931646,2.859375
0.09180672205800802,-0.012998483547529863,-0.00292105123717878,-0.0013881164859654994,-0.011864546512005806,-0.013314139303837623,-0.006700893833258008,0.6980244170161021,0.007904889215005454,-0.7764635429705924,0.020859756303975324,0.0014200148849510727,-0.017558772493507284,0.022813862794384073,2.8671875
0.04607097990638764,-0.0061479647841633945,-0.0014169787635239877,-3.980444863710194e-05,-0.006011576625125179,-0.006970399114018437,-0.0030026999806342836,0.35155180428941213,0.004694535883980127,-0.3917267127324246,0.01109629157225303,-5.0734856753007907e-05,-0.009161718393941401,0.01115215412491446,2.875
0.04428623867969856,-0.005905345634872306,-0.0013593041463410593,1.0932194115979199e-05,-0.0057818684296079715,-0.006726585434932596,-0.0028623229510505452,0.33903388001951956,0.004570852674369937,-0.377407431680191,0.010726116039085225,-0.0001030056642096593,-0.008851790958395295,0.010715092265633308,2.8828125
0.04906556308041314,-0.0066313667457524915,-0.0015154919700328677,-0.00012917273250447287,-0.00639197864555711,-0.0073894481528568035,-0.0032518877188288872,0.37528296514862625,0.004907164278159694,-0.41786410158953846,0.011746945402368671,5.112106891255499e-05,-0.009735068643455469,0.011940542924996382,2.890625
0.031581804319560716,-0.003994966204838402,-0.000938194293304859,0.0003893109345958356,-0.00415399552960965,-0.004960863370304268,-0.0018379207661323898,0.2416851785420511,0.003679020283466385,-0.27025069558043047,0.00800126115039711,-0.0005162465734190332,-0.006511718428090926,0.007468815536325799,2.8984375
0.03673564713191141,-0.004754607384446252,-0.00110796615997941,0.00023733227673733466,-0.004813619492835598,-0.005675284061477849,-0.0022529023711351194,0.28042135415298874,0.004039320309650214,-0.31323469387337893,0.00909561322972218,-0.0003516543971393701,-0.0074499271419733466,0.008773663754679537,2.90625
0.0600306179394496,-0.008254787226351399,-0.0018769674223053584,-0.0004530485725612033,-0.007795669558071672,-0.008910358842177552,-0.004135964296293574,0.457958129060623,0.005674534588726278,-0.5095373365127078,0.014079851983872493,0.000402405715784132,-0.011735309299151696,0.014724208336237332,2.9140625
0.03141236136192067,-0.003978605385621607,-0.0009367705124878907,0.00038869885530885297,-0.004136000270186956,-0.0049448150286798415,-0.0018236559985292488,0.24169203315281318,0.00366839536910461,-0.2692099949689911,0.0079819508311365,-0.0005156333457942919,-0.006490427393924853,0.007438708127799401,2.921875
-0.036366206279011874,0.0061846573046631,0.001294984563268965,0.0023887907558129765,0.004534844414232127,0.004455830636202683,0.0036550091060036324,-0.27275046256032165,-0.0010860735217927677,0.30112315646543947,-0.006491593874892499,-0.002700241653181489,0.005957416286345503,-0.009854912276904472,2.9296875
-0.06425888324563492,0.010387634566389862,0.0022154455410049274,0.0032141076601755083,0.00810262780527948,0.00832817754992661,0.005912758134792416,-0.4854828367729171,-0.003044261760768954,0.536427237465936,-0.012461715419212373,-0.0036050949921771916,0.011095701467231302,-0.016996023497588043,2.9375
-0.07442235948314001,0.011935637975236522,0.002550877332382138,0.003516310415096934,0.009400534360404509,0.00974371978123549,0.006741108407492115,-0.5636000184807706,-0.0037611651626040386,0.6227148451936931,-0.014646627222521894,-0.0039386962927773495,0.01298520506434171,-0.019608580244826406,2.9453125
-0.13903609169516665,0.02162982843578809,0.004675886085452009,0.005423649466763209,0.01766493490550565,0.018709521197935685,0.011969701079447868,-1.0539572228025273,-0.0082978687640603,1.1667559895391233,-0.02844912685597194,-0.006020656655225378,0.024862600272704757,-0.03608317765152968,2.953125
-0.18619194877566875,0.02868491453477179,0.006225896705899993,0.006814232216815991,0.02369954657826272,0.025249201486866657,0.01577991683215639,-1.4110547240727154,-0.011604461560804654,1.563193598863929,-0.038515283621426845,-0.007535109786152252,0.033509709782571985,-0.04809505042761402,2.9609375
-0.08519817936137623,0.013524067711959964,0.002902007994337065,0.0038331101638209237,0.010783002117372755,0.011239358976958106,0.007608816180732818,-0.6441045440260684,-0.004512397362507056,0.712707833399282,-0.016944363020824853,-0.004278127125780172,0.014937644528367154,-0.022335765444696586,2.96875
0.10236797089846052,-0.014603429239491539,-0.0032694302288668606,-0.0017014391025649428,-0.013211296446895148,-0.014775480523711875,-0.0075590227381343335,0.7791035278528002,0.008651082482331028,-0.8659153350244666,0.023112432641271587,0.0017637798695140613,-0.01952192069413786,0.025496350775818657,2.9765625
0.18140623544801235,-0.02645081284341478,-0.005869881859025038,-0.004032955588327137,-0.023323557198762983,-0.02573821638125506,-0.013949190540333249,1.378610419131242,0.01419404480175179,-1.5309280246324501,0.039996663158991815,0.004309633686864098,-0.03403328341451712,0.0456663978868491,2.984375
0.1076143414857798,-0.015387557565944263,-0.0034425882669954014,-0.0018555479249720201,-0.013882907522496801,-0.015507854367605958,-0.00798204099457917,0.8188445250921375,0.009012516058760764,-0.9099434444026616,0.02424665099668017,0.0019347799656159186,-0.02047114700971762,0.02687016284688193,2.9921875
0.011498370093976095,-0.0009773797094244396,-0.00028078122193834435,0.0009796469071975218,-0.0015861948095973587,-0.0021814854756219697,-0.00020950268940569939,0.08979517170167287,0.0022680773166327407,-0.10119644464925176,0.003723823265932824,-0.00116047736018171,-0.0028120181406928726,0.0023606054527822388,3.0
-0.0294515569969128,0.005168513656786181,0.0010676488486945261,0.00218732080691911,0.0036507704055737584,0.0034982378171794447,0.003101900729955802,-0.2211362986447276,-0.0006030945585950682,0.24349460220546718,-0.00502562233908065,-0.002482066825678927,0.004709346150320426,-0.00810362614420023,3.0078125
-0.059946767549900595,0.009746848923820665,0.0020735162080045394,0.0030879188877643107,0.007551161079887607,0.007730735969710063,0.005564838749125638,-0.4530184861848292,-0.002742141268386272,0.500326192101367,-0.011542375694252755,-0.0034659667220749654,0.010304314571475091,-0.015893945506627392,3.015625
-0.09911706234655246,0.015617443969278435,0.003363766941001372,0.004245345568376349,0.012565170565488417,0.013165153044567519,0.008728239292877634,-0.7503715772980749,-0.0054929877210707105,0.8300351516524133,-0.019907476001038173,-0.004725729445968075,0.017492998639673202,-0.025873888931759,3.0234375
-0.07154574932100284,0.011477074251531258,0.0024556575201046937,0.0034321721492806055,0.009039115780239025,0.009340756029001522,0.006499265190224056,-0.5408660993374329,-0.0035610979066540835,0.5979265305319583,-0.01401813925837318,-0.003836007008755745,0.012430242112273152,-0.018830163556218672,3.03125
0.07591785390406156,-0.010640089911960934,-0.002398713479336657,-0.0009210604902818949,-0.009830959699853942,-0.011114781010042955,-0.005420223509809466,0.578493041908015,0.00678740762517085,-0.6433256985615793,0.017476294951250984,0.0009127452789113951,-0.014652144191505938,0.018779580008207453,3.0390625
0.254275080730677,-0.03739544949282975,-0.008269907639517595,-0.006186449456878303,-0.03265135460733206,-0.03585792878790769,-0.01983920451416174,1.9323774560561762,0.019307846691081113,-2.1448662635203237,0.055572191144005176,0.006657802956855955,-0.04741538366649017,0.06427208607200023,3.046875
0.2870976837617507,-0.0423317945818223,-0.009351858082262613,-0.007155458179079368,-0.03684383143766614,-0.0404136192313823,-0.022493810305352704,2.182008323404783,0.021615084089429422,-2.4216363156374774,0.06258674351263532,0.007718656129630425,-0.053449074443351355,0.07265588149190194,3.0546875
