AF3,AF4,F3,F4,F7,F8,FC5,FC6,O1,O2,P7,P8,T7,T8,time
0.016717499354479737,-0.011607266873039215,-0.04162602493836858,-0.047492938514658065,0.03754293957300979,0.023731539973760075,0.025357420680734027,1.8067763001895427,0.13706552578734077,-1.9424795084078887,-0.08464145388015103,0.014804394346612713,-0.06835839286487617,0.132203474289771,0.0
0.02891813543455607,-0.020240843727996775,-0.07237368819079536,-0.0824822338357868,0.06595265859312828,0.04107897332426133,0.04394762916822771,3.1300009991301243,0.2371634631954597,-3.362640576178781,-0.14650340680800436,0.02511113035259123,-0.11785213536505065,0.22941397203535407,0.0078125
0.01111829786437081,-0.007655527000900507,-0.027409623097271255,-0.03144111395796562,0.02447693296648781,0.015711237594107672,0.016741413121020274,1.2018886906881678,0.09143488736657895,-1.2904706045844059,-0.05628680686214745,0.010049307639054438,-0.0455832051040447,0.08789342738500107,0.015625
-0.012242438243326978,0.008879695027563507,0.031567767597707415,0.03562995553903236,-0.029994732356866394,-0.017562797284393368,-0.018938420221662183,-1.331936495500304,-0.10017867202039253,1.4307529993862678,0.062236396866035756,-0.009729834654869669,0.049296116950289535,-0.09817006644167613,0.0234375
-0.017529948966936857,0.012638240853908626,0.04492042282170328,0.0508681961927594,-0.04236508599903031,-0.025091888121853156,-0.02700378150170579,-1.9086632975996474,-0.1437970966251397,2.0484810322876013,0.08915059769212658,-0.014216844100862443,0.07080452657748566,-0.14060164942431938,0.03125
-0.013564701756689165,0.009832520604328055,0.03490214893646118,0.03943351714659048,-0.033107528846292575,-0.019433733755191255,-0.020921275081526195,-1.4793904356221828,-0.11121095879828165,1.5866265603292593,0.0689918011608385,-0.010843465785157253,0.054644125843538525,-0.10917995288153055,0.0390625
-0.011916968713798154,0.008646233163272198,0.030717242957675306,0.03457295796124379,-0.02920252523226033,-0.01707488362219403,-0.018386923566925006,-1.2968347435110432,-0.09730794829328515,1.3929700214873866,0.06049683469522763,-0.009424514841303454,0.04782601567046395,-0.09579130334731684,0.046875
-0.004380894299962814,0.0033045020427041574,0.011682813028635112,0.012911445030752587,-0.011622616975164974,-0.006347589348074631,-0.006898691530949104,-0.47643591702340127,-0.03545833649443743,0.5158932951980842,0.022289056242848604,-0.003067095403641513,0.0171919359153521,-0.03541651873834017,0.0546875
0.013492609892822239,-0.009327095086909749,-0.033426179763099036,-0.03831554797271201,0.030000046650491316,0.01909314124809026,0.020370327878520757,1.4600289731664275,0.11060012846065226,-1.562776167671894,-0.06820429830111649,0.012014113272202805,-0.05529770097824008,0.10697983555601778,0.0625
0.026916245484390592,-0.018813320952225442,-0.06731555817852795,-0.07680211289504417,0.06129979917525012,0.03821436239006689,0.040891376157881854,2.912483971812376,0.2202674142890031,-3.1261752096709254,-0.136245335909965,0.023381162055192965,-0.10973521708987842,0.21370731042973984,0.0703125
0.022274527432184502,-0.015543129514534309,-0.055626499400567776,-0.06350088581170191,0.05055903150911446,0.031625481674248564,0.033852952852453724,2.4097243849202474,0.18245549956051524,-2.5902195942352964,-0.11286417034345228,0.01952273885213002,-0.09090345448358264,0.176667836553896,0.078125
0.004842022325808049,-0.0032287770206472317,-0.011648722033421611,-0.013492781919280978,0.009966475831805249,0.0068162479242545254,0.007244825030439611,0.5225380687258255,0.04004821276848184,-0.5633540097194605,-0.024603436193911043,0.004820745849255784,-0.02016218045299724,0.037966717886915344,0.0859375
-0.009671965328510753,0.007044142283451352,0.024973109015153917,0.028131275078353196,-0.023917033700245338,-0.013846808121526626,-0.014951746781362794,-1.0505503797026368,-0.07885572871434555,1.1292708604239934,0.04903174694777715,-0.007491961390195214,0.03874126985508695,-0.0774755707155118,0.09375
-0.01202823637330993,0.008731444619731049,0.030906472002873882,0.034840704180708594,-0.029473961153645405,-0.01719554350225567,-0.018575454488817138,-1.308228410916409,-0.09852600882012984,1.4074504702802235,0.061099189060548564,-0.009554847230731337,0.048280328706089885,-0.09623647385603859,0.1015625
-0.006426362343433656,0.004774766003866758,0.016764034616248074,0.01876089299303459,-0.01640569749798961,-0.009213103974138204,-0.010012513500446844,-0.7018489967803483,-0.052782029779960396,0.754159078601409,0.03273415200473995,-0.004838414188054561,0.025528236759402998,-0.051741721472554465,0.109375
-0.0030883319226610393,0.0024000567949074504,0.008376613659938508,0.009282503746856945,-0.008573249023319492,-0.004472156835754078,-0.0048999133298359265,-0.33830090115924705,-0.02513156497923431,0.36135959068835366,0.01575668572204691,-0.0019762553455471496,0.012025464871383486,-0.02532212186800392,0.1171875
-0.004885123005693921,0.0036610401485460903,0.012975785906156927,0.014552883698988316,-0.012758826577067143,-0.00706031529487247,-0.007649919049773223,-0.5320709714516793,-0.03953622371940539,0.5697318449151587,0.024828349931474227,-0.0034579652519779627,0.019390043036636176,-0.0397759313980593,0.125
-0.006499408136022726,0.004811902483229883,0.0170761618561177,0.01917071677317504,-0.016578799104447036,-0.009378464907041802,-0.010134875305737156,-0.7089275457932411,-0.05289763266562157,0.7615797004764022,0.03305333464959586,-0.004836797262072364,0.02594893641729171,-0.052661611816904014,0.1328125
-0.005383238769811022,0.004040149605757503,0.014223243348027666,0.01583655481635762,-0.014024787201618172,-0.007780195844268161,-0.008442585919745008,-0.5904887324926619,-0.04419021060435238,0.6356685356339724,0.027477363827714884,-0.003941368170181054,0.02135346831675065,-0.04365723037722776,0.140625
-0.0030978268288209617,0.0024299790361350603,0.008424478843142793,0.009205965740976098,-0.008694208719729096,-0.0045119602030374946,-0.004953032127089779,-0.34304513395093766,-0.02565534922174726,0.37006053657279286,0.015931431361443794,-0.00203469676118138,0.012037642223783026,-0.0253563169270383,0.1484375
0.0011633220571800142,-0.000596619750122745,-0.002296219729549164,-0.0029312461545876927,0.0012677310027337239,0.0015428505101719252,0.0015581669261196637,0.12062982111590759,0.009541085066629923,-0.12855564217225973,-0.005724174500513977,0.0015995628403153845,-0.005214559615820602,0.00850200048012527,0.15625
0.006659245814960723,-0.004502901693888457,-0.016121667218411274,-0.018569816794919376,0.014099501971114042,0.009346372073482451,0.009962194820863003,0.7179759696092003,0.05494744507120693,-0.7710344482477425,-0.033684447996570804,0.006307083686223617,-0.02746519262637987,0.05213620307769298,0.1640625
0.007628367152237047,-0.005192990192149107,-0.018594056392926484,-0.02134349106400326,0.016357954050596264,0.01073736480206735,0.011462615242959702,0.8231202188884734,0.0628708535292748,-0.883954538152276,-0.03861640792006652,0.007149586242024784,-0.03141273411578665,0.059889062904335585,0.171875
0.00449549461164014,-0.002963331797044598,-0.010750075254340718,-0.012437740954203264,0.0090262617769709,0.006310280938987645,0.006683920348071393,0.4825532010277902,0.03684123194231887,-0.5167467160077341,-0.02263071422543321,0.004459154103233271,-0.018744629367159392,0.03509941442250963,0.1796875
0.005756926257570941,-0.0038441583862380765,-0.013933342727522061,-0.01609229655547077,0.011931175039179124,0.008110332101838457,0.008578919590399772,0.6187138267659559,0.04698499545856928,-0.6622329153143364,-0.02893963434315677,0.005476600965966437,-0.023860274734980782,0.045230934012793635,0.1875
0.009177632109398549,-0.006272554824923221,-0.02252191244030424,-0.02590079279390968,0.01992500729701127,0.0129565737013346,0.013771224199939093,0.9904075249519921,0.0752525828304349,-1.0632806044231473,-0.04636515017355721,0.00838335012785343,-0.03771122413237463,0.07249510365999795,0.1953125
0.0013512910048218275,-0.0007531581562355373,-0.0027936555057818824,-0.0034955709354781623,0.0017683446014216406,0.0018197075231202646,0.0018472396940843595,0.14355046137458402,0.011455802322171783,-0.15612402425718389,-0.006861748204000142,0.0018246406846138203,-0.005973953561676017,0.010229352952085333,0.203125
-0.014343491536990891,0.010350012410110581,0.03672779239699678,0.04146395094213921,-0.03475803169745383,-0.020482013345975002,-0.02205546567690766,-1.557697413165158,-0.11716089445702177,1.671510618683938,0.07267068739317441,-0.011430977691716216,0.057652151627608686,-0.11475904542435042,0.2109375
-0.0156312858414223,0.01127894900406133,0.03995962207375967,0.04517289895184984,-0.03779710519388646,-0.022300456309986887,-0.024009106192107933,-1.6986169521029297,-0.12799890609392556,1.8257209115048747,0.07934059904612346,-0.012575160729931452,0.06285815451093357,-0.12514497455695203,0.21875
0.001325876748367273,-0.0007087910147633681,-0.0027450917955375406,-0.0034125519418568774,0.0016743602210488187,0.0018007884184710467,0.0018305993242159978,0.13953154763608733,0.010813444356426803,-0.14657949080580776,-0.0065216218347169,0.001713297345790495,-0.005916438100985007,0.0098598119420348,0.2265625
0.011667807313904082,-0.008037830006850913,-0.028774663089531968,-0.03306696752203488,0.02579723722810624,0.016487272588025233,0.01758550294796727,1.262487523270027,0.09569628782796027,-1.3532245407678556,-0.05901052103374156,0.010476040578433404,-0.047850652575687457,0.09239452397296252,0.234375
0.0025047078150659888,-0.0015664658574949335,-0.005681548512414766,-0.006784685220262044,0.0044732630643305755,0.003451370247956924,0.0036183262859209226,0.2694544977851141,0.020726686310978945,-0.2886678922176495,-0.012641302722321193,0.002773902261976371,-0.010655510220116652,0.019479032161302166,0.2421875
-0.0065883431476698034,0.004876536984448272,0.017216378865959288,0.01933817239722885,-0.0167528246656864,-0.009476213333823815,-0.010238000886454839,-0.7194846789949031,-0.05389137009653562,0.7714275872265762,0.03349135225032091,-0.004909197942148531,0.02626012028758043,-0.05324259404685039,0.25
0.0008508218802511086,-0.00037104007131465703,-0.0015433822344384476,-0.0019793585485128914,0.0005356611884595567,0.0011032683266725244,0.001103671474269822,0.08411609914423028,0.006964906328884388,-0.09271140116111823,-0.004152056401113105,0.001355237870960708,-0.003922388688818365,0.0056812369179220544,0.2578125
0.01139385057409747,-0.007833182685251834,-0.028121173017185846,-0.03226096874771554,0.02511262878530905,0.016100567023653894,0.017171712577679663,1.228429193909527,0.09350463399970046,-1.3210841299109586,-0.05762350637439905,0.010265403830628045,-0.046729880955797956,0.08973559051852377,0.265625
0.007531789242592346,-0.005114757102422109,-0.018388599936213782,-0.02118858362093346,0.016122629812275736,0.010618673979337844,0.011270919453510882,0.812719547161982,0.06204947589165432,-0.8730545850924627,-0.03809664496366475,0.007018099488643493,-0.031057433904716315,0.0592944431853423,0.2734375
-0.004586943820648807,0.0034584420776929497,0.01218002764595245,0.013655814748379675,-0.012162574059677689,-0.00661552456395423,-0.007221413994000495,-0.5011666819071755,-0.03736505036777167,0.5388268732561698,0.02337951383673669,-0.003226368975368933,0.018179682469893987,-0.03713375298041308,0.28125
-0.010117683829899388,0.007381300158275812,0.02616112641544857,0.029572976969420826,-0.025078738338884955,-0.014495435596382064,-0.015651275749086025,-1.1028205999483562,-0.08295781507303873,1.1846957124555506,0.05148642388587738,-0.007914025619417763,0.04065762573460445,-0.08133469664470866,0.2890625
-0.008187053182379203,0.006013292466149769,0.021305945960061655,0.023964586748740482,-0.020522143785618802,-0.011758549303632864,-0.01267960326042447,-0.8931898982551739,-0.06711409524561046,0.9595298614923082,0.04165676755023457,-0.006271442584082879,0.03275765795293773,-0.06602111733167264,0.296875
-0.005529630986338436,0.004119871122108577,0.014584090814721638,0.016240313931928586,-0.014267055024397273,-0.007975325066421034,-0.008611898086353577,-0.6026253579078767,-0.045025388496720345,0.6486341461197438,0.028082801664690668,-0.004004444485340396,0.02188800472679518,-0.04473019774520716,0.3046875
-0.00351194342853988,0.0026921090495809607,0.009489249934730668,0.010425359497352347,-0.009597795225024896,-0.0051052961993337705,-0.005562852520277167,-0.3832617361377361,-0.028413203754012954,0.4148725217865193,0.017868354791365792,-0.0023176323329183726,0.013698020163873975,-0.028524078925246017,0.3125
-0.0006807611524048851,0.0007048814411200258,0.002357997370219009,0.0023146430385178234,-0.003065785809433731,-0.0010782327220360982,-0.001275286881407194,-0.07804391289530192,-0.005541032568865725,0.0879105367306986,0.0036369848285364094,2.814960108694793e-05,0.0022449150931174774,-0.005941709001435192,0.3203125
0.0031512458977071226,-0.00200082753537642,-0.007341125295980612,-0.00867409315016148,0.005892098612054384,0.004394364328325351,0.004598084126956214,0.33670645695023527,0.02563469356587178,-0.3594531290527024,-0.015764474384562712,0.003266551961659195,-0.013317697010982395,0.024520648167399604,0.328125
0.007822441849080078,-0.005321514424432949,-0.01918278163598019,-0.022028533752393553,0.01687683741941942,0.011065176570786196,0.011783551963609832,0.8445113265412195,0.06415277921632016,-0.9086617143228377,-0.03957697967863085,0.007279075694169215,-0.032289216156064136,0.06159848125035401,0.3359375
0.010653105013445694,-0.007336832545716197,-0.026313732434556907,-0.03006685689234624,0.02350671047892168,0.015077708402801792,0.016106089845603314,1.152260653102834,0.08767264187496687,-1.2406889768157883,-0.05402013331428773,0.009715462321843563,-0.04372274424276144,0.08404401609035905,0.34375
0.007541798846041576,-0.0051248008596063675,-0.018398769231730987,-0.021144859321249335,0.016190076648284285,0.010611672094998734,0.01130084704617717,0.813862080534698,0.06207514104675971,-0.8743407255686004,-0.03816328172052624,0.007044775115232924,-0.03103860987722936,0.05933987431598774,0.3515625
0.0014340646528411293,-0.0007842762908629138,-0.0029848721900541954,-0.0037397946996335896,0.0018997120767772387,0.0019206225960266428,0.0019464674635196247,0.1502660711055247,0.011646126078503169,-0.15855317432422275,-0.007070069569132951,0.001812394036915544,-0.006281535763828927,0.010884669712546487,0.359375
8.156164297479278e-05,0.0001757809026776726,0.0003669630832882814,6.800265670189603e-05,-0.001231878145704859,3.3827585264447054e-05,-9.014514441889573e-05,0.003416221725432233,0.0004583004842421186,-0.002103064198368053,-0.00021622156555870209,0.0006590660279098886,-0.00085629671465139,0.00012873269865306677,0.3671875
0.0022771082666088586,-0.0013908839270874145,-0.005178970754650496,-0.0061633191292112905,0.003921374219050777,0.0031678435058823296,0.0032939772257578027,0.24207674559535336,0.018783855124610296,-0.261553724516266,-0.011454345703835881,0.0025620669359622573,-0.00976857408570364,0.01737487077470351,0.375
-0.00014114882631970286,0.0003075225765429592,0.000981551025164595,0.0008601836498854785,-0.0017268572209036342,-0.00030334115695646507,-0.00039948346781148737,-0.019472948109241665,-0.0006577010478452542,0.0193813151731917,0.0007353142071970277,0.000555534820756021,7.444887298235801e-05,-0.00207015069564001,0.3828125
-0.007081576993796323,0.005217307107670894,0.01850507041988339,0.0207607610757312,-0.017942255774301002,-0.01019159234585141,-0.011007047027894361,-0.7717579579666349,-0.05754604727076398,0.8297479671222034,0.03595067556678148,-0.005317776537989558,0.028232460834102073,-0.05723700896158522,0.390625
-0.011825648535723753,0.008583890729698063,0.030434498312729354,0.034341643686511,-0.029029999119481033,-0.01692319755089548,-0.018255106492795964,-1.2867841283398984,-0.09678607051357442,1.3835792684094508,0.06009613952254769,-0.009363534101815264,0.047479791402407615,-0.09483007671581044,0.3984375
-0.012437930641765228,0.009027725315671439,0.03199652707507652,0.03614177915048163,-0.030473589397653905,-0.017794938373447065,-0.01920319663773246,-1.3543580946225822,-0.10206865210922439,1.4547625344945005,0.06327442845547705,-0.009908942927207254,0.05001870251630763,-0.0997340217981108,0.40625
-0.008595788076081893,0.006306949313342954,0.02236934599921424,0.02516242408131937,-0.021500161267286346,-0.012355016888415284,-0.013348088409668304,-0.9379869240145717,-0.07044337693060604,1.0061924577250494,0.04375467735603812,-0.006640598541253874,0.034476236265567076,-0.06928326056806204,0.4140625
0.0016372544933509947,-0.0009484469489724134,-0.003459398729370366,-0.004235316002294474,0.0024159201134928646,0.0022061845786051915,0.0022974226716269796,0.17285106317485605,0.013716035242253458,-0.18773642807897895,-0.008257442660445495,0.002074491383676272,-0.0070906082330762675,0.012214557362826447,0.421875
0.011884530582609049,-0.008205975999938938,-0.0294029827052895,-0.033692053106107345,0.02634466177952221,0.01682440698696422,0.017978681652536285,1.2851126553087633,0.09768617766609376,-1.3818535625101556,-0.06025252199799499,0.010766430467401075,-0.04875873038031382,0.09396226047920163,0.4296875
0.011429855481798753,-0.007870689578745989,-0.02828863339993337,-0.03238615088830862,0.025242065552078738,0.016194986097543433,0.01727981373353751,1.2356420636375633,0.0936355553950172,-1.3251946443563605,-0.05781278485300276,0.010319670783416146,-0.04694043491434571,0.09043999335844669,0.4375
0.004640456786435926,-0.0030522350387920598,-0.011100437431216179,-0.012889375662794886,0.009352194099550256,0.0065112216806120105,0.0068702384856694455,0.4991965683503253,0.037821441178817784,-0.53019362751587,-0.023265768471388063,0.004501086928698492,-0.01935492105539744,0.03642081461140585,0.4453125
0.004396272535013852,-0.00288653985441276,-0.010439791197915235,-0.01219717879658756,0.008800130844979732,0.006142761486780551,0.006475395222752417,0.47334946665997363,0.036039388851688156,-0.5035736188960919,-0.0220997147173579,0.004308285222492708,-0.018330123045587895,0.034505321882161544,0.453125
0.00720446752255295,-0.004888664940802214,-0.017541594573871926,-0.020246994842455183,0.015405582422318638,0.010142811400013838,0.01078468718182757,0.7778113876200966,0.05933183188136511,-0.8362183698274401,-0.03648123457118394,0.006755997948967057,-0.0297082042695063,0.05675297242031424,0.4609375
0.0009960550920478017,-0.0004919201983033476,-0.0018976137132619643,-0.002410849412470543,0.0009263213147039002,0.001315237404353594,0.0013286000372577883,0.10286084747775633,0.008415748292385406,-0.11370227968041689,-0.004991479934623472,0.0015199104692453062,-0.0045086664293369945,0.007070028869208019,0.46875
-0.008640559004549367,0.006341885325299392,0.022417234522355896,0.025202351318072063,-0.021592512143068118,-0.012397790669625928,-0.013388365625081944,-0.9431323552166722,-0.07076658184384448,1.0134964665413841,0.04398566108543849,-0.0066842046425980095,0.03456327461560392,-0.06971997992797734,0.4765625
-0.008392179484304606,0.006163607403554168,0.02177733016539137,0.024404860142228632,-0.021012039777246555,-0.012036266059787198,-0.013016044298258443,-0.9142989048894433,-0.06872182887983878,0.9861865592777079,0.04272995103608626,-0.006496087673432832,0.03348975670783141,-0.06746996226127405,0.484375
-0.003163775689994412,0.0024456655945833505,0.008558548097806038,0.009390931568181857,-0.008766946653297273,-0.004583434170668861,-0.005023771995202331,-0.34483367164951495,-0.025655233339902512,0.3731274051196898,0.016104502391571227,-0.0020301663983066714,0.012257532099447823,-0.0256059813523,0.4921875
-0.003888104226037764,0.0029537040132480955,0.01038263222083622,0.011565619054821815,-0.010434327185683358,-0.005617010738052604,-0.006118906062129484,-0.4241118393635611,-0.0315419909288507,0.4546183231708742,0.019732949970521704,-0.002607837214667113,0.015273156533733352,-0.03151627860667107,0.5
-0.004616547846269559,0.003484510995428952,0.01223807252910748,0.013742177675526506,-0.012160911604030156,-0.0066667002389147745,-0.007230575245669613,-0.5064176449909082,-0.037737285497635505,0.5410939196149755,0.023499080295494204,-0.0032393479152468432,0.01830995033892823,-0.03762938601746651,0.5078125
0.00199186837881024,-0.0011823053118219583,-0.004428282607139485,-0.005241152630432486,0.003232283211123178,0.002736207293720161,0.0028584556959995234,0.20860432957670227,0.016286036164546193,-0.2272544411905495,-0.009969975556080141,0.0023305461698638376,-0.008521229678234843,0.014889423475791485,0.515625
0.005492477959318594,-0.003667702464346093,-0.013258421076786792,-0.015365604238750183,0.011404241412276347,0.007724413048986332,0.008197668394056248,0.5899665700009514,0.04516649982004297,-0.6360810304036008,-0.027771517560328286,0.0052954423604834955,-0.02280041079045183,0.042902369471736104,0.5234375
-0.0019210856611352402,0.0015714336951803054,0.005469876091193055,0.005879888737301906,-0.005899335823135351,-0.002833207175101996,-0.0031475827975495445,-0.21178676659567147,-0.01538484720041952,0.22790368585211457,0.009806152631268265,-0.0009827975146813209,0.0072654125048180074,-0.01596763579346781,0.53125
-0.006282217124956243,0.0046646979966777575,0.01650616914036297,0.018459676964715913,-0.016116815354211843,-0.009057256295373791,-0.009836547730266508,-0.6848865100573295,-0.05126726247747674,0.7387184433505685,0.032008701917698404,-0.004698492176647161,0.025027054172555848,-0.05064026202119614,0.5390625
0.004699309052776046,-0.003099783831206737,-0.01119279466647441,-0.012951281368980579,0.009473635640065954,0.0065673851414880385,0.006936833609997031,0.5043960231968891,0.03844504114779359,-0.5401707007370138,-0.023610511751333788,0.004595902291789459,-0.019476542376428537,0.03673605662147838,0.546875
0.01841521588229456,-0.012813417933387406,-0.04581267146763159,-0.05226980998701268,0.041497089877502294,0.02609810594974964,0.027919464240818707,1.9913789380630218,0.1508608784332058,-2.1411564604618345,-0.09321816396826486,0.016248541127458705,-0.07515309348252969,0.14583029385616308,0.5546875
0.016798775890773585,-0.01167942663410642,-0.04174074376864537,-0.04769955899062692,0.03776631045118334,0.023799780609935893,0.025472027614008255,1.8173387516684287,0.13785264347095272,-1.9538823308199242,-0.08510031363274463,0.014908741972398809,-0.06866069115785353,0.13295317299662068,0.5625
0.001824047457895344,-0.001078320986076879,-0.003965384181443729,-0.004859114416236115,0.002838198136350093,0.002482604778317251,0.0025863770187185445,0.1945826886712744,0.015136993409271224,-0.20565909956570552,-0.009138528512171675,0.002200232419723641,-0.007944703240467334,0.013930216040127456,0.5703125
-0.012369006107728418,0.008977480591065762,0.031801022230679,0.03577122412449335,-0.03027476277372726,-0.0177011715675251,-0.019099405078140914,-1.3447052888355462,-0.10146966341218348,1.4507584641616493,0.06290397935123145,-0.009862624432974426,0.0496321058785877,-0.09884464682386251,0.578125
-0.017668316884678854,0.012729305217080043,0.045109601106345563,0.05097563614890339,-0.042603979589825564,-0.025209016162673282,-0.027162423329146694,-1.9200665387677704,-0.14500501428612048,2.0655694308855197,0.08975061825965693,-0.014344291459158305,0.07113280504522261,-0.14109616724772114,0.5859375
-0.014046810844458288,0.010155415917750012,0.03596857002542396,0.040658478579457376,-0.034115346608014394,-0.020047729273263867,-0.02160141817723006,-1.527313650010991,-0.11497932847149944,1.6391571536591167,0.07127942933411918,-0.01123348198597704,0.05644671718326195,-0.11257942291651503,0.59375
-0.006021640669438651,0.0044672555048625995,0.015791611143989154,0.017700439879577336,-0.015406687219147952,-0.008661020436115099,-0.009364052970859363,-0.6562982931235686,-0.04880668271263595,0.7038005812060957,0.030540052885367385,-0.004420985775193269,0.02390871056590066,-0.048872008299984226,0.6015625
-0.00023724589246083125,0.00037838137598653055,0.0012576685560219776,0.001111050890016866,-0.00197284157289947,-0.00045880778793665964,-0.0005764102951103899,-0.028755405725087554,-0.001443305617833342,0.033411038097815794,0.0012859276283495218,0.00044302885497532555,0.00046454613804083374,-0.0026819417045688305,0.609375
0.0026173734798718923,-0.001627872538149407,-0.005951788768945838,-0.007082679736051223,0.004631548908024382,0.0036094173082128703,0.0037568825204427033,0.27951930154002497,0.021547208248294255,-0.2967710352909467,-0.013072920648886559,0.0028137333821304585,-0.011091614133741297,0.020211119724004193,0.6171875
0.008555715581680097,-0.005821498588392931,-0.020956490844667223,-0.024060967277794984,0.0184644411242082,0.012070941904466915,0.012823402643270448,0.9211561465203298,0.06997057907901519,-0.9901983726213374,-0.043147633704335595,0.007832197478540802,-0.035140932193594675,0.06736691004012388,0.625
0.01569030464435398,-0.010877980850084028,-0.03894892202144379,-0.044470205249844706,0.03513438197068389,0.022216751586689443,0.023730730308815434,1.693863863214567,0.12862802518475186,-1.8252576999233543,-0.07941972940586217,0.013918433587621898,-0.06405807003856617,0.12394128882932028,0.6328125
0.012545295512289504,-0.008671213843138424,-0.031025806369282233,-0.03551082600520775,0.027868439628534396,0.01774701228494423,0.018965219270242216,1.3548488668060377,0.1031845753328719,-1.4612594306228817,-0.06362945499835435,0.011323849829767023,-0.05135394572149448,0.09897054756374453,0.640625
-0.0009206183665306817,0.0008491795526814514,0.0028890282176014864,0.0029888331341287534,-0.003493480655741584,-0.0013827433568310663,-0.0015532639955718964,-0.1024819096718236,-0.007156421035100927,0.10921327627600953,0.004606445606482353,-5.7094388033765526e-05,0.0031691914593585755,-0.007918748279742906,0.6484375
-0.00900326060049972,0.006582816937994412,0.023256711741490504,0.026162169647953492,-0.02238976926306501,-0.012871329516456144,-0.013899299404482292,-0.978787407587523,-0.07375454811071598,1.0554989793958565,0.04574311304317925,-0.006959963221388616,0.03593563549290789,-0.07211814931613293,0.65625
-0.005157512611480581,0.0038803683435569628,0.013617367670603696,0.015236347806495182,-0.013496887153495823,-0.007431214625805906,-0.008079688815961937,-0.5639075380348413,-0.04254105615736712,0.6101896955293264,0.02641478011424391,-0.0037714946274484446,0.02042759023847722,-0.041627114349675066,0.6640625
-0.0008557937873151786,0.0008339725706781035,0.0028288448141077552,0.0029338258633363184,-0.0034514262132499312,-0.001342549775547866,-0.0015395998371687029,-0.0982266023646028,-0.007157409474573622,0.10648604795037243,0.004560726217780147,-0.00011231584235027277,0.0030536330683749845,-0.007491819113866703,0.671875
-0.0033202520837532267,0.002561269546209348,0.009029030377506546,0.009934304833192284,-0.009124203174486237,-0.00484663684134054,-0.005279751963331153,-0.3645214429551774,-0.02699103793998372,0.38939679943787353,0.01688807856745243,-0.0021289476346972574,0.013029560146564888,-0.027124840384719694,0.6796875
-0.0051568791454866415,0.0038606995421036697,0.013619845647930697,0.015188492956437531,-0.013414595863776465,-0.007450827318664682,-0.00807153639504837,-0.5640059020229973,-0.041959109577292666,0.6040125763252565,0.02620262093956266,-0.0036815615937268735,0.02043884661718324,-0.041848372666556125,0.6875
-0.0005881166104522783,0.0006447140405822587,0.0021012272191579316,0.002148514026775436,-0.0028458350404109555,-0.0009551878083722301,-0.0011208409814494993,-0.06956906185188119,-0.004770193908825014,0.07677918821710246,0.0032171464656729617,0.00010538714889687125,0.0018948645575772654,-0.0055593751276745,0.6953125
0.005787375798556525,-0.0038665331445379195,-0.013965274916465651,-0.01615327038138731,0.012020330841532218,0.008126552045928605,0.008610458123572268,0.6240128173495146,0.04738433382106317,-0.6641566836670533,-0.029072892336080715,0.005462525979779992,-0.024013969005617725,0.04543931766552411,0.703125
0.00742294221451107,-0.005049153008590863,-0.018121803934743788,-0.020947804510620043,0.015947371318910566,0.010486175664565653,0.01115266875170982,0.8053983287441575,0.06109534031868914,-0.85943643640313,-0.03758106748409006,0.006914154312088322,-0.03072269757487397,0.058804702140865056,0.7109375
0.0018046819472719187,-0.0010865015119293467,-0.003984706661036798,-0.004849245778256206,0.00290026181206762,0.0025003457039472756,0.0026007682936401463,0.19544334241558411,0.015318220606261023,-0.20978460047898342,-0.009252162970085333,0.0022337588867052103,-0.007906673074134814,0.013943421513516121,0.71875
-0.007674824146659127,0.005643956414853104,0.019941037921399743,0.022431861583437657,-0.019295762354115186,-0.011017522214605781,-0.011906089936760986,-0.8385033506748797,-0.06257577646348743,0.896114717926947,0.03893595991711987,-0.0058110674312821095,0.03067121106041179,-0.062051429050423705,0.7265625
-0.0110226141166156,0.008039646139560803,0.028415430735821822,0.03206650747063431,-0.027203072880807554,-0.015799291203493812,-0.017056225624843307,-1.205140518373071,-0.09040558107418406,1.2911849392195027,0.05610895267253766,-0.008715261133880874,0.044302520173150575,-0.08889836400450214,0.734375
-0.0023827278479449593,0.0019216526597663536,0.006631056911324386,0.00723748808539097,-0.00705006312129651,-0.0034911166755685844,-0.0038632600251461667,-0.2654484952086853,-0.019634944955692565,0.28610204151665947,0.012308837391867595,-0.0014185288841679201,0.009184913595845464,-0.019782605991921345,0.7421875
0.009320810428648149,-0.0063805470242173,-0.022874197903123762,-0.026304257681245353,0.02028584059023486,0.013169322338373653,0.014016424644752385,1.007437368332706,0.07653674785314683,-1.0801235346176499,-0.047139797082003894,0.008525794777477275,-0.038322694092043634,0.07365607034145266,0.75
0.012605507825189488,-0.008708591243894184,-0.031134253605387057,-0.035613835476366644,0.02794507943766722,0.017828589545353043,0.019028052043986103,1.3630853759954193,0.10349726573408623,-1.4647384662461407,-0.0638083060526546,0.0113292883613113,-0.05157343913508256,0.0996738055716035,0.7578125
0.009127835334389022,-0.006237308993296955,-0.022383033248705456,-0.025614960413301316,0.019837440385965365,0.012882031662181666,0.013734900812772514,0.9836989814279468,0.07475711068304215,-1.0589043539556706,-0.04611990798386732,0.008382417019586308,-0.03742838346641495,0.07181962020942471,0.765625
0.004628084659842548,-0.00305372662681865,-0.011096948211819634,-0.012827385776751224,0.009403699776232755,0.0065068621502144645,0.006909446429962582,0.4963640158344358,0.037834592941932664,-0.5342974031353374,-0.023334958290647273,0.004581796536445877,-0.019259678467506515,0.036076973500984835,0.7734375
-0.0030553413399788416,0.002370743737299278,0.008260806503628348,0.00908689144386682,-0.008456849898452612,-0.004416207436444138,-0.004806001374879228,-0.334087800296034,-0.02481869493818235,0.3598378039207563,0.01552295686767789,-0.0019076911768723182,0.01181614459960812,-0.024941505441237966,0.78125
-0.014655363380436312,0.010575886336747515,0.03756465137244882,0.04232999119422406,-0.03552729663649311,-0.020945954028945103,-0.022559413387730116,-1.5908173058696997,-0.11967771537925463,1.7114717425705703,0.07432132912545857,-0.011745298209725615,0.0588845430891135,-0.11721965981090704,0.7890625
-0.021015475309965077,0.01508749933138236,0.05364409564250666,0.06060580759695305,-0.05041930618223105,-0.030015995749294085,-0.03231579491227856,-2.281734527352226,-0.17203339194897294,2.454412858889191,0.10665915287606309,-0.0171693832945861,0.08475247753816417,-0.16780079204142231,0.796875
-0.014621811651445021,0.010570762978137072,0.03750354566714212,0.04231914571973417,-0.0355283204839787,-0.020914508992088177,-0.022549247492062555,-1.5900561070613213,-0.11993280412445188,1.7098917185080653,0.07430301699024344,-0.011764150129771235,0.0588450685237158,-0.11692964608089233,0.8046875
-0.0002680102677663357,0.00040679433057101493,0.0012804578510955578,0.0012084385903500864,-0.002028573143958812,-0.0004861170107629345,-0.0006033088672190803,-0.03408813019052041,-0.002182089446238922,0.03504057477286863,0.0014771487435843536,0.0004244128270028468,0.0006005271383170321,-0.002863283406018383,0.8125
0.011112698775067535,-0.007656084028957828,-0.027413147186140647,-0.03140325615720677,0.024518204400490153,0.015699430652476355,0.016776013740367933,1.2005359378767813,0.09143169801405698,-1.2923270745217568,-0.05629126951093392,0.01008559290405578,-0.045588395370626575,0.08758085792257539,0.8203125
0.01381306581165669,-0.009563374913425422,-0.03421278437414115,-0.03916830877456987,0.03076959426325404,0.019539805316969704,0.02087139285395903,1.4940008532166518,0.11359220606362998,-1.6038370238192043,-0.06993723827687741,0.01234210081229721,-0.056549554717639616,0.10921271304575368,0.828125
0.012500501574011176,-0.008620102477051321,-0.030916769927749808,-0.03541319283247064,0.027651666896697263,0.017682920323764395,0.01884564586111936,1.3513008512240996,0.10249006726277254,-1.446522010375259,-0.06315094603543021,0.011173481034652523,-0.051213137239511146,0.09896441857707704,0.8359375
0.015598600577987828,-0.010804586986371014,-0.038748600982965425,-0.04424594793837412,0.03487044720378436,0.022096920606366914,0.023582547726152963,1.6857950239481863,0.12764173807466836,-1.807748041047565,-0.0788029845652719,0.013781468349198302,-0.06375535736380139,0.12352831314334345,0.84375
0.019912129791699654,-0.013866603889202328,-0.04962496674866111,-0.056577732141663416,0.044987588896036206,0.02823061085935681,0.030197007761603827,2.152785305863136,0.1631726119055797,-2.315310359817727,-0.1007844634570696,0.017487479951123413,-0.08124333602203769,0.15760442313509104,0.8515625
0.01109327254819804,-0.007642629993295368,-0.027367121787702734,-0.03135929041443922,0.02449167211442796,0.015685318771727682,0.016762376107414698,1.1979566475204302,0.09123805414744161,-1.2913096891188607,-0.05623591125662677,0.010088080373015656,-0.045499551509112356,0.0873999974352594,0.859375
-0.01254490447857678,0.009082142713610436,0.03226608992905545,0.0363070795906253,-0.030619915400229354,-0.01793645844938213,-0.01931944335959285,-1.3632054267386697,-0.10244446283002068,1.4649314340951705,0.06359152258768597,-0.009923057943502405,0.050351527661151536,-0.10051559152030554,0.8671875
-0.03130785366265117,0.02237577707571306,0.07960620449394908,0.09009257727226234,-0.07442739192300224,-0.04463092816489924,-0.04798619916394862,-3.398078462851995,-0.256537116457493,3.6554109994563526,0.15886676642322595,-0.0258705925207654,0.1264830046159247,-0.24976665882759938,0.875
-0.030090225583655504,0.021527742101446968,0.07655036216875499,0.0866834076985646,-0.07162970861204952,-0.042910255904743476,-0.046150111329460584,-3.268338094301396,-0.24681934252434776,3.5140313599963906,0.15279784040592626,-0.024876643729788515,0.12161375825949769,-0.2402325852849749,0.8828125
-0.0163863889954158,0.011820920741803895,0.04197116646688965,0.047425668169851276,-0.03963482869727624,-0.02341631386627909,-0.02522042481882822,-1.7831042213889168,-0.13432460014917477,1.9131568979033957,0.0832133935900929,-0.013228096955033736,0.06605272270865024,-0.13126887435933346,0.890625
-0.003140757042904078,0.002426868906565917,0.00850802670910759,0.00939211468286424,-0.00867215601187567,-0.0045557624552740325,-0.004968891857068343,-0.3449873337974885,-0.02535098675363343,0.366307201785683,0.015869443860769678,-0.001946102916982117,0.012263915653507786,-0.02574331670559414,0.8984375
0.007415605086638191,-0.005046080115784073,-0.018162181866106394,-0.020899524783748364,0.015948425995326396,0.01047563305572205,0.011153729679856556,0.8009223252565336,0.0612341429681172,-0.8621791529522694,-0.03765313735019014,0.006981561540816854,-0.03062108797223094,0.05839513343947227,0.90625
0.015755199420489318,-0.010929222324184628,-0.03917877826757462,-0.044740015012765005,0.03531786867854719,0.022329808411600118,0.02385380317109427,1.7041978837974099,0.12919521056362213,-1.829435645271503,-0.07973364953324615,0.013962326569617128,-0.06443671490102908,0.12477525391044184,0.9140625
0.01840647650645398,-0.012795014272764154,-0.045807640345801655,-0.05227218104280144,0.041448507261581516,0.02608008049371625,0.027869839729466665,1.9911287034514389,0.15065841615027592,-2.136464483148573,-0.093045801981423,0.01615909584150309,-0.07514451005677751,0.1458884865553708,0.921875
0.014616576281181307,-0.010126119119913882,-0.036213973381960515,-0.04141236122474139,0.03264385259419533,0.020677168412767687,0.022087177326604347,1.5817603067629842,0.11984788979563693,-1.6971637838452098,-0.07392481040735409,0.01298480725842936,-0.059769531438388965,0.11576744981074084,0.9296875
0.007959991605627607,-0.005429799777634711,-0.019431846352682806,-0.022354079559593423,0.01716200217943951,0.011205771400357934,0.011947010359005866,0.8607394794867144,0.06564720809438947,-0.9240185142834353,-0.040304357107830056,0.007404090932317362,-0.03279361003003891,0.06268813821450368,0.9375
0.0006003158103805409,-0.00021453763587862544,-0.0008914924946623523,-0.0012640883111515841,-2.7413253400212292e-05,0.0007366234616774559,0.0007194764116573038,0.06059203007029971,0.005235659108312811,-0.06534291963504713,-0.002948810715520625,0.001174745659404985,-0.0029450315424035937,0.003919274618694422,0.9453125
-0.006222569235778345,0.004629236652191569,0.016294285585346138,0.018243808381832555,-0.01598064986611858,-0.008958745838400386,-0.009703446522200851,-0.6809208254475155,-0.051033263475972285,0.732744396048198,0.03175514933090114,-0.00464153887643292,0.024720309412368288,-0.05034362206109844,0.953125
-0.009238065209035076,0.006762287278798505,0.023882922812196707,0.026795595499841483,-0.022988430486883767,-0.01322858306661135,-0.014309873657431697,-1.0060364943231177,-0.07576910895690327,1.084641119857726,0.04701989295593731,-0.007210918577033038,0.03691482503986181,-0.07404774337813406,0.9609375
-0.006246147967832857,0.0046316286571771595,0.016348010921402742,0.018206363427585456,-0.015952004651363847,-0.008968573971552098,-0.009737758126749308,-0.6792757688770217,-0.0509400361523989,0.7331801795358756,0.03172736668026707,-0.004648028123512542,0.024781647139281583,-0.05012194624518547,0.96875
0.0005462457755092606,-0.00017761204093008555,-0.0007482881402253963,-0.0011541772136613728,-0.0001086025038970913,0.0006731973888821464,0.000636633111433925,0.05567026921629324,0.004809190689413189,-0.06043193850669974,-0.0027361631341295324,0.0011353099552719914,-0.002693678099225493,0.0036581047688367205,0.9765625
0.005629881776904016,-0.0037622409745744893,-0.013560710948013959,-0.01562945800562184,0.011693262150042441,0.007892693111367829,0.008403937772038064,0.6032748471967568,0.04615423820644614,-0.6513327013266087,-0.02840701380277519,0.005431494191391343,-0.023258995444535656,0.0438261053992235,0.984375
0.0038612563485550797,-0.002501098413684489,-0.009130204073779902,-0.01058735521170285,0.007541029825360833,0.0053948369897446405,0.005710148806018799,0.4109420476976012,0.03142799687813465,-0.44275470561354785,-0.019368941451896934,0.003901487336548404,-0.01612151567722097,0.029804045161705428,0.9921875
-0.004023137892398951,0.003073198764575162,0.01074777434701959,0.01193761644918034,-0.010816194386635126,-0.005804210343756044,-0.006334935498760525,-0.44122381915835607,-0.0329911461227723,0.4754463472262879,0.020553667836948154,-0.0027847901650874516,0.015815762147094257,-0.03272741802186477,1.0
-0.010768749104513423,0.007836683662029238,0.027810074676864333,0.03127124637628287,-0.026514418223712696,-0.015417016052760569,-0.01665755014959654,-1.170847264966493,-0.08797448642795752,1.2585930001945358,0.05467164124046339,-0.008476632982460807,0.04321719220613188,-0.08634950667308872,1.0078125
-0.011080305238509289,0.0080542622014722,0.028631140124154412,0.032212212273979614,-0.02724193559469246,-0.015884313998427012,-0.01714482588294077,-1.2054099910000253,-0.09054478449042273,1.2934473107663444,0.05623764063912395,-0.008722051659560375,0.04453773560463681,-0.08888396940795398,1.015625
-0.006313272170923779,0.004682785907400511,0.016557390075141194,0.01854787724282945,-0.016125974502555106,-0.009088801844760273,-0.009842645399089757,-0.689444823582542,-0.05166105854638429,0.7385787580275316,0.03208536980125141,-0.004680914770225855,0.02516860193503326,-0.05094945578997624,1.0234375
0.0020691743545168386,-0.001250642286357628,-0.004675795950026031,-0.005534945295475383,0.003448950423101674,0.0028776548311005724,0.002992893765987869,0.22003812151920232,0.017082858919018364,-0.2380408493272818,-0.010445955907000577,0.002424660101796969,-0.008925781654390496,0.01578642611038745,1.03125
0.013145245631638366,-0.009092678281379881,-0.03264267143874916,-0.03732128216167265,0.029292360603579905,0.018651212058908104,0.019909242663028008,1.422000966722666,0.10807802205061512,-1.5288595458249052,-0.06664267456162501,0.011807609728591465,-0.05390303471784098,0.10394559383083525,1.0390625
0.017653571150363295,-0.012281002619558693,-0.04396465504575473,-0.05022696891454869,0.03976146873552739,0.025037384426260148,0.026758331172467738,1.9110989468205328,0.14501662066101692,-2.0517865881503474,-0.08943689210563452,0.015594593705204576,-0.07217242169519231,0.13989436130086472,1.046875
0.0056778875987712725,-0.003796764701731423,-0.013694531026807696,-0.01584449476193764,0.011764665931006177,0.007961239645271626,0.008440383728424686,0.6121119709612178,0.04656458031402484,-0.6521741836540054,-0.02856134425972699,0.005400434504939068,-0.02355383770587693,0.04464104569131357,1.0546875
-0.012819147673943041,0.00929935036139213,0.03299329223352897,0.03724043430268627,-0.031390554111217786,-0.018372463953970047,-0.019798954215236142,-1.3945433714917794,-0.10522060269769848,1.503829047868048,0.06530876397241088,-0.010275845532720141,0.051516843722635146,-0.10273488898196999,1.0625
-0.016074773677029044,0.011596544626018319,0.04121091825688383,0.046597951386631135,-0.038936861898130885,-0.023003242472624794,-0.024744891502866222,-1.748340188945213,-0.13171226052531868,1.8788481465733364,0.0817251997326369,-0.012981223264371454,0.06474491606523462,-0.128909532027808,1.0703125
-0.002691472057009253,0.0021116613573030213,0.0074404018232841025,0.008173807484476369,-0.007674419760789794,-0.003952760611819059,-0.004298965380291675,-0.29630216641097795,-0.02171887420289998,0.3158426517293604,0.01371282789832675,-0.0015949886176590327,0.010428735935421424,-0.022333476373318836,1.078125
0.007614508631336514,-0.005184307157467133,-0.018586164403751004,-0.021470623193577117,0.016358984802922295,0.010727602794306379,0.011425901667470855,0.8230599709541396,0.06274560348678894,-0.882835074415234,-0.03856743893624228,0.007117334152227009,-0.03143485101962441,0.06008803472320253,1.0859375
0.007757721433055496,-0.005270143982965685,-0.0189751847340423,-0.02190405549313059,0.01664800878651962,0.010951253475964031,0.011631661620487328,0.8382849311171012,0.06358553897564848,-0.8949977146023197,-0.039176984375810554,0.007178483435554224,-0.032019043797997235,0.06141796217547792,1.09375
0.010159485864975537,-0.006954536090371412,-0.025037135230831353,-0.028714863957760215,0.022224213347963654,0.014375723257573707,0.015301138769033476,1.0955390035450332,0.08301460653973992,-1.1748260227649998,-0.05128997759240898,0.009195818107122219,-0.04168683179481529,0.08026810593112789,1.1015625
0.016639567129346534,-0.011546803285414848,-0.04137557167960983,-0.04724804170099308,0.03737469255434517,0.02358768423203884,0.025209975703453635,1.796240725509874,0.13628382889928625,-1.934578266280431,-0.08426136973158622,0.014742656174659025,-0.0679179191403136,0.13157084403227942,1.109375
0.011594255664155988,-0.007996545388608526,-0.02864972483392824,-0.03283752088895647,0.025670109516619657,0.016401006698785914,0.01751916606452835,1.2513350492733275,0.09532705560946865,-1.3497685695637276,-0.05883766370505981,0.01053143048598004,-0.0474902821455606,0.09150317607581687,1.1171875
-0.00816831402623113,0.005983449964449037,0.021204442386065763,0.023773408365441718,-0.020409250145368235,-0.011717617905933638,-0.012657844945370908,-0.8884883463227523,-0.0665117602852145,0.9547250071204846,0.04138034922376969,-0.006220562484029741,0.032615334964405746,-0.06561204722594925,1.125
-0.023837304687919038,0.017087263363724875,0.060749470247069844,0.06873784686265041,-0.056992113872456236,-0.03401107281406562,-0.036598865661329416,-2.5876859409867876,-0.19520755147334756,2.7827978082980382,0.12098605067097672,-0.019555331436756397,0.09619313965703061,-0.19038201903459376,1.1328125
-0.02250076902970505,0.01615173888089065,0.05739351501387275,0.0649543732569745,-0.0538854863136936,-0.0321121088195371,-0.034568933452248,-2.44469942396194,-0.1844969563654002,2.625454188209057,0.11427745873912731,-0.01844410276512818,0.09083113451919879,-0.17987977417520198,1.140625
-0.012449766239546151,0.009027986850395919,0.032032457431332456,0.03611932502506079,-0.03040364067028506,-0.017812407205993794,-0.01921055645836135,-1.3546831557710968,-0.10192499957884106,1.451151965433215,0.06321227280029613,-0.00988701092349235,0.050058964773636236,-0.0998870419096457,1.1484375
-0.004678852628533399,0.003515570146331024,0.012418047209807468,0.013829945741540867,-0.012273895851993637,-0.0067552916055664365,-0.0073284497909735504,-0.5104735014669987,-0.03786061411771358,0.5464437129076143,0.023728755239397242,-0.0032735062343946277,0.018479342816842374,-0.038045464603902554,1.15625
0.001400141527300677,-0.000778344167946818,-0.002917294159053297,-0.0035412318199399984,0.0018220305382971183,0.0018915515095455984,0.0019445967724222013,0.14818893791485213,0.011917722888513976,-0.15673776921578036,-0.0069911409603090075,0.0018374205480507686,-0.006204578213595656,0.010251717562194708,1.1640625
0.00853916869907886,-0.005810670494325276,-0.020930259122756097,-0.023974928552760587,0.01838280098484272,0.012048623836982178,0.012819514068362682,0.9200723786435258,0.06991836920764738,-0.9839353455917347,-0.04301131324796753,0.007820441823265127,-0.035144885957378975,0.06713936004195918,1.171875
0.013883597498502123,-0.009589094704092695,-0.03442714565890744,-0.03935724414773225,0.03085253702155096,0.01966027400036793,0.020977346043507115,1.499345750225411,0.1133877240716432,-1.6064877278389484,-0.07007773556989058,0.012333870783433329,-0.056832939658866835,0.10994694987101182,1.1796875
0.01486324194428904,-0.010299804774814677,-0.03689979104267859,-0.04222783337699096,0.033216422181501594,0.021057614609194985,0.02249816173859063,1.6077296755133708,0.12169082096941998,-1.7242714003818753,-0.07518677101588073,0.013209847055883378,-0.06084482627811787,0.11786301663988484,1.1875
0.012631752370831079,-0.008736037111041215,-0.031247625780367962,-0.03580279421217908,0.028066830710833476,0.017868732009424352,0.01910639397813135,1.366715360973289,0.10387103543961804,-1.4679502002647478,-0.06400965151382929,0.011369723286328084,-0.0517843714216955,0.09988966917816322,1.1953125
0.007939134879443017,-0.005411654788172214,-0.019394370226963387,-0.02230075211134826,0.017114391403011128,0.011176376437855995,0.011932878903091212,0.8563517521944599,0.06544592381354436,-0.9215741203457819,-0.04021163340241622,0.00740090196668933,-0.032694328536178784,0.06233292405259586,1.203125
0.0004389501806289106,-9.24445044815064e-05,-0.0004879961576447319,-0.0008266096353500744,-0.00040206074380556893,0.0005120998076277943,0.00047123414556838483,0.04227952733794144,0.0036714433653812634,-0.045212880793104156,-0.002099869662193263,0.0010167391567369355,-0.0022573398462253647,0.0027514272585537967,1.2109375
-0.007625626216005892,0.005615151678756174,0.019843367758092,0.02222636837664324,-0.01920118731067349,-0.010944408205760743,-0.011846032264242213,-0.830260692664681,-0.062478199789123334,0.8955917322412852,0.038801954013339995,-0.005836511441324612,0.030418246238942463,-0.06118173286512583,1.21875
-0.011410607825052358,0.00828421884407892,0.029411316484939692,0.033064149113072545,-0.027991320446236295,-0.01633251596311219,-0.017635397214815517,-1.2387781673255098,-0.0932299579568344,1.3339701229986183,0.05791297451560031,-0.009024679286579393,0.0457741818252065,-0.09124779560169295,1.2265625
-0.008216282182388825,0.006021008954132247,0.021373752378669265,0.023945831501445088,-0.020519747809012796,-0.011803548189224345,-0.012762668373293002,-0.8935980042933586,-0.06698331638597257,0.9587111089133536,0.04167106519347481,-0.006283573606350111,0.03287367038917223,-0.065972493661878,1.234375
-0.0018516355117866045,0.0015274728876876911,0.005289583605628357,0.005726493630862391,-0.005697851224590329,-0.002739812180825741,-0.0030224449732261342,-0.20643558036533655,-0.015125477873512715,0.218040570303043,0.009462396524543927,-0.0008867257367634705,0.007070935017762311,-0.015487653879512262,1.2421875
0.00028618608177312626,2.661159944251254e-05,-0.00015904088559459277,-0.0004070788334567112,-0.0007551496676023998,0.0003328134365692605,0.0002671262351508568,0.023916512306738212,0.002198159504007431,-0.02765285899746275,-0.001297253554463276,0.0008940981335312829,-0.0016550862818162642,0.0014110160745356931,1.25
-0.002721187215435161,0.0021563499167477555,0.007416139685965911,0.008202864425519442,-0.0077870664956653434,-0.003934768318132305,-0.004337532618773513,-0.301393295831854,-0.022262269206470977,0.323702172306132,0.013942426530449826,-0.0016785589219958348,0.010515471577482215,-0.022553502215130302,1.2578125
-0.0030390584380175145,0.002374490682136573,0.008263578996706683,0.009114411392775973,-0.008513009782117751,-0.004409152984772171,-0.00486083824259478,-0.33451465360623706,-0.024668925874917605,0.35872800876582756,0.015498718893646228,-0.0019452719256817389,0.011847880469846904,-0.024957120509093354,1.265625
0.0027330317003585835,-0.0017159056325488093,-0.006258998787362481,-0.007406458178320669,0.004959761679999691,0.0037806562482298163,0.003939521529059256,0.291983660863893,0.022528957218391325,-0.31501897907171633,-0.013762444796877592,0.0029540420333491807,-0.011523689597024671,0.021159816718123534,1.2734375
0.006141697393763448,-0.004129686856377738,-0.014864986516794224,-0.017123118922191018,0.012896826113045807,0.00862818313076819,0.009166958263619195,0.6614290677872513,0.05032280309376537,-0.71151437732001,-0.030988806879176135,0.005844470415227386,-0.02536448703245702,0.04824207101989279,1.28125
0.0012664623068299424,-0.0006820766110524684,-0.0025818543048433725,-0.0031151553040587496,0.001520773576284602,0.00169458266509351,0.0017475731672079741,0.13257491667115387,0.010523771347351754,-0.14339696133828816,-0.006266395050331408,0.0017256733072225487,-0.005630512188860185,0.009175917237248511,1.2890625
-0.004065540138347286,0.003086014304898197,0.010880105573002759,0.012114785733647519,-0.010895449983511251,-0.0058939312978821545,-0.006389904303194922,-0.44483003238858093,-0.032915177117553256,0.4773814355820503,0.020705368014077227,-0.0027760120399769085,0.015956823232755234,-0.03332991301121804,1.296875
-0.0021297577635923867,0.0017157841030133766,0.0060106153064949965,0.006467414867711148,-0.006377869679784619,-0.0031357932193422336,-0.0034448917375766055,-0.23340784729778646,-0.01709543199395145,0.2540305330874536,0.010880544159528549,-0.0011538813057188025,0.008068245340342927,-0.017606626402395464,1.3046875
0.0019056840567369423,-0.0011293193683651027,-0.004177657562763458,-0.005108256936087273,0.0029842484401624908,0.002615243239967894,0.0027032929314092825,0.2042391097742064,0.015629528991002114,-0.211566593005366,-0.009474487128756976,0.0022136461564243462,-0.00829761461028476,0.014779984579216808,1.3125
0.0010692312752246962,-0.0005256868459577874,-0.0020749611397535036,-0.0026003629725903994,0.0009808948843892573,0.0014221348925560111,0.0014206606869561446,0.11109047327246187,0.008541670183514474,-0.11262109525721359,-0.0051390213191890195,0.0014854375232999143,-0.004837347050909803,0.00791818000260496,1.3203125
-0.002752328919379857,0.002174655166951512,0.007576598103716626,0.008433481321070326,-0.007906296241485119,-0.00402973691224994,-0.004403923355170616,-0.3053695678086519,-0.022600693701870886,0.32829745883964956,0.014165801668390071,-0.0016995823463840027,0.010731197169391275,-0.022884114408762018,1.328125
-0.005392874504614642,0.00402623581383492,0.014237948283518374,0.015934667364641976,-0.0139750082745531,-0.0077883893109789324,-0.008420290884087751,-0.5902411670505393,-0.043864213260680365,0.6308914366761124,0.02737955073098854,-0.003870723381435072,0.021429286594924067,-0.043881081075295064,1.3359375
-0.004213782329688839,0.0031847617212176593,0.011234904207027822,0.01242940982704559,-0.011176825500343079,-0.006092210307865079,-0.006622983907527674,-0.45934859066678174,-0.0341136218293563,0.49358334375457924,0.021342022952377998,-0.0028776802054610224,0.0165847874417649,-0.034082138367847015,1.34375
0.005187375284092258,-0.003455982741603131,-0.012503027311028942,-0.014550696048788465,0.010712524501137449,0.007299950811389508,0.007710703057653876,0.5602769381692908,0.04259545694772183,-0.5987502756431579,-0.02621415108797175,0.005021194573252807,-0.021568654666696874,0.041010389551770665,1.3515625
0.020652843308750227,-0.01438959261435877,-0.05150968861711463,-0.05883325685843691,0.04674712172585834,0.029303320834808442,0.03131695381159689,2.2348084520736506,0.16904316530021551,-2.401230873224726,-0.10455023015156037,0.01809361169338135,-0.08427282644729106,0.1639810586036575,1.359375
0.026774934582934427,-0.01873083846195422,-0.06695003561052362,-0.07637111469650959,0.06106507628428207,0.0380087928058164,0.04068586093314777,2.897669845741466,0.21940834189148786,-3.1188052936407065,-0.13569119667486695,0.02332849892569436,-0.10910320180679357,0.21248260647796832,1.3671875
0.013288941585096222,-0.009201129230567952,-0.032947984947245906,-0.037748313966729424,0.029656731375479556,0.018821233468236387,0.020115859675523377,1.4368005845209604,0.1093140218283785,-1.5486717350260486,-0.06743906067094659,0.011957262573248719,-0.05443855202954775,0.10505992982036534,1.375
-0.009303643358298447,0.006793057162438839,0.024044161869945357,0.027032803440473673,-0.023081249030965013,-0.013329669275334504,-0.014392725229859307,-1.0124407991966407,-0.07581145855884319,1.0884589503871969,0.04718395432061838,-0.0072020266420038176,0.03719830647202754,-0.0747897011953305,1.3828125
-0.026118466171238374,0.01871333743074122,0.06649574866626087,0.07531881683154248,-0.062379160905563315,-0.037268920684913706,-0.04009858640704474,-2.8373593084871906,-0.21404737234486834,3.052128021342949,0.13264452164535592,-0.02150720609443415,0.10547085942584886,-0.2086946248813951,1.390625
-0.033423638556396275,0.023890059198723897,0.08494731483294153,0.09631032317226132,-0.0794088342417021,-0.047666771964236854,-0.05125778354185889,-3.6303252495719764,-0.2741736035218064,3.90146550224784,0.16975344764391043,-0.02770656667092731,0.13516907318475124,-0.26688659429366074,1.3984375
-0.027842542483491807,0.019924946007246765,0.07086076538160876,0.08029031904358847,-0.06631775544851572,-0.039715184817597234,-0.042708678747061406,-3.0236188715429897,-0.22812985744136202,3.246378420546727,0.1413230560078616,-0.022931333964723924,0.11251386682943575,-0.22247484364374764,1.40625
-0.005521508886117667,0.004113946378110777,0.014555858129184153,0.016287251515993403,-0.014256723397543799,-0.007955896411924913,-0.0086112935538914,-0.6020431864780093,-0.044776017674277115,0.6453795895612296,0.028032298309956055,-0.003996067909934911,0.021902388364540507,-0.04485016382276344,1.4140625
0.01846690665101811,-0.012856927935274506,-0.04593500364444233,-0.052458033075534566,0.04159691194511115,0.026160868511784664,0.02799803148287352,1.997885578579626,0.15175233245319206,-2.1446542719485606,-0.0935337425913982,0.01629105286634044,-0.07543554858081565,0.14608325185498844,1.421875
0.021146355560149765,-0.014738338526927805,-0.05269679135086042,-0.060141083889531086,0.047777976304191845,0.029972936215966008,0.03206791655674445,2.2867517623165545,0.173268101605402,-2.452898343764618,-0.10698942544459134,0.018515987907043643,-0.08628211549264576,0.16756176947833107,1.4296875
0.008734210032343946,-0.005952373896591836,-0.021414832623952763,-0.024605153461245498,0.018857822587300597,0.012332143352405737,0.013117051385318518,0.9413523282755335,0.07136325922749676,-1.0079503023879324,-0.04404887320643728,0.007999505562588424,-0.03591458409675099,0.0689705345068349,1.4375
0.006949469369827333,-0.004703110807026189,-0.016914287676718973,-0.019513617081264138,0.01476638652927844,0.009798931911897074,0.01040303124440153,0.749762647863472,0.057039773805157394,-0.8044159826707901,-0.035123392765506536,0.006522689678240615,-0.028684403913452356,0.054801015374867326,1.4453125
0.014651039186488763,-0.010166090158253633,-0.036319355768444785,-0.0415710457558741,0.03278206760782959,0.02074213193835804,0.022176120886160965,1.5859232886981058,0.12047730072393505,-1.7049195814421263,-0.07427579683102604,0.013082805298301838,-0.05993857177389323,0.11597268647675066,1.453125
0.009838462390861046,-0.006757741897057225,-0.024192149899067653,-0.027768780545508034,0.021581729396621147,0.013893662438198232,0.014850658694300458,1.063762477997569,0.08093485891601514,-1.1436075979418021,-0.04984840370461418,0.009012900928784233,-0.04042934323762968,0.07758524507979597,1.4609375
-0.004152181606865075,0.003156680531698994,0.011057762372147785,0.012296532591596424,-0.011060693318903188,-0.005993213446709875,-0.006503621787815764,-0.4538361637387952,-0.0340495578727464,0.4897226826616492,0.02119356098001977,-0.002871828200412536,0.016303215697330724,-0.03369464506432513,1.46875
-0.007231758175798959,0.005344517503928286,0.018827070593308175,0.02107985575519383,-0.018277235497776205,-0.010376200196194996,-0.011243910436251786,-0.7879498386359935,-0.059367498210349354,0.8504543152099849,0.03685653620969729,-0.005522186598422625,0.02880235859702473,-0.05807707520763874,1.4765625
-0.005782895557431316,0.004315162429311051,0.015220939230976803,0.01692424690943318,-0.014901261963941878,-0.008347515742243211,-0.009079157302803887,-0.631089769222679,-0.04728676328392924,0.6797224540126027,0.029453991997027824,-0.0042895950147791625,0.022983203254103277,-0.046541586009893283,1.484375
-0.01530570554583386,0.011046960693132612,0.03925314240303474,0.044257750957636885,-0.03707627323940032,-0.02190991548895509,-0.023606354220728307,-1.6643929252696308,-0.1252032557305362,1.7861536631187198,0.07767035185123451,-0.012304778270446882,0.06165833566844345,-0.12250635240675492,1.4921875
-0.019432285317113916,0.013967267086857176,0.04959458659177292,0.05612033447961978,-0.04669235002425013,-0.027741783899041104,-0.029842715924082774,-2.1127280652691063,-0.1591296608014059,2.266744683495982,0.09859606485654245,-0.015768672415053978,0.07835546205617729,-0.15553531293983983,1.5
0.00022499234995635486,5.9452820433822976e-05,-6.376065401896472e-05,-0.00023652325491103546,-0.0008824085628669337,0.0002759412313537712,0.00020607098000057457,0.01861561542207411,0.0018839199410296493,-0.021784599138066355,-0.0010578871140631979,0.0008642287333550737,-0.0014743493459632405,0.0009330059030281445,1.5078125
0.020596405220968412,-0.014359873493918644,-0.05144085941811766,-0.05867491218084161,0.04661220624119533,0.02926077856784223,0.031280194624388885,2.228650109084468,0.168957227388673,-2.3951547790516385,-0.1043879110576781,0.018094727403431436,-0.08413773816855641,0.1632819320862698,1.515625
0.015654978180549745,-0.01086815155876648,-0.03889589444442135,-0.04451814510597685,0.035104823785977055,0.022187587267698306,0.02368498695732122,1.6943676959332763,0.1285832056548969,-1.8204607665521773,-0.079353130196288,0.01390234246836193,-0.06402981741919532,0.12413962481688529,1.5234375
0.0026455579161232304,-0.0016581848722370582,-0.006011876450673811,-0.007144984927089601,0.004750875747949917,0.0036432611684718464,0.0037977341772585218,0.2839305613003689,0.021857920417908613,-0.30391172240054354,-0.013299996605600913,0.002869676260654905,-0.01117654458975912,0.0205674471304743,1.53125
0.002290690574192132,-0.0013973216411617174,-0.00510131002314915,-0.006008754605725345,0.0038742827785957228,0.003131599801174803,0.0032615631048861548,0.24376075971310712,0.018771205927562477,-0.2608449511092718,-0.011382607004483748,0.0025526465534414355,-0.009692898112212953,0.01748241111878925,1.5390625
-0.0008036438245890369,0.0007943204955389974,0.0027001617495796756,0.0029017027167893747,-0.0033517246126343473,-0.0012714835375587435,-0.001443341925502123,-0.09349441711678737,-0.006527040998211734,0.09918019982991302,0.004305493732240355,-4.815804946912213e-05,0.002863112251783712,-0.007462597189128469,1.546875
-0.015771523111976965,0.011377942243379392,0.040458648698120485,0.04572479992279653,-0.03821765610134008,-0.022570277863067242,-0.024278025782929584,-1.7159363442404036,-0.12896173377468365,1.8418291685337038,0.0801053025304603,-0.012686091347090664,0.06353481160725456,-0.12665378690490223,1.5546875
-0.018058102257015953,0.01299118253022617,0.046213187794481955,0.05215460496913779,-0.04353619337427537,-0.02581097046973982,-0.027764463992002247,-1.9616247048126123,-0.14768423110083292,2.110305054762803,0.09167168793718303,-0.014632022077078475,0.07272388495557823,-0.14452541944753458,1.5625
-0.00018156224329113146,0.0003489322105307881,0.0010852248913766516,0.0008598892228688185,-0.0018835496261611316,-0.000351121347154558,-0.00047641404891378566,-0.022603431124029075,-0.0014823951071088572,0.03156329685163293,0.001103090802362708,0.00045271290985620364,0.00015805115381344232,-0.001900935776637324,1.5703125
0.007889184858898638,-0.005352342857326125,-0.019292368504697874,-0.022229696668089632,0.016923863836282277,0.0111406405995699,0.011848739863580439,0.8502460439157568,0.06443616382726428,-0.9087630217113816,-0.0397852898359695,0.007273364683159484,-0.03253328725302751,0.062224150713459145,1.578125
-0.004484623619790693,0.0033990091805946973,0.011927686643453506,0.013294632257703734,-0.011880029386464291,-0.00647800203827178,-0.007027257497400224,-0.4933751986540127,-0.03677434885784546,0.5277478367657492,0.022858643332546287,-0.0031456405914740615,0.017735524107104616,-0.03663595773310457,1.5859375
-0.009520643125137316,0.006946547475977961,0.0246286903575379,0.02771596890933108,-0.02356672073853737,-0.01365121312239412,-0.014709504968618697,-1.0377963365347354,-0.07767451500326837,1.110663055790185,0.04827496964001108,-0.007356165206245408,0.03815623086024443,-0.07672992208966069,1.59375
0.00464646940385319,-0.003084744064413175,-0.011133520032038,-0.012942830166834424,0.009462527818300833,0.006515492189326065,0.006900828301845815,0.5014460545338212,0.03846069581586952,-0.538025435399295,-0.023542128025583066,0.004614020471453054,-0.019378008256034324,0.036450842801753806,1.6015625
0.01698044397452212,-0.011801889742062456,-0.04227054015966232,-0.048300542568485545,0.03817771150432201,0.02407778609670408,0.02570656788219891,1.8391921796183919,0.13919625204894956,-1.9718960404856682,-0.08596324630593453,0.014991968500808844,-0.06942663982220287,0.1349031975675312,1.609375
0.017022558310873525,-0.011823655518803062,-0.04239158297587647,-0.04838265918188884,0.03827212463908488,0.024147422220612745,0.02577360762263474,1.8418498017010032,0.13934010289910623,-1.978580084934391,-0.08614444935772517,0.01501586544824224,-0.06955962779557627,0.13510079018875915,1.6171875
0.014656673302626934,-0.010159088888748622,-0.03643034489846341,-0.041589524161751115,0.032807883232595966,0.020786177360481748,0.022189505760014168,1.5849427174203554,0.12022813750408075,-1.707481725116109,-0.074261176272261,0.013065693744456179,-0.05995500873489977,0.11602497194601746,1.625
0.010222270597176475,-0.00703327689320413,-0.02522067055204631,-0.028908210428508684,0.022500433766580227,0.014464695372085667,0.015432478581684277,1.1056882363763016,0.08428517147772506,-1.1910759047271513,-0.051872379069116493,0.009348567670896044,-0.041998566008997124,0.08066250562005461,1.6328125
-0.0027180501090956492,0.0021303930319454003,0.007475536528102354,0.008153548125061824,-0.007712249621994797,-0.003975466451657755,-0.004346075691993792,-0.2971949270401307,-0.021822258382042253,0.3216348135990473,0.013805317476711597,-0.0016362120958752138,0.01049031212867163,-0.022273354840790825,1.640625
-0.015938504892029054,0.01150532975144023,0.04085570004250958,0.04603615445209358,-0.03860440405094867,-0.022801136156737685,-0.02455852541482745,-1.7327401706915535,-0.13066163397941924,1.8663315631496518,0.08099019236646368,-0.012882689135274464,0.0641519031965517,-0.12743433588963543,1.6484375
-0.018563819295512565,0.013373069310856371,0.04746761783563652,0.05357635571501099,-0.04475463230485679,-0.02652706224725127,-0.028568464410726305,-2.0190808477678504,-0.15247591512381653,2.1721931769076965,0.09437764101885963,-0.015122185496360673,0.07481957264576472,-0.14837095679389056,1.65625
-0.013870260945238095,0.010043794725446776,0.03562777036761929,0.04018671385422629,-0.033802130363429175,-0.019842453858361267,-0.021384734948990528,-1.5098835644892037,-0.11372532003849184,1.6228242521853948,0.07053243679545165,-0.011120414634670929,0.05577991050531826,-0.11124928374182375,1.6640625
-0.007210695548226995,0.005317707940079843,0.018856002150633076,0.02118443254743402,-0.018257494109884292,-0.010375471539390177,-0.011200977609857192,-0.7870199538130027,-0.058684455422753225,0.8445952760664127,0.036673677203700884,-0.005440006771717918,0.02878433601711762,-0.05851338524349904,1.671875
0.0008755331653448221,-0.00040789040736912243,-0.0015405698872437113,-0.0019523439331135142,0.000603677187391132,0.0011323026451077192,0.0011542679463346706,0.08941715458302282,0.00758155078340929,-0.09848955006936566,-0.004357709316466206,0.00142648483610824,-0.003980508965803561,0.005843148758204667,1.6796875
0.0037997525650026787,-0.00246712613983948,-0.008949118446107445,-0.010345137077183215,0.007399493068078648,0.005310460738370147,0.005614171872561371,0.4053739110002991,0.031115678839588372,-0.4379680214369648,-0.019111082658184408,0.0038773614008542315,-0.015817345870782894,0.02932709212992162,1.6875
-0.0034175097635414475,0.0026503003305203515,0.009251823717305587,0.010322033484628545,-0.009472307391480682,-0.004959220543332951,-0.00543473408609527,-0.377559209941274,-0.02823375974882769,0.40519312243112765,0.01756932120474019,-0.0022802550678491127,0.013460714929720532,-0.02800589190264853,1.6953125
-0.008538318580731653,0.006267156065075526,0.02218980010580149,0.024959371709800275,-0.021407307545660486,-0.012266127755939467,-0.01328080155190618,-0.9313798102794417,-0.06988442697286001,1.0015271739963163,0.043483929251611333,-0.006619893299617226,0.03420072771305666,-0.06874346115491242,1.703125
0.0016673735725607577,-0.0009744526708745908,-0.003582309635952407,-0.004381561503765994,0.002479109719271911,0.0022573953094876392,0.002323073014436493,0.1777260363701455,0.014103209407373567,-0.1908856414127917,-0.00842117228332706,0.00207449439647713,-0.007272293135291738,0.012648824043174172,1.7109375
0.0183968316970322,-0.012820211234453453,-0.04585727519905862,-0.052409320974929174,0.04157150687360804,0.026096517726581222,0.027921498195121002,1.9931450628889094,0.15111089097774622,-2.141328389721677,-0.09330134843421635,0.01627037414496905,-0.07521411785924477,0.14601687545396294,1.71875
0.023731651226611916,-0.01658159704421255,-0.05934428903343221,-0.06770152865657758,0.05399372622354005,0.03370893038534738,0.036083128270707955,2.571162921660485,0.19452203027978088,-2.7593788603607865,-0.12023654042621353,0.020740818720083674,-0.09688446053686191,0.18849764959533524,1.7265625
0.014090471514377622,-0.009748184685780209,-0.03498311007624925,-0.040043591067516385,0.031453832995793754,0.01997264629879294,0.02132398848406669,1.5252656135124092,0.11546972213180201,-1.6328953811085531,-0.0712717905485566,0.012521927774011192,-0.05775401493798974,0.11169791797874634,1.734375
-0.001918958637760885,0.0015711671662644612,0.005442648102124493,0.005833192904864676,-0.005864631733283335,-0.0028314857422897673,-0.0031444610879947958,-0.2098896533023813,-0.015536048458343344,0.23023365587637465,0.009815092457556329,-0.0010117477274087373,0.007223943165935178,-0.015660455444254553,1.7421875
-0.014279756172506387,0.010307087581562688,0.036626667193581104,0.041262884327451343,-0.034635202325736775,-0.020419502308651992,-0.021993859577817437,-1.5500195824176963,-0.1167948118175291,1.6663780006055464,0.0723955655419234,-0.01141665769109922,0.057404559018626414,-0.11402596724871968,1.75
-0.015014282752106726,0.010837034449026636,0.038477743151218866,0.043411489362791045,-0.03636624955795145,-0.021455580555320344,-0.023098066288815097,-1.632074583347925,-0.12298666840611343,1.7519524380194313,0.07618053919885096,-0.012031097197097456,0.06042262057268541,-0.12012858235303077,1.7578125
-0.004660530733487913,0.0035288102742536114,0.012371292317038875,0.013755468182538593,-0.012302414444900354,-0.006728250102205603,-0.007316958616525046,-0.5125293723200526,-0.03821047708931177,0.5484850563485025,0.023789074115640598,-0.0033061144380723776,0.018430876234437267,-0.03802966483593074,1.765625
0.006302420150400962,-0.004228092525660043,-0.01527824169714853,-0.01768701892846808,0.013223302564814143,0.008860728019273637,0.009392151964395959,0.6757425552563429,0.05176670113139124,-0.7280996938944072,-0.03179966740418029,0.005958724593520636,-0.026066071889603876,0.049201070427867324,1.7734375
0.010325348056162548,-0.007087322673659427,-0.025427142477701597,-0.029178189365901837,0.022618200073924698,0.014586098722936305,0.015542045326903378,1.113866057230412,0.08481891839215143,-1.1982818296082949,-0.052237170585232764,0.009379908263821863,-0.04238557952732429,0.08138281927943049,1.78125
0.007257762089031119,-0.0049185901560006955,-0.017670988777473428,-0.020249402597633113,0.015454770964207746,0.010224944565202806,0.0108752890841042,0.7819614234703179,0.059541299465293976,-0.8409407503022555,-0.03662916045977225,0.0067830233494804324,-0.029873846616016764,0.05696677675872631,1.7890625
-0.005502748950557283,0.004121173514062516,0.014553301610417,0.01643491371022831,-0.014337643765826497,-0.007942474668065844,-0.008610814254556428,-0.6033434318718277,-0.04517128281050913,0.6469894793300865,0.028152183574431038,-0.004030995607790351,0.021974207432371638,-0.044839150483458844,1.796875
-0.02586167224609871,0.018528334348898036,0.06592700091295733,0.07475412388897294,-0.061796066093736175,-0.036927242457670935,-0.03969775853788993,-2.8116935097397335,-0.21186404029808265,3.0184584409845256,0.13133726511317667,-0.021246797172756137,0.10456734111845428,-0.2070600710152076,1.8046875
-0.0319821010351442,0.02284422916683747,0.08133908009593611,0.09215304887335553,-0.07599398493149244,-0.045632813737242504,-0.049028911530469794,-3.47265416157372,-0.2617019537673228,3.7300605211736126,0.16223915711475917,-0.026395367704066794,0.12929956924987365,-0.2555631004810199,1.8125
-0.006043423410705103,0.004479236303544111,0.01585065811935324,0.01767125977443954,-0.01546986663660022,-0.0086992680191474,-0.009420756064859407,-0.6565312082558709,-0.04908507413412701,0.7092654357558605,0.030675771681695406,-0.0044502535456123005,0.02395981798824495,-0.04858283498920691,1.8203125
0.02948009756810956,-0.020649069135918425,-0.0738022424263451,-0.08419738138869726,0.06733126637249028,0.041870609360398034,0.04480342528450402,3.1953575393888114,0.24167320137934528,-3.426294579451721,-0.14935867072366132,0.02557156021970763,-0.12018785575968861,0.23451227668203695,1.828125
0.035318238978758146,-0.024767989972982914,-0.08853253499694566,-0.10089848997465477,0.08092120723027467,0.05018254667803544,0.05372032497214105,3.8254457501417685,0.28921098628109204,-4.106697565941943,-0.1789077431477,0.03050411881273549,-0.1438341727249184,0.2808126118852987,1.8359375
0.011879640350404291,-0.008187406315170946,-0.029389156001223462,-0.0336692987120315,0.02631639828997053,0.0168250086721449,0.017966010143788385,1.2826862372526844,0.09732700497631644,-1.380491004217954,-0.060154521140187094,0.010716438702893053,-0.04871507294700651,0.09384489710706088,1.84375
-0.005596159209970582,0.0041647815435172444,0.014706336120707271,0.016419661991889854,-0.014380368462891736,-0.008050753989744676,-0.008701440280677025,-0.6104851579454826,-0.0454582349608579,0.6529586491415319,0.028342069407104487,-0.00403640512267073,0.022166698256678566,-0.045374762452343065,1.8515625
-0.004149719871762442,0.0031423858881035726,0.011063619051471673,0.012233463121116195,-0.011037604811985504,-0.006004360782539606,-0.006525236469726609,-0.4523417355104819,-0.03359088164827405,0.4877747625327536,0.02104924133416,-0.002846282788356931,0.016277748270947707,-0.033627169939090526,1.859375
-0.003813962195870242,0.0029212173257735135,0.01022397438418902,0.011262244470281952,-0.010322118421156802,-0.005533027689020356,-0.006048833932686556,-0.4169840636170693,-0.03128190149950609,0.45284001328595413,0.01950143679810288,-0.002626015744672594,0.014932489870115504,-0.030761437144950696,1.8671875
-0.012478738144649771,0.009059741577430527,0.032080074914234015,0.0361538114459701,-0.03052847133098238,-0.017853902654619825,-0.01926925603212571,-1.357570229244219,-0.10252630056772534,1.4609158840189427,0.06350001660340489,-0.00996942097015048,0.05012162482680793,-0.09983641064216663,1.875
-0.012933318249532717,0.009369394147551965,0.03322124592673631,0.03753161967114389,-0.031537659380679636,-0.01849113808655378,-0.019931122401151247,-1.4063030647102834,-0.10591955501673224,1.5090061948585631,0.06571342765275551,-0.010302452351028417,0.05199005100219628,-0.10371589659803279,1.8828125
2.3858744127045997e-05,0.00018850746810899726,0.0005533014347267503,0.0004225665879027412,-0.0013200343502085782,-6.342988610518247e-05,-0.0001443823516101679,-0.0009075451208267502,0.0006860706997794257,-0.0018167852473011347,-8.125237653225263e-05,0.0007054992772234142,-0.0005668385609221425,-0.0007281896254817995,1.890625
0.00794002663437379,-0.005407313103605826,-0.019379598737530132,-0.022292729916733724,0.017073847060276436,0.011184074412152235,0.011916781791917368,0.8563155195965655,0.06547693919525377,-0.9202288860968976,-0.04018454358560271,0.007385322816148886,-0.03268248417126989,0.06233139217025598,1.8984375
0.0035458957711380916,-0.0022808454323995013,-0.008281377146492368,-0.009729969670240719,0.006760704706467036,0.004932453474252771,0.005188274142088585,0.3780564049664186,0.029008938452482806,-0.40428415379074084,-0.01778540180996885,0.003611514450478214,-0.014861171377008438,0.027458805654047246,1.90625
0.0030425964537491032,-0.0019156157366244013,-0.007027345161706803,-0.008276484084971338,0.005563085686138855,0.004224678698304615,0.004413364128355461,0.32221043452589515,0.024659926162857396,-0.3453185164918814,-0.01516900123994836,0.0031613866999542573,-0.01280546124724223,0.02343174631863857,1.9140625
0.011545772445132945,-0.007941019277530657,-0.02848522871061812,-0.03260308507298505,0.025412430870487536,0.01631490879946412,0.0173941049588514,1.2441560318956497,0.0946082948969601,-1.3387222213290526,-0.05834143682199555,0.01039631934154441,-0.04726212599006007,0.09098998798098483,1.921875
0.009743689243922497,-0.006683105778843946,-0.023937952679783974,-0.027415431138796575,0.021277479954595398,0.013739380160976814,0.014660425920745249,1.0504980866552514,0.08021814508447128,-1.1319554667341476,-0.049325796223284986,0.008935878324965504,-0.039937728092538156,0.07661561318446765,1.9296875
-0.008322646999107484,0.006093255059065758,0.02160769812680159,0.024328140785465788,-0.020772307913109227,-0.011947073199759179,-0.012880639868898749,-0.905860305179963,-0.06782333014357352,0.9719685590661681,0.04221744747571893,-0.0063341047024029025,0.033298045686982594,-0.06703190202880234,1.9375
-0.01828863370785024,0.013154359398386236,0.0467003468055678,0.05282066528762896,-0.04399302855646809,-0.02609097206245677,-0.028073294535349264,-1.9852953667176714,-0.1498105703389707,2.13536693458033,0.09280366594565227,-0.014817283166224554,0.0736499814081344,-0.14614066118620356,1.9453125
-0.007684039816532557,0.005659785654419806,0.01994496259966339,0.02237882306639829,-0.019303693762768265,-0.010997786692493558,-0.011911753404599294,-0.8357091226452741,-0.06306312390145391,0.9022109655568219,0.039103119080782525,-0.005898097055031884,0.03061029956049601,-0.06159235137380943,1.953125
0.0003821567468593826,-5.5265088874129634e-05,-0.00036031301647422684,-0.0007375289445645656,-0.0005042900535227215,0.0004475850033768387,0.0003642042731843788,0.03913735306125127,0.0032786691150332257,-0.039073711944852,-0.0018344203624087126,0.0009378365381208152,-0.0020765157107505445,0.0026262437038108042,1.9609375
-0.008501084640788845,0.006218295823801648,0.022064179625657807,0.024749366636833615,-0.021181919829951996,-0.012211194556857546,-0.013190334110380121,-0.923791551702669,-0.06926078598923231,0.9926072004250398,0.04311883159717579,-0.006525881278651382,0.033980607692307305,-0.06820729435715901,1.96875
-0.010761657338374956,0.007823946753745422,0.027729080315025686,0.031239263407658528,-0.026459050412049785,-0.015411163138455702,-0.016607570808771583,-1.1707072251412785,-0.0879293561429821,1.2567458792307873,0.054606602061130306,-0.008424464473654468,0.043130361484246024,-0.08639769253319389,1.9765625
0.009864542376746662,-0.0067528130842837136,-0.024322405598085416,-0.027891043341088797,0.021563890989255707,0.013956358685699818,0.014882802353585765,1.063354352905155,0.08075581601449212,-1.1418813142590636,-0.049840954208658764,0.008984523931711149,-0.04056563309837074,0.07771534223328594,1.984375
0.028442383098082932,-0.019895715836113242,-0.07114190938634052,-0.08115432780788956,0.06483980685250779,0.04038430790477345,0.04321415980776537,3.0783419859037005,0.232945272003886,-3.3047110258387393,-0.14397993382178262,0.024669937006069877,-0.11592628880720318,0.22575755762634833,1.9921875
0.022597172547176563,-0.015775941005695706,-0.056346664456692515,-0.06439798044588624,0.051246046397944806,0.03205381237733742,0.03428090108962087,2.447260737953677,0.18528340800409898,-2.626815836363455,-0.11443439396154632,0.019747462723446674,-0.09219670389788774,0.1794222087993397,2.0
0.008164563724619264,-0.005571912460008959,-0.019947916054311204,-0.022987381569701374,0.01762940125626356,0.011516352112283395,0.012267576801071337,0.8824372353490608,0.06712599780053438,-0.9477454387376385,-0.04133950603432221,0.007574630921141503,-0.03361508733552129,0.06446150864398982,2.0078125
0.00021978909287787186,6.25008124610254e-05,6.247360376840983e-05,-0.00013262379175756994,-0.0009184764447464155,0.00020714940297312975,0.00014339532790121653,0.01772568909351736,0.001912671743034287,-0.020987311844146813,-0.0010076870399034097,0.0008476558752701541,-0.0013226082711143596,0.0008688057913373704,2.015625
-0.014053593688433364,0.01017630184654947,0.036077888110773615,0.040834048325891624,-0.034226838183448544,-0.020121491752873047,-0.021671563481271507,-1.532000972196995,-0.1150656645574209,1.6430420909869237,0.0714408610760506,-0.011264374313676318,0.05662998134750355,-0.11305417622952355,2.0234375
-0.03316237724605226,0.023693074633264165,0.08430675019775716,0.0955517251428065,-0.0787575033792567,-0.047318727626131186,-0.05085691632878992,-3.601985741750124,-0.271466574996277,3.868216791808251,0.16829477155609138,-0.02744402315341877,0.13410820876754484,-0.26509747608462064,2.03125
-0.025618114776674434,0.018340892089711673,0.06525859166369444,0.0738044713234692,-0.06113227152659608,-0.03655868724220023,-0.03932117903265398,-2.7805664520785043,-0.20957183463156123,2.9890330842163215,0.12996025550453874,-0.02104315389471907,0.10339280125515578,-0.20462901055034477,2.0390625
0.01085793859626243,-0.007472533518695687,-0.026795164797139243,-0.030791948466706725,0.02390275882496792,0.015373466397497464,0.016383081029842612,1.175358501457034,0.08910044792433856,-1.2585908100951617,-0.05497056743353376,0.009828876060031624,-0.044631968229646934,0.08607842669865634,2.046875
0.028328004137869508,-0.019826821186310434,-0.07086881308583057,-0.08077884563421792,0.0646032587553578,0.04023012394446512,0.04305269664641835,3.0675488338521175,0.23201925885728117,-3.293413099633793,-0.14347177515512322,0.02460904711065138,-0.11543553569751948,0.22504677118015937,2.0546875
0.0019200452666781555,-0.0011390133303515084,-0.004227064395262905,-0.0049908893746437024,0.003042820634355972,0.002630830301645872,0.002737684592505607,0.20223980284716453,0.015724595570233042,-0.21976064900480616,-0.009589001343200228,0.002284255178257545,-0.008217574635451938,0.01444697988572609,2.0625
-0.026194469780152052,0.018747061283386844,0.06669947926298353,0.07557129028995731,-0.06246452932346254,-0.037383292247475906,-0.040175682074957225,-2.845585144504822,-0.21436124638151874,3.053419821993366,0.13286340980464661,-0.021475337794368502,0.10583630191431859,-0.20947596104883393,2.0703125
-0.012900698019211804,0.009337914062855758,0.03314088737243833,0.03736784956374901,-0.03146579673892981,-0.018455935266410112,-0.019889851983185627,-1.402338177454277,-0.10540337307892007,1.5070283748374593,0.06544810710346105,-0.010238375860046181,0.05184433249192764,-0.10332384820281786,2.078125
0.021014107551822724,-0.01465218299843734,-0.05244188646009723,-0.059905153498162195,0.047567330249492744,0.02981955672488034,0.03187026135279684,2.275345102829978,0.17218258942925455,-2.440318353022707,-0.1064117897158536,0.018414863602087914,-0.08579118009874614,0.16699782308329386,2.0859375
0.030355550274759023,-0.021258106765745598,-0.07602501646817722,-0.08667181765102215,0.06934093211619877,0.04312473999177045,0.046149195905617356,3.2871900711974176,0.2485291223625996,-3.5290578707117595,-0.15373979984211383,0.02631057928419691,-0.12371286807258296,0.24129056151834913,2.09375
0.01304518428434857,-0.009016490750062875,-0.03233788885346444,-0.03700566840007528,0.02902986390579274,0.018488596593200336,0.019757212277831088,1.4099745499776182,0.1069257536649216,-1.5161656162004904,-0.06605583751829631,0.011699553355681198,-0.053488372474281995,0.10312424192018343,2.1015625
-0.0010823235780471042,0.0009766872018203627,0.0033764472969839,0.003547490512842086,-0.003896738636630872,-0.001648898905039449,-0.0018273786185022903,-0.12131937069992844,-0.00849627589596569,0.12893027801768558,0.005541041767793991,-0.0002462887060602215,0.00387377321382743,-0.00958560056132247,2.109375
-0.003591543577274439,0.002763682446297242,0.009777730242096825,0.010773035344052103,-0.009817532707341032,-0.005259129830714123,-0.0057260624031372975,-0.3938155002144037,-0.029113786170882765,0.4251529751170592,0.018375835556593598,-0.0024222257380492563,0.014126501962210838,-0.0295038832124233,2.1171875
-0.009904650083227724,0.007243360877067711,0.025680239558676255,0.028849244880964808,-0.024589978094974294,-0.01423781332737033,-0.015394260204963029,-1.0794787009864555,-0.08119271577972619,1.16319795637635,0.050484319608735465,-0.007812737130967027,0.039759248514592664,-0.07957308990447223,2.125
-0.020621239625606108,0.014822549853960889,0.0526199314486431,0.05952807498453393,-0.049522830921045286,-0.02944068909924161,-0.031707643586702985,-2.241407049640038,-0.16910382574623045,2.4086356439929433,0.10475377740073907,-0.01686155819831535,0.0831975367855273,-0.1648209815482797,2.1328125
-0.018287376135125568,0.013154614927346498,0.046681526604025574,0.052827413454107165,-0.04399275867030921,-0.026089809368704895,-0.02808680165920063,-1.9869774918419802,-0.14965002949634615,2.132119043576556,0.09276569243080258,-0.014821658193354913,0.07369465655137773,-0.14633014508093817,2.140625
-0.001970438453543933,0.001595030540678873,0.005541609115124666,0.006053931607952077,-0.005938964847402293,-0.002880881746192126,-0.0031653100598362316,-0.21655411232276145,-0.015596211626678524,0.2308502545466395,0.009950244607015784,-0.0009669276808905705,0.007473228006172955,-0.01646657144389147,2.1484375
0.008274426107375795,-0.005655790923828995,-0.02028319995494479,-0.023333467663387824,0.017886046714374503,0.011687725533163232,0.012462964297593259,0.8946023073452805,0.06829946043988899,-0.9592134329913157,-0.04195538700516711,0.007697441291685003,-0.03413723248848492,0.06522263418527811,2.15625
0.006137921585905934,-0.004132061168182447,-0.014895303174292123,-0.017202249300096936,0.012843429798199144,0.008655575064545994,0.009191387451922522,0.6621810291361461,0.050390557706650976,-0.7073312151172748,-0.030995949561172815,0.0058412859211149845,-0.02548956599786294,0.04831454848013659,2.1640625
0.00662470808191553,-0.004459886364570562,-0.01608545040630189,-0.018535063924731324,0.013944828425186528,0.009337871190408199,0.009908556302181052,0.712975004580949,0.05405038285129315,-0.7635183812929256,-0.03334054589567744,0.006210289336281304,-0.027384760615399555,0.05208562905776236,2.171875
0.012861473520298827,-0.008869417514957706,-0.031754004883492004,-0.03637274346821495,0.028492849099633243,0.01817439641587279,0.01939495294287212,1.3874649029891768,0.10522033609289165,-1.491696171085508,-0.06497220658278419,0.011505568113159198,-0.05257381443143159,0.10158531271342378,2.1796875
0.009426460004374738,-0.006452262083893653,-0.023093960505161753,-0.026561831128583777,0.020546549786039828,0.01326958275906442,0.014154853162305735,1.0154777743699261,0.07738890687930186,-1.0943295611511012,-0.04769957866584888,0.008662036333655355,-0.03862205236085466,0.07424202872923064,2.1875
-0.004326146224725601,0.00327028920590276,0.011517918773802772,0.012822416629696416,-0.011450046240972756,-0.0062712469980195735,-0.006798544363601741,-0.47391562765569906,-0.03518674897144629,0.5063056458800299,0.021950832225530355,-0.0029558913390730188,0.017099160691562688,-0.03517415794198579,2.1953125
-0.010236147628114983,0.007462970089856028,0.02638397956364215,0.029778091048664173,-0.02523273255163237,-0.01465111838235664,-0.01580510826598434,-1.1140392062386986,-0.08384472860478766,1.1966599876347803,0.052016948312892344,-0.008019023108502004,0.041030724393675486,-0.08220617106530717,2.203125
-0.005707565310803173,0.004269130095660871,0.015002141078990271,0.016800071448677106,-0.014720316031367331,-0.00821318543198824,-0.008923106371078201,-0.6228972419773546,-0.04690457631835809,0.6716025033609738,0.029158452460100726,-0.004248930817208649,0.02266848383140368,-0.04607827292610514,2.2109375
-0.0045597745627501685,0.0034454122006630224,0.012138589207059437,0.013466713134344279,-0.012040530567624714,-0.0065948003601612355,-0.007191910331521396,-0.49705313341720625,-0.03726504053286932,0.5366838479522813,0.023260040193961037,-0.003257171574672561,0.018006481631442917,-0.03678396594667219,2.21875
-0.004839087946482996,0.003625256449846386,0.012792538444277178,0.014240796254688123,-0.012647870227541939,-0.0069798013254121286,-0.007589537624592815,-0.526291386490412,-0.03923056393470168,0.5660468029241146,0.024535899438612972,-0.003429335787647897,0.0190958719341524,-0.03900400935709006,2.2265625
0.0030950028247126687,-0.0019848014818735493,-0.00728879200699147,-0.008501791926421481,0.005845422871678404,0.004334825726381615,0.0045625739217844,0.331999430849662,0.02571541749873719,-0.357653365265569,-0.015688297869557503,0.003301881767764585,-0.013130226751236058,0.023940716068644726,2.234375
0.007325169131991474,-0.004959070487186495,-0.017947049610775586,-0.020659877433021938,0.015648633500743966,0.01035605425593251,0.011020647272626308,0.7876947327469328,0.060071799319262216,-0.8461604506611599,-0.037029474703655946,0.006843724192871746,-0.030301279269748682,0.05745679978506177,2.2421875
-0.0020850204259282505,0.0017048411362799516,0.005872995046957091,0.006290989112479949,-0.006330859482397385,-0.0030565315048247128,-0.003377698899737006,-0.23246192294728746,-0.017080798878315404,0.2521017350297574,0.010730372558838647,-0.0011482128123087825,0.007893774981956952,-0.017391460409707113,2.25
-0.002454797311978473,0.0019552343397988897,0.006874979210381422,0.007443819923852831,-0.007193655549140193,-0.0036043641656659593,-0.003968050618120939,-0.27015227755484866,-0.019911794912375748,0.29289563948909975,0.012592501637252142,-0.0014501719583438794,0.009455360730457146,-0.020234409014411706,2.2578125
0.019403720109912467,-0.013517373149025319,-0.04825419180551006,-0.05505762207508733,0.04377127816214458,0.027492281500949428,0.029401401624138183,2.100275613774398,0.15919845343911154,-2.2558270036498813,-0.09821368523275766,0.017068002935206758,-0.07913713511215972,0.15373311003186885,2.265625
0.027746571270015574,-0.019413742084738145,-0.0693308248424067,-0.07892969417153237,0.06322965650082152,0.03936793757333675,0.04215451983465495,3.0031243948881374,0.22734179345759703,-3.2274183193862473,-0.1404745903957751,0.024129069683313513,-0.1129544139510609,0.22003938373083848,2.2734375
-0.004305987412612914,0.003269868454922238,0.011489475913875629,0.0128459123155759,-0.011462312697502367,-0.006233545258351897,-0.0067615058238167285,-0.47218918848953917,-0.03529740841603049,0.507239357092005,0.022009384500542985,-0.0030055023327984136,0.017012627985325945,-0.03514402939468849,2.28125
-0.0377416754210269,0.026920615663447937,0.09582257982231403,0.10857552032713234,-0.08937322260747743,-0.05380653894779897,-0.05780597789726685,-4.095018903308946,-0.30897833869307156,4.401706510286454,0.19144593275682073,-0.0313013721148226,0.1525767499801268,-0.30119298401881395,2.2890625
-0.027348692783385423,0.019559984516828752,0.06961465037776018,0.07874250786947488,-0.06513978201380259,-0.03901898782325771,-0.04195960202316573,-2.9669783528423523,-0.22369793942572813,3.1904542057066174,0.13869578836404595,-0.022497824852132236,0.11041500184487237,-0.21824372249419766,2.296875
0.004673751909197825,-0.003093685333248087,-0.011169552161616683,-0.013044346190432612,0.009489701661975956,0.006548813106346838,0.006910995056401221,0.5030684730077402,0.038427727811864446,-0.5397541288895228,-0.02364166635116759,0.0046066547353724036,-0.0194367703355214,0.03679912681372127,2.3046875
0.01237402261443244,-0.008534422528749959,-0.030629495377989733,-0.035081080539618746,0.02743066526711691,0.01751539178222204,0.018679616233726624,1.3354538751486538,0.10126571601585495,-1.437417071923952,-0.0626360655620725,0.01112704740621759,-0.05064753143368669,0.09795163880314968,2.3125
-0.0002715999655014936,0.00041200500348950427,0.0012455410685924518,0.0012294584819504916,-0.0020322666928234766,-0.0004744809314921651,-0.000598009902720485,-0.03597802637420683,-0.002236898295626679,0.03396544949216427,0.0014824966215065021,0.0004387496706242171,0.0006370600266993486,-0.0030206927384545876,2.3203125
-0.0028185543314533223,0.00220788244612259,0.007697405106018869,0.008556836108857678,-0.007961519665020959,-0.0041131831387110655,-0.004486208643129065,-0.3110140155251702,-0.022835578655456074,0.330451732063428,0.014370276324480465,-0.0017080122105187846,0.010957488690789937,-0.023409794821604824,2.328125
0.004869452477394025,-0.003229889300143325,-0.011654359615190998,-0.013535405120762348,0.00992679755711427,0.006809776779524609,0.007217718558443227,0.5231510094804316,0.04014537411031503,-0.561982571672647,-0.024582268226273518,0.0047725804184269435,-0.020234407958575513,0.038005194587268025,2.3359375
0.006638734204050639,-0.00447121246524451,-0.01612820546603739,-0.018678618539114976,0.01400754943638862,0.009337337255348074,0.009901131446700693,0.7149030878143239,0.05433618467322816,-0.7640552056061628,-0.03346629757997424,0.006222231642293344,-0.027441990951072217,0.05236091374136346,2.34375
0.005910392288835779,-0.003952350478845234,-0.014343216484097409,-0.016592288140504265,0.012323640397995134,0.008331632248774258,0.008819830660167654,0.6362783460170709,0.048211331765510526,-0.6788537485543574,-0.029744898684924817,0.005595146778800628,-0.024533733257746944,0.04658523307832753,2.3515625
0.010185947690876338,-0.0069903619336479286,-0.025146196370133128,-0.028800293193632833,0.02236047410572888,0.01443031515619402,0.015392359731090948,1.1010150667181056,0.0835209585975307,-1.1809245647766378,-0.05152763784646124,0.009262281321300348,-0.04189623431431234,0.08043838686793871,2.359375
0.00961901965209882,-0.006605802182538169,-0.023674765062378072,-0.027156632744251615,0.021078251476095215,0.013608994963769818,0.014533951103050025,1.040851107661182,0.07929641047048527,-1.1184676604934385,-0.048779588169047684,0.00882993132671917,-0.03958304482131065,0.07581955124953184,2.3671875
-0.002613262481490995,0.0020490704361177947,0.007228260660207902,0.007892789828451643,-0.0074814671603844855,-0.0038158100067467214,-0.004173354620524432,-0.2850671911860324,-0.020882205128501915,0.30765535165169483,0.013258245462985157,-0.001541722660829359,0.010056922429985089,-0.021475649133121392,2.375
-0.013810746672937291,0.009990326391316475,0.03549147269179016,0.04000836049631018,-0.033664560302098065,-0.019754260942751904,-0.021302137585438922,-1.500634048465549,-0.1130073821830872,1.6160783360841018,0.07018059959553648,-0.01108161931677845,0.055513632972127344,-0.11056616358834467,2.3828125
-0.012337508913304422,0.008965245370503932,0.03179118240519533,0.03585570522748521,-0.030271922289995472,-0.01766413542008228,-0.019066254834205914,-1.3438174384064097,-0.10124878914881347,1.445851252584876,0.06281628229514391,-0.009860995957982965,0.04960694778408255,-0.09904218879644258,2.390625
-0.0035245332134371376,0.002727231760488828,0.009588893514719865,0.010656482103340812,-0.009709256243622956,-0.005144040009338596,-0.005610452242654039,-0.390192899145897,-0.028918282768450685,0.41634829984152383,0.018087050354940622,-0.002358561439824144,0.013924783479918575,-0.029167841015432,2.3984375
0.0033505842206679537,-0.002154828511831759,-0.007760788188991411,-0.009058992515054078,0.0063777063095222805,0.0046264187790546855,0.004895445005001603,0.3565687424713361,0.027737986018289206,-0.3878770294534933,-0.016893585753158434,0.0035215328746882944,-0.013968194991247213,0.02559765286876455,2.40625
0.005976315135819842,-0.004023070300303732,-0.014455832506409663,-0.01666628518692156,0.012560875244572323,0.00838378316672796,0.008920564536290239,0.6444385163957926,0.04930350720551587,-0.6937757392164688,-0.030261287618406192,0.005752893556938356,-0.024698892642869424,0.04688673006493055,2.4140625
0.004940128392578667,-0.0032810749646558198,-0.011913586981935072,-0.013795117082657222,0.010155563279300965,0.006946718753512629,0.00734896784357961,0.5332021972002894,0.04051125766590144,-0.5703456375712828,-0.024948191976065653,0.0048275775665762065,-0.02057341460026317,0.038956161509812744,2.421875
0.002682781210752644,-0.0016711986484314533,-0.00621644179335619,-0.0073839682102877805,0.004847814780209988,0.00374798440433975,0.0038982356542404274,0.28667052956427325,0.021768396698217517,-0.3054898298672751,-0.013434153294138475,0.0028781193360802233,-0.01143354552962931,0.0209679253565552,2.4296875
0.003009022956249036,-0.00190779913636577,-0.006997585943447826,-0.008320576143659735,0.005586690616668916,0.004199353533209377,0.004395410592632515,0.3209015987333389,0.024614093268098634,-0.3448972011954961,-0.015142259535489894,0.0031826642271558887,-0.01273673795221235,0.023411135901413967,2.4375
0.002462555714009098,-0.0015394024322568861,-0.0056253857915294124,-0.006714210168818352,0.004359506359923727,0.0034172103770152883,0.0035816179034680864,0.26299650750813597,0.02054389707644363,-0.28442617311386587,-0.012508968714470952,0.002783024802042282,-0.010509306869887006,0.01898588501119151,2.4453125
-0.0067297133143334525,0.004962989265804696,0.01752393205051764,0.01969449313331873,-0.017038216982669146,-0.00965292558842328,-0.010434984146009432,-0.7327887344932251,-0.05468166629483156,0.7857281668999763,0.03408110819963282,-0.004990585997164234,0.02678531557222562,-0.05427531376349911,2.453125
-0.01825464195945158,0.01313851604544366,0.0466178286672374,0.05278241318635332,-0.0439663760591035,-0.02606049894891967,-0.028052383655831514,-1.983839880308782,-0.14948549272269315,2.131905870603924,0.09269154806166724,-0.014816246281383416,0.07355802148044191,-0.14613758050514913,2.4609375
-0.015191026067554366,0.010983213986998981,0.038967444937961365,0.044011017657351104,-0.036899215551107735,-0.021732507722168334,-0.02341760064668134,-1.6523217624946858,-0.12467583884847099,1.778869803169365,0.07731020032123385,-0.012283254206620358,0.061139071268373126,-0.12168648226654828,2.46875
0.0013386945054570968,-0.0007280630674543275,-0.002700630682952644,-0.0033981376499005204,0.0016551948362092607,0.0017733284351006203,0.0018102009705367513,0.1420858834581011,0.011003031737597662,-0.1475139890681386,-0.0065697165991782614,0.0017316865344149106,-0.005943383910801118,0.010100290705577115,2.4765625
0.011253793218166793,-0.007760848576987784,-0.027758015993728544,-0.03183011321183267,0.02483394004395224,0.015899252069775955,0.016977703165946576,1.2182403456691249,0.09262836405978492,-1.306466284646675,-0.056993966155890835,0.01018395927637306,-0.046184712501725865,0.08898812735454067,2.484375
0.008237518140157487,-0.005617478133320793,-0.020186785007351934,-0.023165557853360736,0.0177994872210608,0.011627521331380158,0.012393744330759172,0.888352155904694,0.06782575157629357,-0.956406374347301,-0.041696249379593174,0.007640383800649919,-0.03392338463900938,0.06467123612327919,2.4921875
0.0054848074667826485,-0.003651302243888444,-0.013233165155931918,-0.01528621359009163,0.011335329052512408,0.007716243605808199,0.008184207762316948,0.5872762677765974,0.04490067793868778,-0.6333484041199725,-0.027638425298189793,0.00527596732754215,-0.02273791679033048,0.04267380727503943,2.5
0.006660873568443643,-0.004485356547873924,-0.016180793107680294,-0.018700259471402917,0.014074024825101119,0.009388323122529475,0.009964383473361862,0.7164379508329871,0.0545220215606093,-0.7687796510923784,-0.03361223510393398,0.0062588710713406956,-0.02752604768773332,0.05231377225729326,2.5078125
0.0032821953724642564,-0.002107072241131598,-0.007633917063117419,-0.00899645566160999,0.006219103653518506,0.004565983444087938,0.004786909828219213,0.3522907216192808,0.027117153987678694,-0.3766404784089173,-0.016563947751683357,0.003416825502074614,-0.013792641687871483,0.02556851914979404,2.515625
0.0002272267003716701,5.7877816768873416e-05,0.00011124085280646165,-0.00014929749339152913,-0.0009156257363376952,0.0001928097210562381,0.00010400293080121417,0.01926723173809081,0.002057497542570951,-0.022399302584449596,-0.001048531499338457,0.0008397258697752199,-0.001304099502447053,0.0010327184918773509,2.5234375
0.008403235655300382,-0.005717208425936901,-0.020523111685304633,-0.023562483375948826,0.018141955068248755,0.011834168290040293,0.012607696268228562,0.9035319295395652,0.06874079597677608,-0.9748010125682647,-0.0424236317916061,0.0077605281833895865,-0.03445612690004698,0.06596054304002583,2.53125
0.016489250906478972,-0.011447929472016408,-0.04101600626003943,-0.046845645964379734,0.03705537917102938,0.023397499215114116,0.02501993316573738,1.7830266003867024,0.13504375819690673,-1.9166849935845836,-0.08347549803564684,0.014622355338449404,-0.0674088041128589,0.13054071090610092,2.5390625
0.006562928630584974,-0.004444086986804909,-0.016049240732089985,-0.018493420538345625,0.013969798441286253,0.009307208743800387,0.009894613814604977,0.7116490807214363,0.05415991005838244,-0.760687229098191,-0.03327468550267561,0.006233347313328359,-0.02728228575700787,0.05181300828310571,2.546875
-0.01171449661814875,0.008489151184273718,0.03010401709456857,0.033907004665902726,-0.028680715404876767,-0.0167458600161204,-0.018072892665151795,-1.2698909970138905,-0.09546711048292347,1.3697272134429024,0.05941050847775116,-0.009265115083470282,0.046914838195812936,-0.09362222298518856,2.5546875
-0.01777475195271874,0.012797712059965593,0.04547127219527001,0.0513345320393396,-0.04288772056965007,-0.02542934866586059,-0.027395437053002104,-1.9313623747271407,-0.14556389537105988,2.0779088899931235,0.09027954198983411,-0.014433574089018755,0.07164544560058692,-0.14196830979527333,2.5625
-0.014818055260453914,0.010715501603335753,0.03800489316527276,0.04289053178779372,-0.03600076980582096,-0.02121532877846049,-0.022858238423087606,-1.6137974550406033,-0.12168449870920532,1.7329251445740483,0.07533775039278301,-0.011920750141704078,0.05969011419635629,-0.11861674280143444,2.5703125
-0.014605323431815894,0.010552987973109069,0.03742508236347131,0.042308147371349906,-0.035449404720431614,-0.02087400055318333,-0.02246390684809251,-1.589878280554079,-0.11968456515134335,1.704504741098759,0.0741552201079449,-0.011690608925513137,0.05876546351268381,-0.11717980270730283,2.578125
-0.010805925446598526,0.007851757559574877,0.027865068445949825,0.03143503008132578,-0.026568587527668518,-0.01547045608223063,-0.016656889447502602,-1.1759341805217387,-0.08811859133937329,1.260114555947086,0.054804510097728625,-0.008455171432166954,0.043321470368255593,-0.08703761804689736,2.5859375
0.0006140839691790343,-0.00022409444556949069,-0.0008904356220611135,-0.0013352857050488642,1.6394437090906684e-05,0.0007530196793372384,0.0007249070842680051,0.06299039772261072,0.005427913236397251,-0.0670669320038237,-0.003039157615546556,0.0011678788323459064,-0.00298964149736324,0.004106012233907142,2.59375
0.003934454712719913,-0.0025578463527271846,-0.009269250066646488,-0.010884662565886154,0.007704187810030028,0.0054801244001157915,0.0057652896575117515,0.4224776997734025,0.03223739610096739,-0.44928601487925146,-0.01973528288808205,0.003918819674109982,-0.016450360591064226,0.030787979001902513,2.6015625
-0.005219252475280545,0.0039272483097641375,0.013791582498871982,0.015411747526028016,-0.013653749074621987,-0.007528217530161161,-0.008190871171517896,-0.5710516607430833,-0.04295359676964913,0.6177135807566834,0.026744212574896745,-0.003838209853831491,0.020696594375375514,-0.04221423746596735,2.609375
-0.005463357179930277,0.00409081171163965,0.014401148952863957,0.01617535134007982,-0.014185247510519507,-0.00787616593584777,-0.008535275994728623,-0.5980248237767414,-0.04470775342918838,0.6425133890256496,0.02789358638167834,-0.0039893330083029714,0.021709456181921275,-0.044432293457645405,2.6171875
0.011256306696244426,-0.007758075394694582,-0.027793507698081196,-0.031823538536507,0.024863274541153172,0.015920355486090276,0.017009855299038302,1.2160008793444144,0.09263086653902788,-1.308853572637233,-0.057057634029683224,0.010226108501039584,-0.04615200077486321,0.08876484476242832,2.625
0.023791863800371054,-0.016635504486476757,-0.05946425830055354,-0.06789374161233738,0.05411713142921098,0.03378849163361972,0.03615587322053732,2.5770696958822534,0.1953660343807407,-2.7691852326045847,-0.1206976537528953,0.020835860742687777,-0.09709621301345377,0.1889299370196622,2.6328125
0.02145795158831512,-0.014970360022424578,-0.053580339375534074,-0.061207837066295484,0.048619155814425795,0.030482107691939084,0.0325745458378085,2.3237568435575335,0.1759045840411169,-2.4943236414330157,-0.10874354955652205,0.018795112073069647,-0.08765149945991309,0.1704597205643203,2.640625
0.018921481308762613,-0.013156997484910435,-0.047104268103544226,-0.05380835419230705,0.042626933728238246,0.02684030374559943,0.02866619438011623,2.046087142022614,0.15478733697576225,-2.1966857409806217,-0.09570642914491015,0.016602066095560256,-0.07726550518002855,0.1500132650953028,2.6484375
0.02066202184345225,-0.014389596545529062,-0.05142879612660377,-0.058716640057823954,0.046686907687709854,0.0292764020574558,0.031311709087949564,2.233312209661221,0.16911055835855682,-2.400800627342552,-0.10452773027348938,0.01811070583473644,-0.08422982787584771,0.16365482625112796,2.65625
0.011760809631353604,-0.008109023457409287,-0.029000027191518674,-0.03322570863767886,0.02600874506138598,0.016606537448441608,0.01774514775882796,1.2698352739444794,0.09656808491628036,-1.3668318723176702,-0.05954630071423851,0.010644396739177503,-0.04812414657720192,0.09281808927413553,2.6640625
-0.0093896693302928,0.006849712363543793,0.024288699352802666,0.027373096393443406,-0.02326206734490045,-0.013470151645792176,-0.014527468060114518,-1.0213840581136995,-0.07652560283167748,1.0967178371911561,0.04762869989971297,-0.007252073475695841,0.037626253975270495,-0.07548322652313082,2.671875
-0.026277327680786947,0.018812971532263193,0.0668672996385636,0.07577736659888902,-0.06266582169764946,-0.03748958237384098,-0.04031838852829383,-2.8527493042600622,-0.21514090836724425,3.066744373302703,0.13336100673510368,-0.02160835284157847,0.10611412241381553,-0.209918371770435,2.6796875
-0.032549774395556674,0.023262623324576345,0.08270616306273884,0.09371663093096592,-0.07731303000298069,-0.046413417478933315,-0.04990213707136004,-3.533867467562143,-0.26679678548862495,3.798863115726517,0.16524465566788313,-0.02695966378409256,0.13155316607900353,-0.25983714746972264,2.6875
-0.033638864823909626,0.02402284516737787,0.08546421977930971,0.09679010366112102,-0.07981925187707481,-0.04796267260891902,-0.051551790570928534,-3.6512459352660738,-0.27551105628675,3.92338226561732,0.1706755496349465,-0.027849392525302823,0.13595278696679772,-0.2684946163318161,2.6953125
-0.026871914023235768,0.01921786328936274,0.068399486838436,0.07742255356670956,-0.06401885162551565,-0.03834083712469277,-0.04120731339141449,-2.9165232087155757,-0.21967127958532187,3.1326644151439784,0.13625064487814464,-0.022065748272722376,0.10850139964035573,-0.21470514748802577,2.703125
-0.007703477791485979,0.00565641835867987,0.02005586355456181,0.022537189978177496,-0.019374061766984762,-0.011076671042310408,-0.011949060822417723,-0.8393003778205186,-0.06269117112134685,0.9014457825861778,0.03911635883334549,-0.005838289606053978,0.030761814219781008,-0.06217212173791746,2.7109375
0.013460195995003723,-0.009302735189762545,-0.0333366513554547,-0.038157572118527334,0.02990809681751045,0.019043661472340566,0.020346492603115263,1.453665042495738,0.1102248212658875,-1.5600748153044757,-0.06804342037626963,0.012026255299998801,-0.05510667657244252,0.1064590265011208,2.71875
0.022246893167235698,-0.015514981426615898,-0.05552583657829221,-0.06343406784815213,0.05040113318291308,0.03156976228568643,0.033754183610284726,2.4071518392459703,0.18203915026641188,-2.5829531974421993,-0.11257763396923637,0.019431972753611134,-0.09080180790289372,0.17666861986159557,2.7265625
0.01861621775363792,-0.012957173529191339,-0.046370856716337096,-0.05303302879343531,0.041991282050044744,0.026412866703224836,0.028213552943302453,2.0156234644388107,0.15263796384812675,-2.16307803000994,-0.0942964558804052,0.01638353122729051,-0.07608007522524253,0.14780034355247312,2.734375
0.012244251489627536,-0.00845612078022769,-0.03027110118241241,-0.034675440314565036,0.027157522657350105,0.017329038352670908,0.01849558049505475,1.324404463756034,0.10068730613752572,-1.4231389835508654,-0.062064575731986114,0.011033123262262998,-0.050173830642199345,0.09681165557774622,2.7421875
0.009451738209550945,-0.006473050070137084,-0.023219333991084796,-0.026609574796039422,0.020621334979272172,0.01334438128733061,0.014251549238002247,1.0190706556523925,0.07757940851987158,-1.0968596106036028,-0.04783696186194369,0.008676201865324924,-0.03881396035686681,0.07433872786343562,2.75
0.009474353462194272,-0.0064802119753975445,-0.02330246143808263,-0.026703276637267563,0.020654627367616824,0.013392485041629355,0.014298690260577595,1.020941867198249,0.07749566678201099,-1.0975221662527777,-0.04786604163695467,0.008666382192299801,-0.03894477625407772,0.07456177058591344,2.7578125
0.006881667923459652,-0.004647434968342736,-0.016761695471453248,-0.01931221435900767,0.014618042406314924,0.00971268364749849,0.010317264706136984,0.7421982501329292,0.056406942428603175,-0.795232021844831,-0.034734921224467426,0.006447146093533254,-0.02844839079345984,0.05413090438177528,2.765625
-1.559085022025156e-05,0.00022863906985296688,0.0006911895670649557,0.0004681123746831776,-0.0014616757141644478,-0.00013006032491710918,-0.0002656845260016597,-0.004345489509841999,0.00016941669918755226,0.007359985689082998,0.00018802588404409604,0.0006060640901043743,-0.0004019290446266443,-0.0006797789206652703,2.7734375
-0.0025737863253076283,0.002042411006985036,0.007174499544654489,0.007829943242624395,-0.007442761312243417,-0.0037986988218342505,-0.004195831307304098,-0.28375560643199493,-0.0208852076705899,0.30469042051109096,0.013174911998258279,-0.0015513006842982394,0.010050855786169008,-0.021133884742155423,2.78125
0.0044116350927004945,-0.0028960647264569127,-0.010504791537143243,-0.012185268540916262,0.0088500999132764,0.006165946091608801,0.006512381858272523,0.4714434663040147,0.03608340397553688,-0.5101168254626391,-0.02221617936529274,0.004379408165797907,-0.018307153543812602,0.03432825636743265,2.7890625
0.007737311675450748,-0.005255588949674765,-0.01897201369275392,-0.021728952848480372,0.016646559724212927,0.010948876753924225,0.011654802584984704,0.8329169152966986,0.06341704373847448,-0.8991578612375235,-0.03913579927406091,0.007224537605659819,-0.03187976208936821,0.060720057182214085,2.796875
-0.004986924676549629,0.0037373963997278862,0.013132279254166702,0.01471795884048161,-0.012996943958782335,-0.007155496748866744,-0.00776482225393048,-0.5442602074148403,-0.04048707149264988,0.583366214637103,0.025298440618648284,-0.0035321970093345973,0.019696927736866474,-0.0405294751241242,2.8046875
-0.021026480977720346,0.01508742287872754,0.05366431482808562,0.06065978766290832,-0.05043226778027054,-0.030030406803050642,-0.032307049080075874,-2.282566678003628,-0.1718665278432583,2.4554211948359335,0.10666051681613613,-0.017143087238042764,0.08477806712426304,-0.1680455687679146,2.8125
-0.021916060014113063,0.015728678778052625,0.055941479046809274,0.06321352580438606,-0.052562713799471895,-0.03132966138352932,-0.03370453822518107,-2.380226419450056,-0.1795372608725395,2.56254803166841,0.11131272139541205,-0.0179500026141353,0.08840916913000486,-0.17499952905798163,2.8203125
-0.012615961882886025,0.009154547009195105,0.03245248805636714,0.03661958471550304,-0.03088079466345197,-0.018079332186743215,-0.019485107772700832,-1.3730942540899682,-0.10357835881118507,1.478112280988405,0.0642284925353522,-0.010084712857295106,0.05069677487812074,-0.10108831600545126,2.828125
-0.006415933344626265,0.004757719289593937,0.016786074792219927,0.01888660943487318,-0.016369301731209304,-0.009230329011481462,-0.00997547131450222,-0.700558656905046,-0.05250183956354754,0.751252497292115,0.0326917625957855,-0.004784085766764553,0.025543193536144825,-0.051971874284436136,2.8359375
-0.0014855334985237503,0.001252371752582036,0.004353137835449475,0.0046748941099358015,-0.004822139796610455,-0.002206071128506389,-0.002431458388871881,-0.16400517635219888,-0.011678588009058377,0.17423339944594657,0.007537743272850238,-0.0005651860196640631,0.005491637586108243,-0.01266739540348596,2.84375
0.004595897439760095,-0.003053637926338481,-0.010983522704901315,-0.012880762077574177,0.009353640231325643,0.006456026396409138,0.006842048867854289,0.49723899662356547,0.03813980959455033,-0.5319752161989846,-0.023320051083211897,0.0045627073624148855,-0.019247180700986927,0.03610877732348795,2.8515625
0.0036445689553546595,-0.0023618551568438976,-0.008584260251164298,-0.010153425928595826,0.007077427358213959,0.005113831320813759,0.005374461978321343,0.392892892118908,0.0298812465659394,-0.416799038076042,-0.01835744968539082,0.003698671069376014,-0.015372413309101404,0.028666979846581498,2.859375
-0.0016255484152881941,0.0013883705334724345,0.0047292921932217515,0.0050853954169717205,-0.005274388531518998,-0.0023975012865025914,-0.002683278050073334,-0.18283795834265454,-0.013671787319892874,0.19884282252035215,0.00849655742445258,-0.0007830779187739314,0.006122180406038453,-0.013644487935719206,2.8671875
0.0039734043245418784,-0.002575518073170297,-0.009375750619522038,-0.010876572408403368,0.007774973885109185,0.005539173355695401,0.005856936822823378,0.4215160189702312,0.0323402843155821,-0.45586819481510016,-0.01993331796991048,0.004003874481457455,-0.016506139740538925,0.030593035734784613,2.875
0.017478525651861518,-0.012154233071481455,-0.043469623125585145,-0.04964327514236833,0.03932903015314638,0.024750382274581432,0.026477987995153825,1.8883066747320654,0.14343399897855966,-2.0327245071503293,-0.0885740582445779,0.015494726891456286,-0.07133439186363733,0.13828549216662628,2.8828125
0.020508394872730477,-0.014310699336040691,-0.05116362099514734,-0.05841706449486737,0.04645442699029769,0.02908838114014492,0.03111061158308052,2.221194335439226,0.16844471590978957,-2.3864088852991365,-0.1040104879656719,0.01805414214551544,-0.08371962425189176,0.16281486739990825,2.890625
0.014337464715118608,-0.00993185689724556,-0.03560874998174508,-0.040729169236025944,0.032051608988799885,0.0203262446402302,0.021681464961336168,1.552838715467584,0.11763433728848885,-1.6654831492864923,-0.07261635351273023,0.01276492292318416,-0.058707884608285014,0.11378472521111711,2.8984375
0.014169890537714154,-0.00979858170186574,-0.03515357949988377,-0.040185675204296493,0.03160814458252115,0.02007751575280061,0.021406118004544387,1.5323212709828034,0.1160243178272801,-1.6451265284668426,-0.07164574421537823,0.012580646985998197,-0.057975014526094736,0.11223733727386,2.90625
0.014597098175762598,-0.010107119433337973,-0.03620664924310501,-0.04135979528911133,0.03259692700461669,0.020669308118231044,0.02205711280055975,1.577801199549691,0.1197301087438719,-1.6969946977847008,-0.07384333046635586,0.01297509715895158,-0.0596628719968784,0.11543784969723216,2.9140625
-5.248987285260827e-05,0.00024444249765155163,0.0007486283217265104,0.0006529561862933238,-0.0015285042666245692,-0.0001794930378778162,-0.0002830101419716541,-0.009560516138356883,7.590584017856677e-05,0.007969346277530851,0.00032771766172588865,0.000631995490446878,-0.00023153562325883655,-0.0013094048050143609,2.921875
-0.02256701013438269,0.016179575399907237,0.057550809283720694,0.06518166282725586,-0.05402672182005895,-0.03221598930997693,-0.034635273375615325,-2.4513295434101616,-0.18447135866750017,2.632795440416913,0.11448584578604236,-0.01842365004038678,0.09108855415365354,-0.18065252642652968,2.9296875
-0.03484064660154317,0.024883332062190504,0.088534307270831,0.10031696030661488,-0.08268979901844893,-0.049684140404886126,-0.05338004796475078,-3.784344457927423,-0.2855644581047469,4.066344696592409,0.1768320839374589,-0.02886407316919378,0.14086003352124965,-0.27833922251715076,2.9375
-0.0352733016805878,0.025195675909842268,0.08963805020885382,0.1015040542971011,-0.08372037172028372,-0.05030253947603645,-0.05405594244896385,-3.831248811558775,-0.2893772796216167,4.1183318895991015,0.1790855219085366,-0.029262964102581137,0.14258318227068562,-0.2815945643727201,2.9453125
-0.027433286867241485,0.019631934687601788,0.06985823976217402,0.0790268961883763,-0.06541007846115245,-0.039150710647267425,-0.04208761874688061,-2.9783093492164388,-0.22475742031252174,3.203642775255214,0.13925877420635616,-0.022601472142516225,0.11075132950897067,-0.21904801947065905,2.953125
-0.007221124858513991,0.005312345687453992,0.01886494107551724,0.021120030818927507,-0.01824242772674755,-0.010396718053076863,-0.011221050068375349,-0.7849176089307366,-0.05867053857520425,0.8467699671837058,0.03667456225195675,-0.005446161651185386,0.02876229162984756,-0.058168277605883355,2.9609375
0.017937425092347876,-0.012489163816995373,-0.04462352734627873,-0.051001520712750825,0.04043189459442277,0.025410635883057177,0.027197423794874484,1.9418251229322563,0.14736280971787322,-2.0852893825572436,-0.09089342015954206,0.015863835893273424,-0.07327944488631143,0.14213391478247844,2.96875
0.028105167746049996,-0.01967232697493738,-0.07032721035978387,-0.0802014737876231,0.0641362369163894,0.03991216492788009,0.04273055910919984,3.0427878827350066,0.23020423271114326,-3.2697173242810686,-0.14238840500405933,0.024448674095401107,-0.1145364435896555,0.2232560396345952,2.9765625
0.02325349893126124,-0.016235864523464788,-0.05813355398555957,-0.06633438016047423,0.05282689435005517,0.03303649956672232,0.03532395901587629,2.517161422072111,0.1903476533429641,-2.7046200769403255,-0.11778512564492882,0.02032378037757889,-0.09487533218798049,0.1847805617483685,2.984375
0.022217276289511628,-0.01550990825905922,-0.055501648464064586,-0.0633414115051514,0.05042276586559676,0.03154769642388106,0.03371962549510586,2.405824523596399,0.18220958481197688,-2.5853088234753185,-0.11260140892406707,0.01945713185043775,-0.09064825876380787,0.17647830182372337,2.9921875
0.023712166545656877,-0.016571172499352742,-0.05921459685701801,-0.06755928830509796,0.053910965821287106,0.033636030162404615,0.03598071344403993,2.5674860779719775,0.19466467690798633,-2.7604977148975167,-0.12021105042305376,0.02074020251668491,-0.09666085159273104,0.1881817891109827,3.0
0.008504887390291498,-0.005802149707377112,-0.020831641441757476,-0.023911714738919,0.01842938694006474,0.01198625194057827,0.01277935904120933,0.9172344399125381,0.06986126156744428,-0.9869779931151607,-0.04303005973153699,0.007859210572725782,-0.034969067606984414,0.0669016639326482,3.0078125
-0.01744950354419212,0.01257388481391823,0.044614002697066245,0.05048963721452745,-0.042126299375980086,-0.02492090178386757,-0.02681582339363284,-1.8974820857794912,-0.14298064249548423,2.040306656117128,0.08865186261792732,-0.014141489990385147,0.070266290195148,-0.1398534681506924,3.015625
-0.025566990888559512,0.018320301409837373,0.06509332624295805,0.07372553390872794,-0.06108202433501457,-0.036462084649634866,-0.03922484156505693,-2.777214923178419,-0.20936829089482956,2.9874755107724633,0.12980833680454967,-0.021035484696897613,0.10318881693053521,-0.2044444871179359,3.0234375
-0.012798200182200086,0.009283357898345303,0.03295177133455299,0.03712272033586208,-0.03132518532079561,-0.018324685869335514,-0.019786576528842956,-1.3927812252118321,-0.10464405422217923,1.4987495010867253,0.06504561302834215,-0.010230401384503993,0.051471267995271866,-0.10266968934442955,3.03125
-0.005258681311563198,0.003950133480516051,0.013990160759028026,0.015566482589311044,-0.013756029687846677,-0.0076276643502672485,-0.008295161316013265,-0.5764121133616668,-0.04306410659096239,0.6193663139580482,0.0268663663907085,-0.0038413681181891524,0.02095948178425466,-0.04265456138712128,3.0390625
-0.012185424706132505,0.008851105423819644,0.03142364311135112,0.03545563391474703,-0.029883950443122503,-0.01746759905892876,-0.018818738904283813,-1.3281413485022064,-0.09999412796393466,1.4255215041446339,0.06201209419687507,-0.009680326995403507,0.04902994757835408,-0.09794495302879103,3.046875
-0.014969753235794234,0.010808804854171912,0.03834826033277859,0.043368266850108035,-0.036294741133744354,-0.02138434061478075,-0.02300792086358094,-1.6285593492173271,-0.12259478266306348,1.7470020453487987,0.07600269787161805,-0.011988041097658709,0.060232735890236214,-0.12009812998961898,3.0546875
-0.0035241641513081992,0.0026926531304801047,0.009428346347134037,0.010441065051660788,-0.009528654562261062,-0.005078967992785512,-0.005530532808868275,-0.3845660207545836,-0.028447705999942424,0.41045610338038946,0.01780165256913638,-0.0022657948294644787,0.01374189368690986,-0.028664159213410027,3.0625
0.01053942813825914,-0.0072610587208376785,-0.026013768070200036,-0.029910739600341928,0.023243175742349288,0.01491272785622048,0.01589461716594176,1.1421043643736848,0.08681146572047757,-1.2263920933926762,-0.053481295175550295,0.009602766457722078,-0.04331521122868319,0.08361167172874329,3.0703125
0.018543471647357184,-0.012908618278487693,-0.04615977806489803,-0.05277750494964688,0.04180271046762813,0.026279302241196137,0.02807952967889374,2.0089220419565836,0.15206455790556167,-2.1532806110108025,-0.09385588724499087,0.016297147552521783,-0.07577225085791797,0.14729614733346444,3.078125
0.02323383729882365,-0.016213523442155684,-0.057987625576407215,-0.06612651753180729,0.05267715959692413,0.03295174338117204,0.03525075274088637,2.514929469947683,0.19025469239481443,-2.696912802896979,-0.11750750103457491,0.02023764441544616,-0.09478328074807735,0.18431820392785675,3.0859375
0.022075858818497635,-0.015399392798304927,-0.055076761815133844,-0.06279288061593903,0.05002203888448687,0.03130969346509981,0.033518704556144474,2.3880773416961913,0.18089321109986894,-2.565040360994885,-0.11173405418166316,0.019316658780140265,-0.09006554829756708,0.17486793889718785,3.09375
