AF3,AF4,F3,F4,F7,F8,FC5,FC6,O1,O2,P7,P8,T7,T8,time
-0.012607615870926384,0.00914209111732707,0.03245694959638364,0.036587935416756825,-0.030814139381155847,-0.018038503589124687,-0.019453905116392396,-1.3715256604118542,-0.1033616859864781,1.47244925136598,0.06407062034323949,-0.010021628564191953,0.050708199778010096,-0.10102054835849185,0.0
-0.014168920769926038,0.010233984418371993,0.036394635923950064,0.04104775237732754,-0.03442231927406972,-0.02025365052799011,-0.0218044782836325,-1.5392570026828638,-0.11578670674541029,1.6539007395474017,0.07188923940156115,-0.011303123890355737,0.056998510677211164,-0.11352742345913006,0.0078125
-0.009055095068219188,0.0066193015962988195,0.023468240020232872,0.026414399850770758,-0.022523169684758523,-0.012990737169166542,-0.01401485459267741,-0.9851862802979654,-0.0737847501526413,1.0606515310307394,0.0459978710254303,-0.007006410241987221,0.03623845520144998,-0.07292463175509406,0.015625
-0.0029857670585030725,0.002344311541810171,0.008171255107035095,0.009067026199936185,-0.00843607080706746,-0.004391725083571189,-0.004804922538784809,-0.3296637250658474,-0.02448086988883109,0.3569990385344221,0.01539617082004224,-0.001942321915354166,0.011670121001691298,-0.024622777318770942,0.0234375
-0.009046840410697267,0.00664127764368153,0.023485261698455797,0.026427035197607543,-0.022582606018000814,-0.013024650478898225,-0.014074325505468896,-0.9876297615247727,-0.07448030678371073,1.0632686257146864,0.046200077583073505,-0.00709534054814662,0.03627619342632294,-0.07276628282817398,0.03125
-0.015302904336896277,0.011053468614245485,0.039255587851498824,0.04431957359116141,-0.03712501720256528,-0.021896658614226124,-0.02358517589826686,-1.6643471543056805,-0.12547347383641855,1.7883271374803569,0.07779691589248894,-0.012338332054528346,0.06161016637088091,-0.12256798058913583,0.0390625
0.0023397035237629573,-0.0014482773215343898,-0.005273720536150486,-0.0062400877974464536,0.004044951134206736,0.0032261555747008703,0.003387089391608684,0.2495125372922255,0.01952269808395924,-0.27023132140388045,-0.011799475695172272,0.002655400511656967,-0.009988397593290309,0.017758116286603284,0.046875
0.02548296074625215,-0.01782520385493066,-0.06365885491023623,-0.07256793318930638,0.05799851425079733,0.03614943185327072,0.038723654159521184,2.758249732700246,0.20911974152671975,-2.9649355567471023,-0.1291397081838294,0.022248900492988378,-0.10386929499986937,0.20201847804149467,0.0546875
0.015940171287462754,-0.011062296791030674,-0.039593689195410384,-0.04528373683901543,0.0357329379761712,0.02257597663306441,0.024148661817326576,1.7235925909920016,0.13062700965634244,-1.8493973710591696,-0.08068303038664838,0.014133500294387922,-0.06518182584069285,0.1262662007507944,0.0625
-0.005856441775049918,0.00436291943880119,0.015358647233128755,0.017107586884536802,-0.015076942252627503,-0.008410828174673354,-0.00913159558303154,-0.6383155896122912,-0.04794655916779241,0.6900969329224965,0.029812696644837437,-0.004335465457543966,0.023196264123942923,-0.047081588246567656,0.0703125
0.008897541926312204,-0.006086299189149579,-0.021877211064840148,-0.025180195616510723,0.019353923295976152,0.01259373612334721,0.013384314710252872,0.9622229672460515,0.07320971741468475,-1.0329092185767885,-0.04508488576333181,0.008176460399455247,-0.03664796036244211,0.07037220736100037,0.078125
0.03799215761866816,-0.026677631613055502,-0.09525470333607036,-0.10851446126313734,0.08721079858211084,0.05397862618103098,0.05780398445523509,4.115721302785711,0.31159299022321285,-4.425445662501642,-0.1926262076576541,0.03283629582673135,-0.15462765477748477,0.3018812227746638,0.0859375
0.02200418806667174,-0.015356172580008954,-0.05493189016677634,-0.06268326658679238,0.049933076432942064,0.031234786477352706,0.0334257380918337,2.3805815777215416,0.18033656104022389,-2.5615282519384883,-0.11151576322628726,0.019311965088165087,-0.08977158386380053,0.17447023407387202,0.09375
-0.020758533918322282,0.014909768083111629,0.05288548173925559,0.0598229754814959,-0.04977933101183676,-0.029579395760855644,-0.03183213732787529,-2.2560343881453058,-0.17006684290054747,2.422904800069468,0.10530619920026874,-0.01689518880903271,0.0836450615164096,-0.16600477210898457,0.1015625
-0.02658862033065834,0.01903240780784377,0.0675922058115496,0.07652031670739783,-0.06339006245927209,-0.0378782899830835,-0.04076263251673638,-2.886822220670852,-0.21759539813027018,3.1030844948832037,0.134842662321112,-0.02184958493122674,0.10729504348960206,-0.21232173303690138,0.109375
-0.006485435844720007,0.004807395994853096,0.01700421263097688,0.019020859779631978,-0.016565159156369576,-0.009345380344997706,-0.010148022721508635,-0.706695536903674,-0.05283697458600259,0.7619701692574318,0.03300034760328018,-0.004867612740286789,0.025860582800724417,-0.052229267283292566,0.1171875
-0.0160470184802373,0.011584560555566793,0.041247638155592924,0.04659209182951307,-0.0389158763952078,-0.023019357051498573,-0.02479003860063208,-1.7450819054255489,-0.13146727265082053,1.8776730249332785,0.08165071766522337,-0.012995451857843785,0.0647781404386852,-0.1285401727480565,0.125
-0.040281905361694695,0.028740804673320363,0.10235240942418958,0.11609586536301172,-0.09542569945586021,-0.05748964007229825,-0.06175202990532613,-4.374774164826578,-0.33025273265226696,4.700916884648573,0.20457390109168586,-0.033499873312995185,0.16308820355754428,-0.32174101569556585,0.1328125
-0.024308180787339158,0.017425648537849687,0.06193640009134133,0.07019610064138733,-0.058115752268240665,-0.03469523931896484,-0.03729105445750483,-2.6424423540586597,-0.19923074763097828,2.83674843515616,0.12343155290630678,-0.01992169986211239,0.09815977129281403,-0.19456390013999184,0.140625
0.018891036174699623,-0.013163646468714537,-0.0470832195260482,-0.05376262765108307,0.042675004076777885,0.02680504800311945,0.028690819007479235,2.044655272660134,0.15503801751979732,-2.198515675501217,-0.09576171633620738,0.016683492167947525,-0.07720966750270658,0.14967595621019703,0.1484375
0.03502339773174793,-0.02458593763843689,-0.08774288752208244,-0.10004956336672138,0.08028852079064902,0.049745169035329134,0.05328672099762335,3.797034561956686,0.2873620866754363,-4.076332207613122,-0.17754937078963753,0.030306198617814094,-0.1426913143049297,0.27844394325601624,0.15625
0.02309932985777025,-0.01613489344894668,-0.05765039933452225,-0.06582926589454119,0.05242693584378511,0.03276461257802301,0.03503894986316721,2.5038826102703884,0.18950064579901735,-2.683486056400451,-0.11696048428195979,0.020147861481041383,-0.09428150471418338,0.18355415185477517,0.1640625
0.01654483617497593,-0.011480058477710092,-0.041127987018146614,-0.04696942303407131,0.03709684980607725,0.023439303624235817,0.025029820034709216,1.789295311501323,0.1355228313022334,-1.918801951009188,-0.083649092038925,0.014586779708169703,-0.06761571513535544,0.13107758675081513,0.171875
0.012829889780565283,-0.008850210893543192,-0.03173908647423967,-0.036290587305527006,0.02845457092466709,0.01815096356271495,0.019392644346432883,1.3832005149057243,0.10505044814943068,-1.4886936448757777,-0.06488674185441852,0.01150147498307982,-0.05248604835274569,0.10116001868504644,0.1796875
-0.005270413057703783,0.003943805636800141,0.013924132963519738,0.015524404481471648,-0.013677118357158059,-0.007601541620114042,-0.008210269378590927,-0.5782836453142969,-0.04296675126535554,0.6168915948341228,0.02672925174124908,-0.0037578365072565463,0.02091577947326518,-0.04294799114246607,0.1875
-0.02087941271157383,0.01497969192123021,0.05324007373003174,0.060152935641580633,-0.050024294641452006,-0.02979107383067948,-0.03204394817840071,-2.2673159948604424,-0.17064950748632526,2.4350839732521683,0.10580169901383216,-0.01697688374196037,0.08415146465298487,-0.16687952903864064,0.1953125
-0.012504307010293885,0.009062352039437374,0.032072736654495955,0.036126981102709704,-0.03052582575859284,-0.017859939771177218,-0.019288224405956615,-1.358555989544167,-0.10225768692326535,1.4611840915311614,0.06343935840285576,-0.00994584572166275,0.05015771475991773,-0.09996240152417106,0.203125
0.0052289243095869735,-0.003471992967469683,-0.012610870414068286,-0.014606463334033875,0.010759006426350914,0.007362770646607266,0.00776678105900388,0.5616827209411873,0.0426633334803109,-0.6041291127741216,-0.026337287796910518,0.005037966930242062,-0.02169904164095005,0.04108560796366193,0.2109375
0.009164595154425586,-0.006260104111873034,-0.022483173666565878,-0.02581950554625035,0.019921520196383012,0.01295594631595935,0.013795041410579205,0.9872389744309796,0.07496224174902186,-1.0640062532779764,-0.046310423601280605,0.008410793219262384,-0.037615329822140664,0.07219116208027411,0.21875
0.002386084887731444,-0.001480175975121249,-0.005407879049990754,-0.0064294818984466685,0.004156112998895537,0.0033186953290236815,0.0034726127328412503,0.2545099232916525,0.019851891872665017,-0.2749079880064727,-0.012068348990180625,0.002718973364030329,-0.010174060154440634,0.018257329277485558,0.2265625
-0.0033980622963675523,0.002607840980472901,0.009149039209212038,0.010110821324374063,-0.009305206908643688,-0.004924498191241778,-0.005375852413416195,-0.37025227190510046,-0.027378109715300327,0.4009768587455901,0.017244939824310877,-0.002202249924938864,0.013237449952265728,-0.027588183113663,0.234375
-0.009549867662079489,0.0069756672006129035,0.02470328545531377,0.027795900918821854,-0.02367162744085875,-0.013717453809523952,-0.014815862573793658,-1.0376533705027087,-0.07813466104648718,1.1203487535422187,0.04858955769933976,-0.007482845202707067,0.03823484150334819,-0.07649487417625514,0.2421875
-0.017417245827048174,0.012556442821431571,0.04459702850805687,0.05041985942834659,-0.04205199725990341,-0.02492555180808382,-0.026838299909065198,-1.892616210618843,-0.14293137965827285,2.0373007804090255,0.08860160983133498,-0.014172143300925638,0.07020814832000363,-0.13929010455862684,0.25
-0.017974600136845407,0.012946371485509194,0.04599476053009588,0.05203747495667841,-0.04336690070776591,-0.025690226514746187,-0.027649205230547542,-1.9543255606688577,-0.14732676367493852,2.1001790191105307,0.09136947585005233,-0.01459628908431294,0.0724646261769427,-0.14400220257861784,0.2578125
-0.005762001679279545,0.004290941936176691,0.015168169033519878,0.017028485560456053,-0.014884951362687053,-0.00829690558586992,-0.008973185251364717,-0.6304875572488028,-0.0468527088308727,0.6752068273410359,0.029312453522803036,-0.004197916884249134,0.022903238051719416,-0.046971003269408784,0.265625
0.011393773945826085,-0.007852876203074914,-0.028095510891564094,-0.032153675531588884,0.025129223057788856,0.016094807799162354,0.017204390172475135,1.2298951174784858,0.09377079597847805,-1.3234712189408517,-0.05770344043186186,0.010325074077909124,-0.04668363780660641,0.08968562985349755,0.2734375
0.021297605023378047,-0.014852019229397863,-0.053075600268456834,-0.06058795205873577,0.04821872563895712,0.030180128681577583,0.03229769853460258,2.3043255981234427,0.17457145389371734,-2.4748521518613367,-0.10783094553541893,0.018655931090026587,-0.08686709202015767,0.16884601954763612,0.28125
0.019118885206653616,-0.013301135282750263,-0.04760602584323215,-0.05440346233390379,0.043113429022839524,0.027105522042248805,0.028964117942034143,2.0682911981077523,0.15648598025059415,-2.218942265017822,-0.09672113925437056,0.016774323203858608,-0.07805781146633278,0.1517060335116353,0.2890625
0.01032424182601728,-0.007081194074363262,-0.025427926246169165,-0.02919906109685214,0.022600566805443166,0.014605848005295755,0.015544963481191236,1.1142519326171132,0.08461828261081453,-1.1959886834007376,-0.05219297385045964,0.009356048604026664,-0.042378598838487894,0.08156368945031597,0.296875
0.003804894776244945,-0.002480705221794469,-0.008971491450840339,-0.010481865643767895,0.007451787431435252,0.005318935927612063,0.005612036497136605,0.40734953299830023,0.031509601312234695,-0.4407733877977076,-0.019261828296132148,0.003900119799151915,-0.015911942973428725,0.029452009526719794,0.3046875
0.0009717878484937856,-0.00048191683558883487,-0.0018598750039163336,-0.0023846683756096466,0.0009135526831479573,0.0012953341387639426,0.0013190226708938832,0.10113955743102072,0.008291630884649315,-0.11238397196953455,-0.004940491202354135,0.001528307660803835,-0.004451914956482939,0.006940650339431685,0.3125
-0.003680572790794565,0.002817500122985665,0.009809929822682069,0.010870473486305175,-0.009926925482036107,-0.0052940323448228185,-0.0057715263077987985,-0.4022570346876,-0.030062552435825434,0.43256802660002225,0.018710520041304975,-0.002447954766068669,0.014351109180471345,-0.02985027718185258,0.3203125
-0.009874499157565296,0.007206437428603703,0.025431927407835283,0.028575976787675348,-0.02440631242618586,-0.014107548989081129,-0.015259963326444562,-1.0732235953007634,-0.08087949602484916,1.15704612326822,0.0501677884194076,-0.00773894299744527,0.039459304149298824,-0.07896918122687331,0.328125
-0.01070063549865821,0.007784038463580351,0.02758590069729578,0.030982784604692924,-0.026340409563685996,-0.01532630530842752,-0.01655854879196895,-1.1623253787180037,-0.08750476549805498,1.252199902290287,0.05433456739702944,-0.008435471564843654,0.04286429406347353,-0.08552229895010179,0.3359375
-0.006721749463294464,0.004962399048571006,0.01759484888141618,0.01967217256350967,-0.017045608972599827,-0.009694919460510492,-0.010477380961486144,-0.7314307145642642,-0.05489007329182003,0.7866538298156431,0.034149025670350754,-0.005033634270088491,0.02678627214267727,-0.05399124309624689,0.34375
-0.006320997619046473,0.004689903092970377,0.016564780615556406,0.018592314647909055,-0.016132390961010587,-0.009109660940378359,-0.009834961177466576,-0.6903272062671967,-0.051806579226007475,0.741262895725951,0.03217992443092374,-0.004689053718142011,0.02518231875829222,-0.051081255727885556,0.3515625
-0.008184937426011818,0.006023964414016667,0.02124452375718431,0.023919995306518643,-0.020530686182444132,-0.011734440502810122,-0.012674870996557572,-0.8945549859003428,-0.0671477780612058,0.9609614346338423,0.04167895517276286,-0.0062904903456325635,0.03272095972384117,-0.06614531462028352,0.359375
-0.00033929699319203914,0.0004683239489589374,0.0014683584442959563,0.0013686769026748822,-0.002253748406415194,-0.0005642309502722705,-0.0007155558929963261,-0.04301072202329668,-0.002639775599313666,0.046412239206307444,0.0018528330609589039,0.0003447237627728421,0.0008553017782099791,-0.003622994440998808,0.3671875
0.01637105689433317,-0.011371828014981588,-0.040663775165004544,-0.046530471787686184,0.03672926831381816,0.023203451354726026,0.024781027469409626,1.7713961806591858,0.13445807643150878,-1.9028930397097374,-0.08292270024939272,0.01450411878567393,-0.06693257580448415,0.12966522243591927,0.375
0.02148038576086122,-0.014988217597097477,-0.05354383835035438,-0.06107161608160087,0.04863609007737026,0.030458887043741487,0.03257208669521923,2.3255708427458823,0.1761722662850735,-2.4985364852583616,-0.10876559116932767,0.01882485760240275,-0.08758694703571604,0.17039989584888152,0.3828125
0.0023342944091551145,-0.0014254396002344263,-0.005227061087044829,-0.0060768008543531414,0.00395302136794972,0.003198096688176833,0.0033344881371934606,0.24681425332692158,0.019061851038391014,-0.2663037029939224,-0.011586208955698073,0.0025993623895244925,-0.009826374774905899,0.017680431880284207,0.390625
-0.02448473445757469,0.01755724587104392,0.0624529485373867,0.07080314887686712,-0.058589669978707265,-0.03497427290922755,-0.03760155433381868,-2.662801378497053,-0.20061393714207784,2.858669429563283,0.12438230194683594,-0.0200930794920203,0.09898098167418688,-0.1961285437891711,0.3984375
-0.029823834259624416,0.02132162616791626,0.0759132599268475,0.08599537561532417,-0.07098692051610206,-0.04256619274823482,-0.0457337242847918,-3.2393154562206,-0.24405559013007339,3.479927979234828,0.15133690659148485,-0.02458453992073159,0.120547411202211,-0.23849658777968016,0.40625
-0.00566690976166867,0.004215613481439223,0.0149204416580785,0.016615437340332977,-0.014602786615495347,-0.008177373181839805,-0.00885454614955858,-0.6159985680708316,-0.04600589886492098,0.6662725621212615,0.028793540350512584,-0.0041461317256550655,0.02243717076600465,-0.04566091835854655,0.4140625
0.025281226844932194,-0.01767874001629287,-0.06320618831518032,-0.07215852391376826,0.057566652542719386,0.0358750248319501,0.03837595374611106,2.7406896169342843,0.20732523206891412,-2.937573211883175,-0.12806758052642261,0.022005923784929663,-0.10315105499501749,0.20109580749984646,0.421875
0.034299807165486175,-0.0240500964099556,-0.085971822001497,-0.09798259469654695,0.07857694926389897,0.04872253871842929,0.052153691950612896,3.7159564816285773,0.2809307225901809,-3.9891363742015127,-0.1737498494726532,0.029634512311978393,-0.13970290866490023,0.2727634695834749,0.4296875
0.016864484459144926,-0.011715105729261453,-0.04196898191694148,-0.04796107231912472,0.03793267787749334,0.0239240480565129,0.02557818800379039,1.8230296620922595,0.1381277332242005,-1.9616327241767155,-0.08542351841792506,0.01493567607157061,-0.06893709552850809,0.13356191430179004,0.4375
-0.00587877977966412,0.004367376158349376,0.015421613229869955,0.017213535172018367,-0.015068483082460038,-0.008439758789712868,-0.009120138982286067,-0.6426479841223993,-0.04791217747772123,0.6858203610584803,0.029778532605087654,-0.004264387674778682,0.023315659351286697,-0.04766700936480659,0.4453125
-0.014619511142556555,0.010551716451705506,0.03746598370108484,0.042208049382012044,-0.03545270794330521,-0.0208881396651646,-0.022491819320088945,-1.5890051317682528,-0.11944432965059183,1.7062258708128606,0.07410477226153749,-0.011685591071346901,0.058750647673679914,-0.11705907667498178,0.453125
-0.01102185900577157,0.00801845288439223,0.028375507752494204,0.031883504458012656,-0.027102673724875143,-0.01577315577956947,-0.017037480123307292,-1.1990137232625584,-0.09027357065071522,1.2902590454053315,0.055985671492286414,-0.008700780634749949,0.044167254815682976,-0.08818673993011285,0.4609375
-0.005927507578127461,0.004421566896771286,0.015521174293504969,0.0173495133333097,-0.015246053630677735,-0.008514779060625435,-0.009257690548852355,-0.6477871642249082,-0.04878265351384073,0.6964567862290472,0.030221396220003315,-0.0044059674757985735,0.023534418403425586,-0.0476911930137029,0.46875
-0.0023572483996887675,0.0018873292026784232,0.006528731830157252,0.007200921727278105,-0.006907609070476357,-0.0034241597346829256,-0.0037736290036804207,-0.2610370999547461,-0.01930442721112691,0.2772695988218509,0.012044985898109702,-0.0013417678704822926,0.009067242316136839,-0.019573394788054678,0.4765625
0.0016108436986652709,-0.0009323688620292697,-0.0034550544884583284,-0.004134408854648784,0.00235583686745361,0.002214666328663991,0.00229663542945654,0.17001555322338643,0.013624289718472956,-0.1864119558111228,-0.008158662251693493,0.0020563197611039546,-0.00702659917669901,0.011825933344522453,0.484375
0.004428791040616876,-0.002924754487160987,-0.010533103078147699,-0.012208454297315416,0.008902361280861172,0.006196883691637684,0.00656472867116812,0.476629933106611,0.036738316000219165,-0.5115020692325286,-0.022383054604831476,0.00441829990879105,-0.018440989516535188,0.03441310327867796,0.4921875
0.003379535731453225,-0.002167452311454444,-0.00786456414968704,-0.009190395984159489,0.0064052629690786655,0.004677381610712343,0.004912955519789447,0.3630693561524373,0.027768073357763184,-0.384147948221549,-0.0168901805599463,0.0034590956313070805,-0.014157263474690361,0.026320717001420583,0.5
-0.002129780603535546,0.0017434158782963817,0.006043008288156115,0.006624603876830176,-0.006483124045486623,-0.0031684047297798105,-0.003516690919301491,-0.2356672603734507,-0.017613800567314063,0.25988155409068275,0.011139826286500489,-0.0012468854356258731,0.008215570834792267,-0.01758343027248122,0.5078125
-0.010962405620353933,0.007991010667534907,0.028338649524819255,0.031950606501176024,-0.027071943844023207,-0.015732352600897895,-0.016976747303537085,-1.1952129393074282,-0.08983786579727064,1.2866106507636028,0.05584782171841603,-0.008686050699960764,0.0440659305726002,-0.08820909114190309,0.515625
-0.01613598509019635,0.011637238654075968,0.04140383311230803,0.046760832313393126,-0.039072660251722346,-0.023095267974025984,-0.02483576254223504,-1.7559701210496976,-0.13199690815598733,1.885578514406522,0.08193519273986082,-0.012988247782907903,0.06504994936468285,-0.12950166826180629,0.5234375
-0.0069227422451980086,0.0051061518437309685,0.01813244962326739,0.02031392933966107,-0.017527170405163894,-0.009979099484499238,-0.010748076441336015,-0.7546357742778298,-0.05651729081834554,0.8105563709855672,0.03516683719372926,-0.005160879945522978,0.02761912406210552,-0.055886141723517496,0.53125
0.012895782339392052,-0.008915217173172183,-0.031940843206906135,-0.03655068328914441,0.02868856989006379,0.018252040676470245,0.01950354893937293,1.3956708898426868,0.10570045662548568,-1.4978478138240467,-0.06527184709115066,0.011571608688542435,-0.05285597766435719,0.1021782176195888,0.5390625
0.021088058243859086,-0.014703682365450076,-0.05265759964336197,-0.060102984363764836,0.04776507675841411,0.029938272494464548,0.03198986764293135,2.2830790286203717,0.1727919864177299,-2.452457532127936,-0.10678808899461296,0.018462439782292218,-0.0861133094656107,0.16743202407324764,0.546875
0.00763737287509338,-0.005187821978885818,-0.018703759611977525,-0.02158280440762722,0.016414234836096178,0.010793154410295793,0.011442139749627243,0.8238096480577168,0.06276509454437733,-0.8877583646956095,-0.038664765105597104,0.007098015501316763,-0.03150596131489559,0.06025576475200037,0.5546875
-0.006101446825415415,0.004523714646241654,0.015980427939947275,0.017833567551730677,-0.015581550239126067,-0.00877327083178681,-0.00951647951018874,-0.665553986284018,-0.04963677809107483,0.7106369202473087,0.030911728148784186,-0.00447642494684468,0.024261819757758728,-0.049208932691256195,0.5625
0.0002017913914565796,6.373803815100883e-05,4.556339177962171e-05,-0.00019138466639835814,-0.0008868643173658591,0.00020973672572534722,0.00014162635238780576,0.01748653077502491,0.0019337660905198836,-0.022583476045954395,-0.0010304102519524312,0.0008709340576673167,-0.0013379444475322153,0.0008634068539772555,0.5703125
0.012822129946125423,-0.008854104658070953,-0.03182363910839465,-0.03639440553431029,0.028490601094211837,0.018192326710814808,0.01942210933285618,1.3847482547871446,0.10512757489687247,-1.4887895414968815,-0.06493318928790671,0.01150941048824046,-0.052593877746152526,0.10129382507591776,0.578125
0.008906039999885413,-0.0060789446467528025,-0.02190229778670505,-0.025206689785267612,0.01932456652153168,0.012607052375518226,0.01341818524952977,0.9609461688898576,0.07300123683123838,-1.0294927644720875,-0.045028847196751515,0.008154277717911862,-0.03672627475729797,0.07026084616318762,0.5859375
-0.004990575754531702,0.003744193594530155,0.013221997552587274,0.01469877792261174,-0.01307535477461184,-0.007204147792340944,-0.007824757478820174,-0.5435166064371952,-0.04071005457064634,0.5889621715402966,0.02542601504938197,-0.0036048054588965622,0.019698467742571082,-0.040236807807752,0.59375
-0.008547504158706035,0.006257969730355772,0.022212252393040352,0.02502522126905571,-0.021362792249328313,-0.012278048031018274,-0.013250998471380606,-0.9294308342525306,-0.06983369474161102,1.0015025565065407,0.043472025403223855,-0.006595269848809551,0.03421147002960314,-0.06870115642781734,0.6015625
-0.004270840455114328,0.003246712849554225,0.01141812433021288,0.012779645043036662,-0.011398009586318685,-0.0061850034378523626,-0.006709402376326655,-0.4690211633573408,-0.03500493073249097,0.5036951087209481,0.02183177327783337,-0.0029768592056417685,0.016908482843970337,-0.03493189274307793,0.609375
-0.007139083999228773,0.005288250743493707,0.018676291656110563,0.020877893326447503,-0.018087098156112355,-0.010275795060870311,-0.011102325531970983,-0.7816386469800096,-0.058607543035140056,0.8400499652466548,0.03638519200986145,-0.005418119628906795,0.028516102387603662,-0.05778920486795831,0.6171875
-0.012721062784584257,0.009228523447873139,0.0327717947503817,0.03679413926770317,-0.0310913882425209,-0.01823469438656786,-0.01965079481830371,-1.3843844496276472,-0.10412150588071008,1.490691145991642,0.06463850769951283,-0.010139019787687305,0.05110238610067953,-0.10196902151917618,0.625
-0.007606141517431058,0.005592625835656103,0.01982958604980536,0.022186766174277197,-0.019157154519545215,-0.010942627577416063,-0.011845973804024586,-0.8267563127040943,-0.061986829939604846,0.8922166812165016,0.03866323208240337,-0.0057944745295635805,0.030340773281627917,-0.061035241722394745,0.6328125
0.0019177023606348437,-0.0011474182825702672,-0.0042421888711899934,-0.005010507747934118,0.0030484214841544513,0.002639326851776678,0.0027116557102869914,0.20565121158796626,0.015929048803350054,-0.22002175357960196,-0.009599159138858669,0.002268335036921679,-0.008245164384098046,0.014746385609940498,0.640625
0.0016522851456883482,-0.0009491478328658389,-0.003568531539046712,-0.00419679422207928,0.00242672187642017,0.0022650694487256974,0.002322100112324964,0.17435829049541543,0.01349062686050315,-0.1898123298291912,-0.00820101312353072,0.0020390111485221706,-0.007115357327066348,0.012416201457905318,0.6484375
-0.0026641937602752113,0.0021075427603351174,0.007349966715354191,0.008180681814720932,-0.007641071161840467,-0.0038984722493871473,-0.004262278316306743,-0.29519330600309734,-0.02186748416557745,0.31347567431904116,0.013680357122949419,-0.0016005469472770099,0.010397948810571253,-0.022152383796880906,0.65625
0.0030097361804459232,-0.0019154616793483272,-0.006958416516735926,-0.008124028970876473,0.005585666220928004,0.004163693289977449,0.004395452414835936,0.3206746952505637,0.02487978739070972,-0.3469749652573066,-0.015150266961425253,0.003221699266044831,-0.012663686985624934,0.023025520932184736,0.6640625
0.012779918006078132,-0.008832534914750034,-0.03162098883833984,-0.03622896618483854,0.028369827512917858,0.018071590893049706,0.019293582868926122,1.3815430044094847,0.1050302620269572,-1.4839170821194991,-0.06472331675874836,0.01147867962162315,-0.05234894849620119,0.1010782113276405,0.671875
0.01134395326410434,-0.007809870839159844,-0.028016163777885763,-0.032204758381018876,0.025030905135686416,0.01603725814419934,0.01708880950649078,1.2263636793339279,0.09305481660295091,-1.314993783727464,-0.0574115519319739,0.010225791206590912,-0.046553270004349695,0.0899064240288253,0.6796875
0.0022241250932306974,-0.00135170028470178,-0.00503957793178798,-0.006055445465162393,0.003775247331266561,0.003077405379777409,0.0031928351401227326,0.2365799718028478,0.018153282593469704,-0.252802902689381,-0.01115047838718339,0.0025007325242148294,-0.009572819752709927,0.017201801456182945,0.6875
-0.0004504862672913645,0.0005343244290222555,0.001675210596611115,0.0016819990942596777,-0.002450062762129417,-0.0007018172433964406,-0.0008354176519207552,-0.0543124159871659,-0.003592197509941232,0.056210091220558187,0.002346418089576679,0.0002809215187720211,0.0012603372020028429,-0.004444746152530053,0.6953125
0.0022910483838599225,-0.0014154116758426291,-0.005227178345205021,-0.006161178550851392,0.003956478833882665,0.003204591187691231,0.0033670660993799987,0.24377349738240753,0.01918549229256634,-0.264669429082553,-0.011633209051959753,0.002635217619065086,-0.009866311438926077,0.017267444245824035,0.703125
0.0005046816271342745,-0.0001490822707114624,-0.0006576893405553175,-0.0010878369887749146,-0.00021072851692782743,0.0006307724446397831,0.0005896915331068625,0.051841978656048324,0.004554188711545488,-0.05430015663231682,-0.0025351596062651105,0.0010890446458387973,-0.0025920997798788924,0.00333347383376927,0.7109375
-0.00339637186331247,0.0026257947884581133,0.009220212359594903,0.010086603129687682,-0.00933514390876411,-0.004948779987425629,-0.005422430387419379,-0.3708515124814275,-0.027759998908468992,0.40360776493633405,0.01738853399310206,-0.0022825540217474827,0.013276320197548487,-0.02745240062854486,0.71875
-0.0016245886541674907,0.0013816485876487173,0.004719803286880519,0.005068721352227085,-0.0052265709441597745,-0.002415470660682468,-0.0027125032936388465,-0.18031393270480908,-0.013501695699958701,0.19735299806311,0.008480106829068738,-0.0008023781029090906,0.006111330125985299,-0.013447758704932863,0.7265625
0.001602017133750057,-0.0009086639253756175,-0.0034508174603487913,-0.004129166628690249,0.0023136210145446325,0.0021978115819951518,0.0022593068698922684,0.16839772894200192,0.013078025723981227,-0.1815526943965064,-0.007959644151967888,0.001985416327020462,-0.006975704427784389,0.01197127283268255,0.734375
-0.001026818555784099,0.0009371576758811414,0.0032111629622210707,0.0034035985689466848,-0.0037850804641253854,-0.0015563389508043662,-0.0017370702191631992,-0.115924928005931,-0.008160671589816797,0.12278997156550442,0.005257968878572111,-0.00017504395187450519,0.0036938477109499635,-0.009014403609542,0.7421875
-0.005641666876728788,0.004199636055203803,0.014893788523874059,0.016617907882278977,-0.01455540239212747,-0.008152803559840988,-0.008811982853587296,-0.6152314648868437,-0.045929678508452504,0.6618489177443472,0.028666906699117457,-0.004084794663930142,0.02241998882025294,-0.045603591714976306,0.75
-0.006601281192569902,0.004890226602481668,0.017304644924037337,0.019376955267951183,-0.016846389418639696,-0.00952056419512832,-0.010311266719549003,-0.7196875494611944,-0.05402796810651132,0.7762778378077174,0.03364501093297277,-0.0049591160271357055,0.026306478741256467,-0.05315745741149832,0.7578125
-0.006315777037925824,0.004698131367456109,0.01656581546938534,0.018569303768487654,-0.01622007182827391,-0.009099213164761068,-0.00988256817242218,-0.6899984208159456,-0.05184860517552747,0.7437485842763014,0.03226650232608175,-0.004756543166851249,0.025148017369499717,-0.050961932632518706,0.765625
-0.006555656336617643,0.0048625371240540475,0.01719272708997101,0.019257765553824732,-0.01676214766824811,-0.009442836171926108,-0.010233151283475524,-0.7164782593879593,-0.053671370848519036,0.7697812527701464,0.03342607669654754,-0.004924946454564223,0.026141247058565555,-0.052997425697370995,0.7734375
-0.004643206030740681,0.003496931525753374,0.012374071743825798,0.01378124734046877,-0.012252329892060628,-0.00672942575413599,-0.007288687878580558,-0.508884852121254,-0.037760421725172987,0.5443165684452712,0.02361714631028995,-0.0032414572997645726,0.018396522079407812,-0.037857174884517605,0.78125
-0.0010889489558510142,0.0009808443116291936,0.003342731910128602,0.0035847868533070088,-0.003934243564692492,-0.0016520420282668126,-0.001840313429213722,-0.12364311730822329,-0.008658963819867372,0.1296123636514804,0.00555537211526346,-0.00021858832314424487,0.003952274277896782,-0.00955367198490917,0.7890625
0.003101141573876006,-0.001974287072316307,-0.007297237995871297,-0.00849105609413216,0.005834164024041761,0.004347024153463226,0.004562703826548959,0.3308864359853724,0.02540627942858107,-0.35662367731591144,-0.01563902237798656,0.0032816368224566446,-0.01310237892165524,0.02399922725357587,0.796875
0.010798162106257302,-0.0074195984012785975,-0.026706890707882135,-0.030640204753073212,0.023784432724678905,0.015313595912040559,0.01630145046635384,1.1675169686360665,0.0883903950216402,-1.2520789842658417,-0.05463278387481292,0.009757655316816879,-0.0443719539324497,0.08559512163594499,0.8046875
0.01802909752158137,-0.012549127906888372,-0.044893043012227754,-0.0513606261351006,0.04066747236037775,0.025582432004520688,0.027324935723287164,1.9539484962623643,0.14793720749870187,-2.09640991903154,-0.09134224612863427,0.01589038744301077,-0.07369687944663482,0.14325363782807987,0.8125
0.014046718011027878,-0.009736592897008596,-0.03481057217560013,-0.0398345973880385,0.03137994339466276,0.019881506435530796,0.021236704060996873,1.5211955049392196,0.11556297831318157,-1.634504153989005,-0.07117946004180567,0.012543111225943381,-0.05748348838001205,0.11120822465240797,0.8203125
0.0009234880388039239,-0.00043482319671503384,-0.0016942442499250818,-0.002159660645305587,0.0007288249646200791,0.001186054010266664,0.0011992850285612038,0.0940963087077684,0.00783379184537978,-0.10338307270749167,-0.004567247749310312,0.0014202703409161275,-0.004209333602886717,0.00631437764642988,0.828125
-0.0077440313240867975,0.005715398855465403,0.02016781641265367,0.022601015342546802,-0.01952706170945587,-0.01114118197032761,-0.012031854724430245,-0.8479951636956597,-0.0635356068899574,0.910846541898432,0.0394651979477376,-0.005948521808548675,0.03091646435726826,-0.06269734377638143,0.8359375
-0.009125824939663511,0.006688703087900289,0.02363586793915332,0.026485858536022637,-0.02273684058716804,-0.013083869470811051,-0.014138511559873449,-0.9954312967189597,-0.07481060893348178,1.0724815886550614,0.04645491261036912,-0.007118648291783317,0.03647585471537545,-0.07339435079581909,0.84375
-0.007513124575997048,0.005531498449914555,0.01956214749875477,0.0219478435223001,-0.01894637241354354,-0.010779658747904116,-0.011677537323916075,-0.8174051511785275,-0.061300731601593016,0.881090599188175,0.038219781130732954,-0.0057248284533002415,0.02996920081084885,-0.06041599309964192,0.8515625
0.0021337785992792506,-0.0012996775545522816,-0.0047507440486799085,-0.005576662997690509,0.0035450897641681792,0.002936986946902278,0.003052412095227619,0.22826892250948083,0.017727311801714975,-0.24534703727311707,-0.010689408817415504,0.0024636780453283873,-0.009092042996308882,0.016280724325837298,0.859375
0.016797812468218626,-0.011671881984575194,-0.041742426555444766,-0.04763539225624864,0.03773914750070326,0.023805764475458388,0.025462921676226304,1.8164403657766224,0.13759558091115345,-1.9534984391898462,-0.08502810008151804,0.014888289027533958,-0.06859189026554609,0.13300042199212353,0.8671875
0.012945958440912382,-0.008948881484287498,-0.0320716209479943,-0.0367174474743457,0.028801254764763154,0.018348350188582906,0.019613656415591662,1.3995015272014106,0.10603328194426558,-1.5043034256045646,-0.06556323934927107,0.011641452987628824,-0.053055288547427304,0.10246814920743882,0.875
-0.014540408539747661,0.01049437082101785,0.03725276244464673,0.042036282007003566,-0.03526426107280065,-0.020762765567924092,-0.02235768899091193,-1.5785687033854556,-0.11885797612893048,1.6981742689980126,0.07373599686950638,-0.011626844541016125,0.058415908846336524,-0.11629562091188234,0.8828125
-0.03257505912619988,0.023261124822032693,0.08281078945719018,0.09378244809083974,-0.07736608437089795,-0.04646619309013657,-0.04994986242258895,-3.5341400786478157,-0.2665306143649243,3.8012953288078353,0.16522858520203298,-0.02692987030335447,0.1316400726283086,-0.25991811858212927,0.890625
-0.02079962875615373,0.014943465981046126,0.05315149930985632,0.060034411298074554,-0.04996996791528985,-0.029740153298981244,-0.03201735420797127,-2.259970538155318,-0.17036215531971458,2.431885155570593,0.10563005962807415,-0.017002957517641984,0.08392852055016234,-0.16618182796558703,0.8984375
-0.0021040170541168357,0.0017210413560408003,0.0059437245691249295,0.006416223141875775,-0.006365183494882117,-0.003113552310411287,-0.0034474612582971235,-0.23497952935457045,-0.017442835918334728,0.2529285593897453,0.010853890786084232,-0.0011691784702884754,0.00807972989291878,-0.017400760954141226,0.90625
0.0034486938194151803,-0.0022155591990991787,-0.00811840510475095,-0.009464898446958388,0.00663530529090309,0.00482447625623758,0.0050901014744575085,0.3668731290082929,0.028188076593135245,-0.3978696256830673,-0.01737801615620578,0.0035819982793726746,-0.014461201325219374,0.02658129658056117,0.9140625
0.007594743470684621,-0.005159995275512668,-0.018555267650754322,-0.021288775366839378,0.016319276235202154,0.01071796455783234,0.011425687204518722,0.8175732760048716,0.062472453478202856,-0.8833611445023827,-0.03844965885132598,0.007117956242484108,-0.031265594748062835,0.05945528957123554,0.921875
0.016982457076801315,-0.011804824606573294,-0.04220027422284003,-0.048213836639753475,0.038183315920037444,0.02404500580486038,0.025701833906501464,1.8372575684314458,0.13949324552934617,-1.975494233689886,-0.08599906433487294,0.015025395011188797,-0.06934572181286358,0.13441975154303906,0.9296875
0.018591368944543094,-0.012935931217540947,-0.04628975294814924,-0.052879910048443814,0.04190614873638736,0.026332946281900138,0.028123203638742118,2.012787507213509,0.15248830505708771,-2.159361348386071,-0.09405865173003129,0.016325297141715607,-0.07590857153779168,0.14753441741530654,0.9375
0.012674504964583094,-0.008742393210377944,-0.03141479530211396,-0.0359139928813983,0.028096758757414735,0.017944300331345028,0.019127882262042185,1.3702183916692314,0.10379124493066387,-1.4683800596385508,-0.06402009841194656,0.01130938504182924,-0.0519410699633641,0.10036010209366229,0.9453125
0.011492411854677306,-0.007911298960448714,-0.028427062481695204,-0.03249362750677478,0.025357244368045335,0.01628338090243217,0.0173882934747208,1.2404542909257203,0.09416494378194637,-1.3327325265507481,-0.05811512321496839,0.010371608748991188,-0.04715493098731791,0.09063637063828532,0.953125
0.009025278052230995,-0.006181011332739373,-0.02217111220730928,-0.025459329899554056,0.01965497116455143,0.012771705232228439,0.013645862670036228,0.973963252901238,0.07427602112967692,-1.0486720186536824,-0.045760134260451335,0.008345427904860175,-0.03716341952234532,0.07095060164026544,0.9609375
-0.004217172124474837,0.0031817841808384757,0.011232661849823694,0.012423430590308116,-0.011188054555399708,-0.006073427748448716,-0.0065960070268005775,-0.458934970116899,-0.03403037100189831,0.49357449904964124,0.021323602376338964,-0.002874704397763444,0.016521220311962934,-0.034184492655801035,0.96875
-0.014639655294561666,0.010568855634134271,0.03752128344613593,0.04230009259176599,-0.03552383273243034,-0.02090770747572617,-0.022547785789017945,-1.5885588015105034,-0.11966445011753037,1.7105288106372512,0.07427816769040618,-0.011763006136620012,0.05881083202648952,-0.11698164811575866,0.9765625
-0.011533568759275607,0.008389448307180396,0.029741315626799294,0.03348622931353864,-0.028344579219085345,-0.01651671810433728,-0.01783611804171572,-1.2549649078489258,-0.09461786260100703,1.3506631599790464,0.05868014489108463,-0.009171140293569186,0.04630395483038903,-0.09243114000640666,0.984375
-0.009689169628978814,0.007087261172942354,0.025160192762057783,0.028274693466011643,-0.024055169119018033,-0.013933016384025377,-0.015029284695584535,-1.0575981474358442,-0.07955705662230445,1.134767382311646,0.0493469193504154,-0.007577359593889729,0.03892168045864272,-0.07801670008140518,0.9921875
-0.016469927794290334,0.011873310376409651,0.042254298649857115,0.047712473063986176,-0.039826481911517664,-0.023586788225031612,-0.025366124476197283,-1.791962220919404,-0.13479949872645258,1.9231642319798703,0.08362598878036132,-0.013264026934711808,0.0664330788323966,-0.13204889253184943,1.0
-0.01570042120092793,0.011323212636977914,0.04022060347903098,0.045468583837361735,-0.03801406001824313,-0.022453466451806205,-0.024172327189926623,-1.7067611262777989,-0.12833492802988575,1.834109294350372,0.07967085312500954,-0.012608609324955656,0.06324308269883853,-0.12577498584000743,1.0078125
-0.003140236263219284,0.002444991940950188,0.008468971840950334,0.00942320868967032,-0.008750767645204051,-0.004546689831506922,-0.004998490129769452,-0.345127237045869,-0.025687868164348742,0.3725436189021753,0.016052105288906496,-0.0020208616135666277,0.012248098690967794,-0.0256071623764845,1.015625
0.0059062959404041345,-0.003950077733305215,-0.014339074700958828,-0.01655786757483737,0.012331218507891373,0.00832757484237394,0.008803805085156676,0.6350888994039764,0.048162244485333364,-0.6811922725730474,-0.029758533149197252,0.0056101738908698765,-0.024455072380543872,0.046543523940913434,1.0234375
0.009665142876705793,-0.006622065454885993,-0.02378598700293423,-0.027363382310139368,0.021124645580903118,0.0136669015198487,0.01455718208799374,1.0438388307594206,0.0791523089497934,-1.120996251519532,-0.048883416341250326,0.008822272216473045,-0.039726303209503246,0.07649412085385801,1.03125
0.015889067799200293,-0.011042029315344289,-0.039480065451020604,-0.045166587858603516,0.03566508741800584,0.022519998154182368,0.024087414713526885,1.7199731463022463,0.13057006772255278,-1.8480260506064339,-0.0805414610959769,0.014134882803473088,-0.06500358360161188,0.12586811729504543,1.0390625
0.014861822625618375,-0.010311081059083382,-0.036887345192124193,-0.04214990015131463,0.03325125919150417,0.021049418625546615,0.022521982936951384,1.6074146474271254,0.12218907910570567,-1.7277205437942253,-0.07530354635941913,0.0132565870914207,-0.06082271350336348,0.11742318091302192,1.046875
0.0006782475838304553,-0.00025736447349811495,-0.0010970093370422603,-0.0014871014652908772,0.00013559437837365755,0.0008567901870078869,0.0008445457816523885,0.06788100477234792,0.005610254911437751,-0.07224617862840915,-0.0032608334733264096,0.0011949951614819573,-0.0032686681488044824,0.0044797414985107715,1.0546875
-0.004915863354047704,0.003704212976624852,0.013006536085812918,0.01448976955789421,-0.012915852398061768,-0.007093985049840212,-0.007711435950093081,-0.5372796476613421,-0.040356461030947685,0.5811526867180518,0.025138764914211985,-0.0035711065579178644,0.019390117466792745,-0.03978210901368927,1.0625
0.007928825585914177,-0.005398438736762323,-0.019406839808320094,-0.022327449402793766,0.017072441566876425,0.011195685861402953,0.01189806471379353,0.8581093845348692,0.06522150269368754,-0.9177576620543682,-0.040083878015663474,0.007328296249542551,-0.032725806937144324,0.06262650088478267,1.0703125
0.01176800442098957,-0.008119801434100083,-0.029056536170865174,-0.033240766106256765,0.026049402190917576,0.016640354774990318,0.017753010364734145,1.273548106191886,0.09690017703293408,-1.368720014965253,-0.05960995833406065,0.010616734293106556,-0.0482055349589881,0.09294762318246268,1.078125
-0.0069118858218957585,0.005110850194459271,0.018108196804385482,0.020334691996316497,-0.017525769251439654,-0.00996451401398862,-0.010772077864008082,-0.755558344642849,-0.05644311420997466,0.8072874175412109,0.035155115225964484,-0.005188696779588561,0.027660557788324068,-0.05601457574610039,1.0859375
-0.019140331083693476,0.013771627448175486,0.04892185460346744,0.055267366515371806,-0.046055115472278835,-0.02734403386545753,-0.029425246966939652,-2.0824653388061645,-0.15697220304334988,2.2345341086724875,0.09718776263565954,-0.015549771845415577,0.07720811862078544,-0.1531821631102365,1.09375
-0.007911137904433452,0.005818125471622616,0.02052850045027079,0.02296241550178508,-0.019857533168673405,-0.011325182659321392,-0.012263580025523114,-0.8623041537891268,-0.06484268719272078,0.9278300932755097,0.04019153374202489,-0.006046941818258842,0.031544272853798266,-0.06344710932534901,1.1015625
0.003351265728218876,-0.0021554922460211828,-0.00786073999761039,-0.009261917661284081,0.006393261184106684,0.004687580802535112,0.004909704451430959,0.3597819081970837,0.027703532541667332,-0.3843585109522807,-0.016926421675326594,0.0034789367345662747,-0.01411687447184008,0.026152008482824143,1.109375
0.0011175199137355612,-0.0005657552503728746,-0.0021496834298198827,-0.002707957071799737,0.0011326017174185848,0.0014589974284313374,0.0014642370297059167,0.11494154570779813,0.009300595213082128,-0.12394025396665047,-0.005498914811112388,0.0015713591391857782,-0.0049402147790325425,0.008022658976251998,1.1171875
0.002046218218854925,-0.0012194561886033906,-0.004511139932501088,-0.005336900741414686,0.003296383235216685,0.002785175050008165,0.0029039068518638537,0.21438418233039436,0.016644902278481838,-0.2325409896971556,-0.01015997606823317,0.002366508505988087,-0.008707263287976136,0.01535100666637788,1.125
0.008078327421672138,-0.0055020390502783,-0.019832441741783786,-0.02273073642909145,0.01745377198413836,0.011433333308806469,0.012184458807216421,0.8714588675398108,0.0661549879768969,-0.9377022095977564,-0.04086705347648599,0.007517150079092057,-0.03329800329615856,0.06364260756514661,1.1328125
0.0012352967821320643,-0.0006731875208811399,-0.0025931013468518008,-0.0031936005973108297,0.0015625046714380427,0.001719782912838595,0.0017589532866449423,0.13272522256437763,0.010434840928463359,-0.1419183546001621,-0.006291687370616256,0.0017469963922618,-0.005599975042184526,0.009333141390573962,1.140625
-0.012132111456832465,0.008791219715103224,0.03121850470009086,0.03514172602916025,-0.029671650502676367,-0.01735720541899969,-0.018716615848156412,-1.317004147206607,-0.09900286585739462,1.4183611601792139,0.061556854264083985,-0.009613592924290289,0.048673322227309364,-0.09712592384158203,1.1484375
-0.009233296264482197,0.00675420521848255,0.023958207534508592,0.026874571397014144,-0.02301408260462956,-0.013282441699644584,-0.0143566233001671,-1.0047747099655528,-0.07552837634557251,1.0850112909430876,0.0470232709657738,-0.00722427969272831,0.036950696442682014,-0.07406190808759931,1.15625
0.0024132435577050035,-0.001482638385610828,-0.005466453649997402,-0.00648319421719473,0.004139713925618854,0.0033065266570289956,0.003445705560432356,0.25689429558498955,0.01967441276427222,-0.27186249506536836,-0.011991983020302653,0.0026324450886375628,-0.010307991088718438,0.018618093602175374,1.1640625
-5.593058554639247e-05,0.00025754804337090243,0.0007386878245316792,0.0006304835322787414,-0.0015498753300257975,-0.00017525794832793748,-0.0002600461766510873,-0.011131732059207896,-0.00043551907025779865,0.011639732353842929,0.000421965776442682,0.000600845782716723,-0.00028345273826852266,-0.0012803164225209174,1.171875
-0.007552242039537406,0.005553658210625149,0.019698222427507104,0.022133003779625644,-0.018994881763766205,-0.01084842533938593,-0.011690610229235529,-0.8234315831221244,-0.06157349155858076,0.8823239067392072,0.03834230939962661,-0.005707336484640617,0.030154153511284476,-0.061120086052528784,1.1796875
0.0025608998127394926,-0.0016039285386761372,-0.005797651157084848,-0.006911764509563845,0.004576902679000764,0.003528647689553036,0.003709005045362794,0.27475798141614577,0.021375910146735295,-0.2945675175552862,-0.01291914329071587,0.0028227889273072884,-0.010885260487207471,0.01964829254043828,1.1875
0.020551971261326057,-0.014325629916021992,-0.051244701890991624,-0.058544740352482354,0.0465140621545058,0.029143371346298616,0.03114501639819553,2.2258312092796952,0.1685589652959183,-2.3884082313780564,-0.10406637087063246,0.017999013115271464,-0.08388791971620439,0.16320059363974063,1.1953125
0.020773297835013266,-0.014468783904469205,-0.05183400423776966,-0.05915172946715137,0.04700999921356643,0.02947158790990044,0.031490495188293874,2.2466346793820784,0.17006703119730623,-2.4141099515285847,-0.10513746826403171,0.0181817782299082,-0.08473351143173256,0.1648046024943232,1.203125
0.003582602261265324,-0.002301769110999359,-0.008412930721469895,-0.009807002220149793,0.0069034523684723586,0.0049974730456538025,0.0052708533852737745,0.37939542300429974,0.029187472421121345,-0.412646671840167,-0.018001658931695228,0.0036813181766935906,-0.014930423498407052,0.027522789914660877,1.2109375
-0.011278203451314186,0.008200564454612152,0.029108946335707115,0.032781019156095575,-0.02773270983661044,-0.016155987217453458,-0.017399137401224455,-1.2304731552171257,-0.09226363084306653,1.317802915856595,0.057253487885412645,-0.008850969461130995,0.045320424839612766,-0.09084338174847208,1.21875
-0.013384158133526409,0.009678553753431424,0.03435733757937595,0.03874440307936418,-0.03260382606329521,-0.019131335099301795,-0.020617723467549046,-1.454607955074912,-0.10925360070364883,1.5632238803699194,0.06787299183399514,-0.010643965349323234,0.05376330796457512,-0.10726394672170103,1.2265625
-0.005256938302638829,0.003932492622440071,0.013787823137166425,0.015421661445232616,-0.013656938252065274,-0.007546180968405244,-0.008232844629931207,-0.5721368803437347,-0.04280712600955734,0.6171092050321482,0.02672530037059238,-0.00381546418193746,0.02075982531815572,-0.042299700479184896,1.234375
0.004057974259533705,-0.0026482116875878154,-0.0096791734820008,-0.011242578053098373,0.008019928872309264,0.005703685215818153,0.005976172498394727,0.43603366800959487,0.03317996832217197,-0.4674162548241399,-0.02041031420863265,0.004045364643514707,-0.016984176524263817,0.031834262975735786,1.2421875
0.003816447690832138,-0.0024811734042313282,-0.008992557291639674,-0.010519246608970788,0.007450590553307881,0.0053467644104586,0.005631679202784578,0.4093065070682897,0.031208764777237642,-0.43951322408462973,-0.019205934725674605,0.003875834182239068,-0.01598172577363425,0.029772052514340903,1.25
-0.004667093393069185,0.0035087514379375795,0.012432292525209946,0.01381237123537776,-0.012290312467465174,-0.006736096609273421,-0.007291134359530672,-0.5092135026744339,-0.03794730755055501,0.5482013756581173,0.02370935142091849,-0.003262107517111637,0.018417489142091178,-0.03789536168170645,1.2578125
-0.008030896784235499,0.005889182674514464,0.020895651559081095,0.02347998879814779,-0.020118741278260747,-0.011545531324437574,-0.012443670093972327,-0.8738636561263962,-0.06540018653632902,0.9410313751709593,0.04077140823502828,-0.0061253693496648234,0.03207713914370419,-0.06472757698861689,1.265625
-0.004439933966066237,0.003363200081722546,0.011825141597842356,0.013195168029635029,-0.011774209117131552,-0.006458688971607309,-0.007006738745487833,-0.48578325406520245,-0.036334053487825764,0.5251425573897849,0.022700000433048116,-0.0031471335794988563,0.017547866034075984,-0.03602611984421901,1.2734375
-0.0044291892843943545,0.0033623374885498546,0.011792247999849752,0.013126061430890594,-0.011757414117527388,-0.00643166129238279,-0.006998324185103145,-0.48449888814783837,-0.036489793809130235,0.5243631733177024,0.022709120862387876,-0.003164717232408495,0.01749557043116839,-0.03577310389952049,1.28125
-0.0038880041853797272,0.002967673138358721,0.010409519422524986,0.011549855542172856,-0.010462665811116852,-0.005627404097582316,-0.0061356539891553215,-0.4245831859615517,-0.031762193925172225,0.4579064500649184,0.01985488242633532,-0.002664837492470806,0.015259651390956544,-0.031524706346402045,1.2890625
0.009811880943121565,-0.006736843752635323,-0.024144054844189047,-0.027673742288860277,0.021489233132200296,0.013870551566117254,0.014800869792962515,1.0601136663165434,0.08083070057031563,-1.141390392738051,-0.04971182272707404,0.008981221757853357,-0.04030536053555032,0.07725695671313251,1.296875
0.0235998705988392,-0.016484158804236933,-0.058884259652265285,-0.06714814937321979,0.05358569625417051,0.03346192249918076,0.035831451476364164,2.5523555474758863,0.1936058578441205,-2.745993534751244,-0.11954920798336752,0.020643060891382004,-0.09618828752058259,0.18686340716186636,1.3046875
0.012295430954904147,-0.008469134477509715,-0.030353273564423803,-0.03479420537777404,0.02718042097924373,0.01737227571937036,0.01855323869681097,1.3255877612444844,0.10057915777157968,-1.4246555854745857,-0.06211131234401639,0.011026719761495926,-0.050334007117178545,0.09701019148736446,1.3125
-0.014541814766521867,0.010520193441610154,0.037306242740848934,0.0420348587021831,-0.03536750561863023,-0.02078414180277927,-0.02241362176887142,-1.5821303738781125,-0.11924459618437751,1.702397987768857,0.07392134154366761,-0.011705072728399428,0.058478706947268054,-0.11641981606873396,1.3203125
-0.022935262789297826,0.016444242188730453,0.058451561672848436,0.06608509146456668,-0.05487445249731096,-0.03271297871082994,-0.035217865012772326,-2.4899372894109453,-0.18762300303865953,2.6761669989895287,0.11633521622218104,-0.01877362958954237,0.09251786711705834,-0.18319774079914017,1.328125
-0.007027845335776143,0.005180881250235377,0.01833388045416813,0.020566958830354726,-0.017765839187614863,-0.010090964935894576,-0.010924302111452101,-0.7656075727969652,-0.05723280754081183,0.8202702336466375,0.03564181186201888,-0.0052692898855214885,0.028027987451295578,-0.056658950527495054,1.3359375
0.008829855725574208,-0.006033981505717373,-0.021696910834820626,-0.024876214322364008,0.019187164311091767,0.0124868225913575,0.013312233528796394,0.9523056432203387,0.07239786028009514,-1.0253899466976424,-0.04469962013906825,0.00815989849517938,-0.03632421057475761,0.06956361213434398,1.34375
0.011619670570577383,-0.008005189776702382,-0.028813634571539914,-0.03298464301616994,0.02569783747579138,0.01650061068113139,0.017601612238014864,1.2553666795626979,0.09519412452472607,-1.3479423654791776,-0.05885608507015403,0.01050910363220211,-0.04774367754911697,0.09192444981676479,1.3515625
0.00820320635326167,-0.005593748749399367,-0.020197490914186732,-0.02325931304938759,0.017756529492683783,0.011635809446614468,0.012364252967850124,0.886835148108292,0.06747646678835358,-0.9499837709869497,-0.04160280678142635,0.007603651682155125,-0.03390786156835214,0.06488332011626824,1.359375
0.003925616985776256,-0.002566657314592735,-0.009277015141746368,-0.010872377231102244,0.007751486606348098,0.005471102165959313,0.005757365612303122,0.42303699129868166,0.03250961553571185,-0.4521496794850382,-0.019848347876708552,0.003957141552861811,-0.01641252937711197,0.03077797368444967,1.3671875
0.0001820084549060975,9.501937221785359e-05,0.00027916431292909874,6.258297126657748e-05,-0.0010544703207020492,7.958651056889457e-05,-9.60507581945999e-06,0.014852752353743002,0.0015290514248921683,-0.014897163297906248,-0.000669367661795719,0.0007546331259829273,-0.001065960295962979,0.0007418643719557861,1.375
-0.0004996175792076715,0.000585113006399875,0.001963108398757287,0.0020703083570018494,-0.0026613850497875964,-0.0008702799047236434,-0.0010176893578727924,-0.06062956801842856,-0.004290350631251499,0.06502614843631577,0.002867166090923675,0.00017671003031945312,0.001696268237203259,-0.004869979660855047,1.3828125
-0.002199825792015927,0.0017780646684604057,0.006158558500721649,0.006817895574663618,-0.006552257007513167,-0.003233020205274512,-0.003541466005072104,-0.24397007336122561,-0.018037488839508894,0.261041975724596,0.011342018212914072,-0.0012160743866715003,0.00846411237788033,-0.01840456510751091,1.390625
-0.010297980434416105,0.007493192299882512,0.026575594988893576,0.029892283056830945,-0.02537075788609947,-0.01473753933131846,-0.015878295465702935,-1.1197011166184319,-0.08405145451445553,1.2025781133042128,0.052231567744278555,-0.00803221873930807,0.04121861187569362,-0.08273374060933204,1.3984375
-0.015046696971561758,0.01085265849898143,0.03859497498809403,0.043465951708946425,-0.0364702576154624,-0.021506312543447013,-0.023159689665755052,-1.6332441245036182,-0.12289236924478153,1.7574384433785328,0.07632127027189485,-0.012077080447159454,0.06046820387204359,-0.12037332607697378,1.40625
-0.003999693348881079,0.00304915469043433,0.01072491383895468,0.011838298381700927,-0.010785480536073009,-0.005789097300587233,-0.0063261925853403764,-0.43646361739455164,-0.032623526962939894,0.47397456081115513,0.02045021730532825,-0.0027857068689284155,0.015673383760104617,-0.03239264439324804,1.4140625
0.011292462240465675,-0.007760574446414485,-0.027873226140907856,-0.03192995838400619,0.024837541199741978,0.01597200913089172,0.01702704818257038,1.218602942111964,0.09242465787686872,-1.3068016798376225,-0.057010586368765985,0.01014687264696333,-0.046321615872821124,0.08913155271056802,1.421875
0.008604311046311203,-0.005861585587769352,-0.02107435631966106,-0.024171560135018266,0.018600845184697946,0.01213431857352885,0.01295011569158139,0.9248009719903318,0.07043654380495341,-0.996766349742995,-0.04345592364957325,0.007929593806164675,-0.035357562236284466,0.06742847145010042,1.4296875
-0.007970960592011349,0.005854152198200679,0.020749075218277704,0.023319215450113777,-0.019983035892307946,-0.011457110392437478,-0.012343111668112033,-0.8712258013481446,-0.06508888357372915,0.9309278479769734,0.040446839468064835,-0.006042986553318794,0.03189851439958538,-0.06451762943841971,1.4375
-0.012446257758053192,0.009013664081626054,0.03198504832833323,0.03605282702161867,-0.030370390034477446,-0.017807157410956453,-0.01918985677859549,-1.3530414186852149,-0.10158903210104654,1.4522065658463743,0.06308237211982018,-0.009843198907526668,0.049998345329090456,-0.0997493788228485,1.4453125
0.0034576321345176635,-0.0022324725030034753,-0.008189191484508009,-0.00959183605995309,0.00670158950784386,0.004842065344829587,0.005065395163930311,0.3726012315869655,0.02851502903338127,-0.39844993961741604,-0.01747421649671992,0.003559467784894747,-0.014561366292539705,0.027194827368625368,1.453125
0.019074461026222744,-0.013271776560265151,-0.0475631926390128,-0.05430998545285039,0.043058955421167715,0.027065087882972867,0.028901039739975196,2.063830335379821,0.1561561256099285,-2.2167253295201594,-0.09655211177912931,0.01675441912318314,-0.07788766109748085,0.15143618758356592,1.4609375
0.015127753976145788,-0.010481631092237306,-0.03755278287823897,-0.04293608970976609,0.033825171670322896,0.021446966080502332,0.022901093464349306,1.6344431601641847,0.12386311497029028,-1.7577220478269475,-0.07656092865128958,0.013454970137581434,-0.061851270766734974,0.11974083541636392,1.46875
-0.0014808993334224454,0.001257385121381652,0.004354084764489835,0.00465295077649348,-0.004874310046557842,-0.002185638648942889,-0.002428924249517106,-0.16483724956885412,-0.011856091067126,0.17685371825474697,0.007541598359333106,-0.0005609035051180449,0.005491631008664371,-0.01254236353074443,1.4765625
-0.009970882372224307,0.0072613945729020305,0.02575115897679535,0.02894190209047588,-0.02464179882565697,-0.014279731096174697,-0.015406500667591107,-1.0833908895273938,-0.08127476326432256,1.1676161218094403,0.0505758274859985,-0.007771934802840134,0.03989879493073711,-0.07995964680455368,1.484375
-0.003912624531996004,0.0029865190221548287,0.010470511384450036,0.01159059454543282,-0.010538690824726067,-0.005680289271455919,-0.006200424862096947,-0.42668155721954326,-0.03192656255274366,0.4639286616352452,0.01999356693067053,-0.0027110721696281606,0.015340832153995744,-0.03159538590362357,1.4921875
0.0037667161556412363,-0.002438391277693789,-0.008887195263960306,-0.010361815336542119,0.007329743589650034,0.0052487212319921985,0.005516160416640343,0.40479245719153906,0.03072136779035533,-0.4307528206539817,-0.018836936150421778,0.003765550312420873,-0.015784256690921733,0.029473220278375796,1.5
0.0029230536944771612,-0.0018486145265060308,-0.006756602470787506,-0.007899615595600457,0.0053722151932809456,0.004068224077098843,0.004269458845564963,0.31288596432824317,0.023971561643642968,-0.3350723983369729,-0.014626028547649423,0.0031021250981509156,-0.012357825117765384,0.02253102146713574,1.5078125
-0.001065080502152856,0.0009616114994248694,0.003315836274589986,0.0035528939520515527,-0.003884311320355549,-0.0016096515177590814,-0.001790611726485235,-0.11976919857258311,-0.008354237640588928,0.12653094081130778,0.00545884248497279,-0.00021281957698621358,0.0038417233434843187,-0.009446178567557782,1.515625
-0.002246067256082062,0.0017989536122831225,0.0063273896558904775,0.006946093199719985,-0.0066279704673895415,-0.0033204222628293516,-0.003617639375236182,-0.248687729041433,-0.018020902890659028,0.26364853456293313,0.011436311274656389,-0.0012153267513559493,0.008679400532160021,-0.01889978495577179,1.5234375
-0.004909748091625971,0.003698570615524215,0.01306333428691068,0.01456081906163175,-0.01288447986207769,-0.0071251271053201035,-0.007724988202155768,-0.5384309476334809,-0.04021576172291764,0.576978859129367,0.025068122356074196,-0.0035294878987137037,0.019501534820939127,-0.039955564925355756,1.53125
-0.010891082638603378,0.007942094918544983,0.028140353115494624,0.031666805813358956,-0.026885398329604245,-0.015621886544394555,-0.01687073801931606,-1.1873681150968551,-0.08947910396127486,1.2772726805301622,0.05548416508181546,-0.008634016115842257,0.0437427900832331,-0.08743025688962372,1.5390625
-0.012695251364036063,0.009213503944613415,0.0326846755740429,0.0368269863266001,-0.031093263831774416,-0.018180149096004416,-0.019614356689982283,-1.3829405394186955,-0.10407593415285493,1.4869737749737242,0.06456700794119803,-0.010132910292121655,0.05105170959192283,-0.1018440967229085,1.546875
-0.005632517110658637,0.0042000178711800035,0.014856108194424263,0.016595797914118356,-0.01456526172942602,-0.008130250262612616,-0.008805077298502571,-0.6165371482867542,-0.04586479618312558,0.6598898048150614,0.028619008519674347,-0.004087093732699342,0.022398247661084874,-0.04573967861146601,1.5546875
0.007474003876371305,-0.005083616966903657,-0.018276389829860892,-0.021004090402044238,0.01605862004167442,0.010549810172281864,0.011245892931367248,0.8058729978138552,0.06156673820819836,-0.8696500682546513,-0.03789772986894535,0.007037117897401772,-0.03082987071325186,0.05868762793153982,1.5625
0.02091784892081244,-0.014592919634381833,-0.05228747241803312,-0.05963810157366005,0.04741899044449029,0.02973168529210663,0.03179494082848377,2.2651016501051062,0.17150950082641292,-2.4336603288957788,-0.10603064397979449,0.018380046370454012,-0.08546831995161962,0.16604360082035033,1.5703125
0.022671107640283624,-0.015828647553284465,-0.05672004959348777,-0.0647372072672609,0.05148455241362087,0.03223154232554332,0.03444329722954022,2.4564188567067284,0.18583194924726265,-2.6346342577382678,-0.11488958735687074,0.019813375403332275,-0.09261464665314695,0.1802788256998319,1.578125
0.0027941384034029307,-0.0017663742385694242,-0.006476074713005963,-0.007712084659575585,0.005123528341383416,0.0038893846404711593,0.004048276722533246,0.30151321018985033,0.023151371537474583,-0.3190492576580674,-0.014108686227016451,0.0029829271830287126,-0.011901887988116271,0.021975288006938543,1.5859375
-0.02131328149472171,0.015291893144446424,0.0544283978680837,0.06152047462252472,-0.05109218336395142,-0.030462271867631483,-0.03276204647181752,-2.313765711256756,-0.17435329785069426,2.4877440782596056,0.10815968960349254,-0.017397883849385277,0.08599438551069039,-0.17029712055465795,1.59375
-0.018562293972333676,0.013356720077773172,0.047480035664429085,0.05370006704109969,-0.044697308722292675,-0.02653657369114775,-0.028531820917724656,-2.018019696165963,-0.15205613059961565,2.1678376435892415,0.0942946977541972,-0.015066078963523024,0.07485351862880503,-0.1487053071451474,1.6015625
0.0054634599638728335,-0.003634458408568346,-0.013170887817359814,-0.015230391623398008,0.011301992268384504,0.007679653976804116,0.008155512519918544,0.5859443257376573,0.04469353323044685,-0.6291774024717535,-0.027498856991710893,0.0052515238160434005,-0.022668148423977928,0.04256320396300015,1.609375
0.015173526117666508,-0.010513492429680034,-0.0376587644636957,-0.04314808411296069,0.03394780262896041,0.021496850242720997,0.022957506130723438,1.6406533333295497,0.12446308585572766,-1.7605338986105479,-0.07680908757737295,0.013470753860061307,-0.06210649350458009,0.12011666962074824,1.6171875
0.006945678943679857,-0.004705269991568459,-0.016873392786014154,-0.019538132756087775,0.014773477250147778,0.009777735682260601,0.010384653757416864,0.7506358849278701,0.05717998639028639,-0.8039436589976813,-0.035148671168583084,0.0065265345516430425,-0.028700887657928584,0.05482641155337664,1.625
0.007072139324343969,-0.004791239303154853,-0.017196376286254422,-0.019770432025121718,0.015042906235494936,0.00995950171945524,0.01058325601971946,0.7629344247116231,0.057988241831486244,-0.8194791354608146,-0.03572304631369205,0.006636152562816794,-0.029117003647716827,0.05574577286705454,1.6328125
0.009492159734282734,-0.006487321502486852,-0.023313652797749808,-0.026591075388654694,0.020640436921171786,0.013402860210855143,0.014279360981904824,1.021409832665684,0.0775702997985579,-1.1008872550509359,-0.04789109938572844,0.008670970056732742,-0.038842851171687155,0.07463368905357211,1.640625
-0.012499273096674438,0.009076592443367677,0.03218407529238739,0.03645164896476424,-0.03064021670020575,-0.017904534575273804,-0.01929234799983713,-1.3644029746865276,-0.10245007038387277,1.4608217564812391,0.063594080892883,-0.009935335353893857,0.050368074132512555,-0.10077000175455661,1.6484375
-0.03798646218200069,0.027093646945900846,0.0964963234039485,0.10940058587550269,-0.09001135657663502,-0.054179688252823315,-0.058192497065571745,-4.124377573820468,-0.31084337726680666,4.428914668325547,0.19269203873662236,-0.031485031842050995,0.15365300769564483,-0.3035610683875925,1.65625
-0.02313733139275296,0.01657109902158975,0.058992645716112006,0.06668715211086068,-0.055321373207369094,-0.03303517515312841,-0.035522496552937155,-2.509704876728424,-0.18898714578390416,2.6988936634633283,0.11731579903912578,-0.018924050348838782,0.09328669400049686,-0.1848252009004345,1.6640625
0.015649669594492162,-0.010869585162048917,-0.038927901265135054,-0.044583319428876896,0.03514025326847869,0.022180870091165015,0.02368280842391596,1.696670562857062,0.1285457606547371,-1.8184821568217653,-0.07930922280687673,0.013870149154226321,-0.06410688422491762,0.12436930886153645,1.671875
0.025137525859181612,-0.01756891929680998,-0.06288357583846901,-0.07176058339235236,0.0572450342814603,0.035695485935379606,0.03818246999319134,2.7225070707426724,0.20588808388520904,-2.922858827826402,-0.12734251675604463,0.021896032874796575,-0.10255685840165911,0.19980834465192976,1.6796875
0.00513872333000276,-0.003414164480751978,-0.012387893910783132,-0.014359157324821775,0.010591916850835218,0.007237219510828493,0.007687316399818547,0.5515948900539037,0.04195090474177175,-0.5934003719164569,-0.02593978032724908,0.005011757677791847,-0.02137544403231027,0.04022268517536253,1.6875
-0.003163650629883044,0.0024543781197922023,0.008604566523394598,0.00947808163467882,-0.008782091113379836,-0.004590020529519235,-0.004986271662234667,-0.3485112146586343,-0.025835923493626147,0.3733475033344432,0.01611837347928136,-0.0019861769539344437,0.012327772297067417,-0.02603617461041697,1.6953125
0.004856891047558559,-0.003220220679761924,-0.011617063044195878,-0.013533618612715155,0.009894740611565063,0.006803926731358715,0.007206658332773308,0.5220417954895975,0.03999738049771858,-0.5598299470466794,-0.02452135292218547,0.004768641991476651,-0.02019508032506462,0.0379787936254378,1.703125
0.0046073775134849795,-0.0030325205930969053,-0.010998399461952729,-0.012838514925225874,0.009284489731206077,0.006441856439683772,0.0067820194668807695,0.4948822665913804,0.03774996240635305,-0.5285805086693824,-0.02316664351678189,0.00449683896901363,-0.019166542833827512,0.03617626205412623,1.7109375
-0.0011627354516837447,0.0010550417597331204,0.0035348391021094326,0.0037330041848945145,-0.004168413926260734,-0.0017503245336837764,-0.002008065516833588,-0.13107810372015047,-0.00965967052691868,0.14354701848977003,0.0061155992914948745,-0.0003999030563184087,0.0042332784748398845,-0.009826454951595837,1.71875
0.002788351409073066,-0.0017532107432364984,-0.006462120902798463,-0.007534150313169994,0.005083205067266757,0.0038987651935237194,0.004078876590850083,0.2978203347214576,0.022997494721921093,-0.32037787740440565,-0.0140205519252406,0.002997064701058565,-0.011824298860541468,0.021370393978674556,1.7265625
0.005667552810843919,-0.003806102725802924,-0.013720036623912621,-0.015763934839686335,0.011830470145522031,0.007993835234492765,0.008498005947860113,0.6105547430508682,0.046950413394916964,-0.6591495759815689,-0.028740191878999337,0.005492110945507645,-0.023504259424773705,0.044139421007108236,1.734375
-0.0033538192772330044,0.00257771004066171,0.009098618116639397,0.01006578548941833,-0.009217344396727169,-0.004878620149689196,-0.005305910816675715,-0.3677237201081892,-0.027055160075677574,0.39316064808916085,0.01701063064506163,-0.0021483469080417553,0.013133017864717142,-0.02752344663455589,1.7421875
-0.008410026828678563,0.006168825158306259,0.021897321602277437,0.024522264400680657,-0.021052706204674813,-0.012098048247866911,-0.01306899580201202,-0.9161077600414368,-0.06889625691407768,0.9866513205423254,0.04277695481995539,-0.00648945981462105,0.03366345387265478,-0.06747929781780009,1.75
-0.0013002753574286841,0.0011459681248025336,0.003924546479400563,0.0041455025485917785,-0.004503318391365493,-0.001966152062800571,-0.0022199540575236166,-0.14512495620934998,-0.010807704291871065,0.16034143264830933,0.006824026998827452,-0.0005124096095077316,0.004789395979515288,-0.010824091034191437,1.7578125
0.0008804702293082085,-0.00040249370402202153,-0.001627386395446314,-0.0020706783469244153,0.0005996772956037491,0.0011570911795468722,0.0011410403084907244,0.09099452749691297,0.007287319243764128,-0.09609986970835335,-0.00427056239797298,0.0013671750588310696,-0.004080289644280006,0.006272352278042401,1.765625
-0.006070038553264949,0.004507016445000344,0.015928337187235627,0.01787948938168766,-0.015563719781283533,-0.008745562191564913,-0.009446756134938488,-0.6632792091981325,-0.049446328145722404,0.7105366479190168,0.03087165809987019,-0.004451498499025246,0.024145888139569176,-0.0492879419272271,1.7734375
-0.005628021917712001,0.0041950639876261065,0.01485565562731834,0.016611500208326017,-0.014512759793682172,-0.008134482472708685,-0.008781281984201817,-0.6154344714321538,-0.04591524425903372,0.6587801663059218,0.02860706430625762,-0.0040689727725709245,0.022386726581183517,-0.0456954192629424,1.78125
0.00041065871360840365,-6.798586548159107e-05,-0.00039859229063812096,-0.000726437031793294,-0.00045359381206225074,0.00047293113305136686,0.00041433304618970985,0.03977170252104336,0.003332369614456979,-0.04272503949549385,-0.001941053058047891,0.0009839840234550413,-0.0021250047824611985,0.0025912204213342435,1.7890625
-0.004128047138026253,0.0031490109144262698,0.011013366979893973,0.01223770497395048,-0.011063406194024714,-0.005963995375274529,-0.006530113941295339,-0.45190785925831306,-0.033902257457330984,0.48731628369144203,0.021114990603683242,-0.0029026620789438418,0.01625413041602222,-0.03342967326523058,1.796875
-0.009077400168357576,0.006642016290810753,0.023511416791141854,0.026397393738562813,-0.02259231423197654,-0.013015103684445582,-0.01408576693568346,-0.9879380347049606,-0.07424826019527267,1.0626914516785357,0.0461481011604507,-0.0070647364462443065,0.03632584045303852,-0.07281954653806301,1.8046875
0.005936079736110737,-0.003995447623943414,-0.014361625995835584,-0.016619179785624983,0.01245377481132444,0.008340708529606873,0.008859587273064429,0.6404862160518915,0.04896819434804594,-0.6887773081820836,-0.030061330510178577,0.005702222573698344,-0.024579764702397575,0.04667303216860787,1.8125
0.024930529276785164,-0.017435451523634394,-0.06235001844097971,-0.07105206166743808,0.05676006209726727,0.03540167482710682,0.03790065112456089,2.699345785640882,0.2045362499158686,-2.902021321847225,-0.12636892177578216,0.021794055831326112,-0.10166976967284456,0.19779810622100524,1.8203125
0.017737225638455627,-0.012331244551251317,-0.04425646352909103,-0.050492761007513286,0.039966098508894446,0.025201099404619388,0.026937990116907153,1.9179926933353695,0.14537864551945898,-2.0614434602692864,-0.08983837866436012,0.015665963863053207,-0.07254257964589825,0.14046006194624297,1.828125
-0.0068380894797935,0.005064448273568337,0.017802978786518864,0.019880359753489035,-0.017361708782456027,-0.009788402517128845,-0.010612689879711373,-0.7464621986017691,-0.055996749428532513,0.803885776819813,0.03477828490253215,-0.005170077272892485,0.027140393853689066,-0.05511844988616416,1.8359375
-0.017364063207218262,0.012502675262990325,0.04446344601817255,0.05010862894027327,-0.04190987479850567,-0.02481792950377935,-0.026726663006181785,-1.8859613532223227,-0.14202444180442564,2.029295342851229,0.08811656908720078,-0.014072334727047749,0.06990437856454237,-0.138827168883632,1.84375
-0.009270210106356983,0.006769076394243269,0.024070835298642342,0.02706601188262951,-0.023040325825704647,-0.013319571180856509,-0.014372384860710075,-1.008139357072818,-0.07564757779815104,1.0845316818789605,0.047098763436518705,-0.007200201116688473,0.03716205619882136,-0.07449708571794286,1.8515625
0.0008456118154026917,-0.0003774613137698256,-0.0014870163912244377,-0.0018623564770849654,0.0005207251928326131,0.0010905207330851017,0.0010966527896764107,0.08615863814211845,0.006972069679333261,-0.09255771640623751,-0.0041036511442398005,0.0013580193445034354,-0.0038458886951260136,0.0058188324844030935,1.859375
0.0065088222602075075,-0.004371692826134324,-0.01578258931826905,-0.01818668080732122,0.013691699528920822,0.009152328757172291,0.009743047954591478,0.6982868217823557,0.05316619153844067,-0.7485269924017567,-0.03276453119487714,0.006131707061498623,-0.026877611071139177,0.050872373763292525,1.8671875
0.007652510954602419,-0.005186377013068345,-0.018641514565758556,-0.02155845252866329,0.01635940940812883,0.010762627375509535,0.011458917180792668,0.8238565406690276,0.06270612388764293,-0.8809890812617529,-0.038610074127527365,0.0070991518534315986,-0.0315683991532035,0.060189794887409276,1.875
0.001154494594701278,-0.0006039511444186209,-0.0022529591350548116,-0.0029008321163209744,0.0012561677798754026,0.001514166365582627,0.0015181300003568635,0.1222966841978012,0.009739091002478968,-0.12829698194377043,-0.005745044249605523,0.0016175036644800987,-0.005167516529910053,0.008677749236192777,1.8828125
-0.0066860906077294315,0.004940017839731704,0.017484382142978504,0.019658724648243215,-0.016976880041704525,-0.009619101717869286,-0.010441123839590429,-0.7272475668494881,-0.05453767159278495,0.7801521860044537,0.03399009153558922,-0.005009758887653068,0.02672148105149682,-0.05372387351443845,1.890625
-0.004451473105328139,0.003367049908585987,0.011824508525565295,0.01328086498066435,-0.011766287251729377,-0.006419644654946277,-0.007000327147407506,-0.48712656928550424,-0.03647184634999533,0.5188472187026029,0.02269841846476454,-0.0031180184092956943,0.017673387230186112,-0.03611874699518697,1.8984375
0.0024572053295266448,-0.001519202307450508,-0.005587423116951098,-0.00655471962918093,0.004316678073242327,0.0034079311040633303,0.00357519794677401,0.26028469523382075,0.020109308902084445,-0.2840853952540147,-0.01232870510522602,0.0027460178557064292,-0.010415245831114035,0.018671071779646862,1.90625
0.001413749214720249,-0.0007903870734816871,-0.002947332818968276,-0.0036251358936343534,0.0018914932006681962,0.001910760947221801,0.0019885374467694924,0.14832846966961896,0.011823355844820959,-0.16136522434226774,-0.007105800993936829,0.0018829853419064727,-0.0062570688912537,0.010378801179955934,1.9140625
-0.003161376259806234,0.002440951843540969,0.008562764837151484,0.009406199670744594,-0.008743357303160086,-0.00460377774552385,-0.005023866495039035,-0.3452931630081792,-0.02550494570010645,0.3719411230149089,0.016048511344574776,-0.0020089851916197153,0.01225954287963424,-0.025749517139937225,1.921875
-0.0014870073126382606,0.0012646008545125873,0.0043013050772034555,0.004550445070535659,-0.004845609784900941,-0.0022136233075648907,-0.002497492694968884,-0.16334770768921864,-0.011989299216696003,0.17850975993271695,0.007617322875833912,-0.0006419170385083755,0.0054539069174065905,-0.012168929635906373,1.9296875
0.001221706854629609,-0.0006411822865483469,-0.002541798914041485,-0.0031856408054568765,0.0014293258855002653,0.0016609261184484195,0.0016611209756608512,0.12835534806120238,0.00993047478435795,-0.13514602211324525,-0.006045483069621987,0.0016398021411325792,-0.00553259460671548,0.009262515434274542,1.9375
-0.0014051222559481355,0.00121489624933673,0.0040961701391213105,0.0044157067451898345,-0.004699016272933054,-0.0020537617861536243,-0.002284497491520169,-0.15789956443972772,-0.011513714019040212,0.17008022012139773,0.007230879684077419,-0.0005322722866993369,0.0051301304627085036,-0.012020661719627495,1.9453125
-0.00270933462609198,0.002127786212055003,0.007418643612487459,0.00818471752103603,-0.007710122336345062,-0.003912530702585337,-0.004258540856413256,-0.29861937335978067,-0.021865628657290057,0.3197488283181707,0.013752129724395937,-0.0015956099119698386,0.01044219939491555,-0.022566531577122507,1.953125
0.0009040964052687494,-0.00042699622734103577,-0.001633684912677313,-0.002172594408059697,0.0006923882804410833,0.0011880886538797669,0.001187076116557708,0.09400802751137317,0.007821402257138784,-0.1005397286591338,-0.004531264327009153,0.001426237329930594,-0.0041603584597308865,0.006362571229361603,1.9609375
0.0022765247726843577,-0.0013822432203451562,-0.005044917593991771,-0.006076879516336339,0.0038171695995886643,0.0031003582276657973,0.0032039299599691175,0.24192658851817625,0.01872886031610204,-0.25676839365148735,-0.011326719143013449,0.0025131480089212697,-0.009660207323972783,0.017473453258567036,1.96875
0.00013166378787883757,0.000145739166280175,0.0003461053805504374,0.00010942409789734086,-0.0012021532806449832,5.016970732579244e-05,-6.663485363888077e-05,0.007930999987248529,0.0008298349071256516,-0.005322794412485665,-0.00036704790817119185,0.0006760391541247917,-0.0009363839521723856,0.00037861691629098994,1.9765625
0.0007252292775875022,-0.0002829491268531734,-0.0012061002639040883,-0.0015981980054473725,0.000254830553106578,0.0009223464377859598,0.0009036527904172862,0.07237570110676077,0.005774610482963263,-0.07730637498603223,-0.003472323335029825,0.001235145140370148,-0.003374515102524865,0.004991285348786204,1.984375
0.0036822377737406207,-0.002393806960267963,-0.008673815839637283,-0.010100548749137567,0.007212868851931076,0.005141605433316272,0.005459499717971811,0.39473636054913264,0.030324916284960264,-0.42528272669245465,-0.01860406705594524,0.0038082181409120784,-0.015410264568666635,0.02853093377838377,1.9921875
0.00507492097690384,-0.0033883936026122335,-0.012162319843190285,-0.014093117567164947,0.010441458494932,0.007118886380312334,0.007574639359267868,0.5475321775385529,0.04187389949629706,-0.5878526414311085,-0.02568135986840036,0.004994444006847425,-0.021089961473765777,0.0397460700382238,2.0
0.0057262969332574215,-0.003841529031800703,-0.013814413940846289,-0.015959675171676343,0.0119076602420709,0.008046470127708056,0.008532288766716025,0.6183675413595014,0.04706796938685929,-0.6619808646973859,-0.028890736223260608,0.0054866130304733335,-0.023753322139355278,0.0450363953864716,2.0078125
0.004385958877068733,-0.0028807977623471286,-0.010455777642423125,-0.012148397372745888,0.008764254260193735,0.006137457983309506,0.006452451642266847,0.47163721689814575,0.03596597747200094,-0.5053467669941365,-0.02203478232817994,0.004301579454598057,-0.018306461442093483,0.03432786780748037,2.015625
-0.0017293996781328799,0.0014452643068341162,0.0049860693371527876,0.005356170017957849,-0.00547111909878732,-0.0025774206254735826,-0.0028894989111928715,-0.19256507629688677,-0.013985260762865288,0.2053082141086153,0.008910636713064286,-0.0008489597096020318,0.006542144037743652,-0.014489238579234528,2.0234375
-0.006910890942630734,0.005098922513667437,0.01806465062634852,0.020224274272453317,-0.0175116293702072,-0.00994812428510542,-0.010762902673388627,-0.7540236955845533,-0.056194257461355604,0.806932263743208,0.03506663422301017,-0.005163675905779598,0.02758125369910192,-0.05582995478957045,2.03125
-0.00679994016796976,0.005017705329478615,0.017730478006629715,0.01991429151413459,-0.0172223293647779,-0.009757424301473389,-0.010543310979934445,-0.7415909344622417,-0.055353239680531595,0.7942048714482435,0.03447208147513755,-0.0050460419335284,0.027102905331602256,-0.0549277268924668,2.0390625
-0.00840509408563019,0.006166824016132693,0.021728209485819633,0.024463443694869084,-0.020966507637160202,-0.012014662581545496,-0.012983011333473588,-0.9162178502426368,-0.0688805854959328,0.9836531343908832,0.04268356579907286,-0.006451556928087149,0.0335735254529373,-0.0675808134252494,2.046875
-0.010566166982072706,0.007701484131020845,0.027206307412547932,0.030599014787400347,-0.026025882834584475,-0.015102246717355404,-0.016311277873564244,-1.1500727382567204,-0.0867524599667426,1.237390018497231,0.05369052596678816,-0.008322961813530231,0.04231177823435151,-0.08459273563539982,2.0546875
0.00034863861465857785,-3.685483177595905e-05,-0.00027281476529035617,-0.0006562443661032162,-0.0005831137179740639,0.0003986241656561402,0.0003322607216480148,0.035682894950197205,0.002975782077683275,-0.03479347985249597,-0.0016910863217705879,0.0009299533978236088,-0.0019803094416990692,0.002392678292275286,2.0625
0.015900988408741334,-0.011051135364776477,-0.039496866278982315,-0.04513652547708306,0.035679694262776306,0.022515877231250644,0.02408419628257188,1.7222592182252732,0.13068042416363213,-1.8481048587966773,-0.08056774866338089,0.014120884976991821,-0.06504835897491824,0.12599525301166525,2.0703125
0.007993954440075526,-0.005438158854272875,-0.019564695222316388,-0.022442690651950446,0.017219434694225103,0.011269237130052932,0.012021481490265743,0.8610522305774604,0.06568782014746063,-0.9260200867711359,-0.040398542776122114,0.007415202873879439,-0.03291821695007697,0.06266949200598901,2.078125
-0.015416930751868963,0.01114907025480701,0.03950265052781717,0.04458492619680287,-0.03740448331949716,-0.022038125628546106,-0.023730175847349756,-1.6804642206381315,-0.1264726875054656,1.8042907504298145,0.07837866935007587,-0.012431915373892584,0.062069773141517764,-0.12380913479108355,2.0859375
-0.012701633560990428,0.009222639842454762,0.03268177833544937,0.03677583428212261,-0.03109518215504398,-0.018177154159831954,-0.01960770860722413,-1.3839985485025843,-0.10415794716394808,1.489245549056491,0.06459464800086796,-0.010140539101734843,0.05103133586442266,-0.10191807151239096,2.09375
0.01643522385245383,-0.011412988177274885,-0.04078797951442409,-0.046611045953764765,0.03683444922405968,0.023271328962220384,0.024853475416561622,1.7787690849421114,0.13485150963013448,-1.9072244389649868,-0.08316751042531764,0.014534831213549326,-0.06713799464878072,0.13025598322971738,2.1015625
0.025279912845713296,-0.017673857851704795,-0.06307983589975542,-0.07183476557547408,0.05746471323733961,0.03584883087373189,0.03835672735181786,2.737515533563361,0.2072847120000675,-2.940725513523177,-0.12798385608595933,0.022032240739556702,-0.1029380932478804,0.2005439336449348,2.109375
0.0027623680013958243,-0.00173289670159365,-0.00631027136286994,-0.007360042850945731,0.005009553507719396,0.0038261969901442158,0.0040172244058037185,0.29410009187707103,0.022583168113139453,-0.3191776031807547,-0.013818752585930431,0.0029856076558732654,-0.01160761016396977,0.021113412488784202,2.1171875
-0.011592112107400502,0.00841900766928242,0.029819960360695057,0.033605543545462524,-0.028392378254310548,-0.016564779020419283,-0.01785462299128827,-1.2611562716055797,-0.09488742174476876,1.352958790994403,0.05885768175461115,-0.009147317785659151,0.0464869622942767,-0.09306889367871805,2.125
-0.004067833568305398,0.0030830863251234087,0.010811574463882532,0.011969036198740145,-0.010836124254614094,-0.00585838804448985,-0.006381428091651127,-0.4426524119230805,-0.03285908246453281,0.4775386378806471,0.020624575243204893,-0.0027806495796826227,0.01589151726210194,-0.03295997508372189,2.1328125
-0.0025103908164267213,0.001984622630877501,0.0069493535336683935,0.007550996219110791,-0.007261659058085958,-0.0036900118106198737,-0.004071948614248398,-0.2740666917121933,-0.02007014265125114,0.29848309170451454,0.012780106283929067,-0.0014925819125125646,0.009659259007564742,-0.020463068340197926,2.140625
-0.01189132071095303,0.008636950212935302,0.03066148704987654,0.03445618348587256,-0.029181965140028247,-0.017069010573426014,-0.018428616467685243,-1.2939658916516572,-0.09732134375375377,1.3933404142481811,0.060443977694956866,-0.009455009918704705,0.0478018700826303,-0.0951424247743205,2.1484375
-0.007193317212092614,0.005315314180071517,0.018754342825889083,0.020975638222935696,-0.01821386765784648,-0.010346945394856328,-0.011201139256115253,-0.7861236383412394,-0.05910069777634985,0.8450638413492858,0.036626065229471406,-0.005453447170837849,0.02870513667355788,-0.05782432839030903,2.15625
0.01000954246488143,-0.006869850221745538,-0.024710198477009334,-0.028288156530818998,0.02193992302294032,0.01418857051082978,0.015146896153499173,1.0796907846909582,0.08198114844958064,-1.1627806155400873,-0.05068912958010924,0.009164959304941392,-0.0411487139429359,0.07893467463862375,2.1640625
0.013139950380305175,-0.009094981061271207,-0.0325828051236077,-0.037203740126251446,0.029265841620054897,0.01864339194013156,0.01993907638954738,1.4203246075055562,0.10788271701201149,-1.5301883410709576,-0.06662644645927356,0.011842264153040587,-0.053832028760021834,0.10375343877517244,2.171875
0.0015241101094560252,-0.0008712095196437585,-0.003214801359811905,-0.003931994572257253,0.002176017725754197,0.0020659327728769048,0.0021369275913699385,0.16186145972362362,0.012738625976764993,-0.17546161538378252,-0.00768113211185796,0.0019660937409498856,-0.006664560377729248,0.011450059876697815,2.1796875
-0.003925343248547046,0.0029993890398255525,0.010542326997344458,0.011648648061157502,-0.010570587488259354,-0.005717339691314328,-0.006243121418113459,-0.42897036391061016,-0.032108883468124516,0.46373358457606195,0.020086622862767467,-0.002726243086241855,0.015441084426217853,-0.0317612886660407,2.1875
-0.001416969291874991,0.0012355881578582128,0.0041797458715430134,0.004492013796271927,-0.004761617396749695,-0.002130178695697717,-0.0023952996742241,-0.15856017033934114,-0.011730941928993235,0.1741086780502324,0.007457943910664819,-0.0006312269591851304,0.005247367598328613,-0.011964313746628945,2.1953125
-0.0021543497714945395,0.0017532711357458122,0.006021745427589309,0.006638633523343698,-0.006463346053790159,-0.0031505535030438014,-0.0034562584851503104,-0.23995620153288438,-0.017685269395706946,0.25845631459609714,0.011121314920926521,-0.0011986253962428237,0.008238970750664064,-0.018126845695887708,2.203125
-0.0033143234790660244,0.0025582119928819415,0.008955347549976131,0.009915939846044693,-0.009113463747407177,-0.00479432937134672,-0.00520188113364828,-0.3646171807862862,-0.026870859057588757,0.3905497855765218,0.01683575928390645,-0.002112789260859757,0.012935055983583172,-0.02732155712510424,2.2109375
0.00034128576629104037,-3.6480425801588924e-05,-0.0002550329247069712,-0.0006058264720541088,-0.0005905485619215917,0.00039667359595828484,0.0003346307466751736,0.034077943517654086,0.003281760366899726,-0.035897127622144906,-0.001749633412461668,0.0009707205377866877,-0.0019137964275281031,0.002064095228700853,2.21875
3.0659982237039926e-05,0.00019469323154262694,0.0005437228623582057,0.0003340393782022769,-0.00138390967384022,-5.8298318557487914e-05,-0.0001997278130732757,0.0002446333406641034,0.0005432290915615137,0.0019244253522043057,-4.8880403355131366e-05,0.0006368791652624977,-0.0006300184632905053,-0.0003316153054720171,2.2265625
-0.008165235200996006,0.00600950298223122,0.021244454942254007,0.023899958934689654,-0.020535395960913517,-0.011732287192197802,-0.01272623572649618,-0.8910593645750786,-0.06697181461302511,0.9571956046096873,0.04163229014564852,-0.00633303976277321,0.03268341930145706,-0.06577867818962516,2.234375
-0.010692270001501112,0.00779600490940357,0.02764445167501136,0.031154951740192675,-0.026397266958118216,-0.01533790523090556,-0.016553607328450865,-1.1664152499368519,-0.08774019574138542,1.2502384439874492,0.05442442950836322,-0.008427200157686079,0.04297008299169625,-0.0860539299198545,2.2421875
0.0006717138720185171,-0.0002594324158098768,-0.0010207535508021614,-0.0014434739276366544,0.00013604547262393473,0.0008312891240771269,0.0008255051995246901,0.06720127850010893,0.00563705535156607,-0.0739899340697718,-0.0032845372094940438,0.0012479564194603275,-0.003158782656791215,0.004469902778007687,2.25
0.013532482611605386,-0.009365646798295641,-0.03350204478142015,-0.038344275640321404,0.030126287776989648,0.019146075406042375,0.0204661725762133,1.4634985084393282,0.11115080722148406,-1.5705399909274498,-0.06851747629126162,0.012133185445762437,-0.05538684236546147,0.1070479421738143,2.2578125
0.014603984457140666,-0.010117200477227988,-0.036265625994275935,-0.04149631602294629,0.03263890733953231,0.020698053157934652,0.02210184614341822,1.5803132659969537,0.11971368907398998,-1.6940880580149842,-0.0739217939831412,0.013000459725404262,-0.05978103405713006,0.11583584981945082,2.265625
0.008534648574097366,-0.005820102591161126,-0.02098456117815342,-0.024182608544590197,0.018529508088128244,0.012083249329145125,0.012845545361939924,0.9229138944561553,0.06979198477052075,-0.9880219367359423,-0.04315869700850026,0.007848520666757125,-0.03518906828917032,0.06773376872607942,2.2734375
0.0059532892633430605,-0.004004246380505927,-0.01444539534866074,-0.016758563258915327,0.012531486869910007,0.008404720044402743,0.008915036275015855,0.6441649062479007,0.048868307239174916,-0.6894447094311189,-0.030132389101487668,0.005695152006114791,-0.024713213737636224,0.04713586648673684,2.28125
0.005232162762826195,-0.003503657642052353,-0.012585603782044597,-0.01457372714148446,0.010826826670470104,0.00735026509330166,0.007814409138077544,0.5654567542323565,0.043344329594381635,-0.6066666944970919,-0.026518259857443997,0.005120405997221156,-0.021747915365875458,0.041028169249155616,2.2890625
-0.0012349554092216917,0.001080095216529027,0.00372878296133921,0.0040185400140061054,-0.0042863966189847285,-0.0018710737989731145,-0.0020629802697779906,-0.13868416597986774,-0.00967561972218129,0.1475003711311214,0.0063059745834596476,-0.00036273809470825993,0.004516161428044966,-0.010813093333218013,2.296875
-0.010242410826873632,0.0074716586381737265,0.026425162749282537,0.029773884811438143,-0.025312503319322822,-0.01467982367452091,-0.01582170707133563,-1.1176288074848713,-0.08390784174455704,1.1991170250944974,0.052065878427476786,-0.008037100472059794,0.04103578610881429,-0.08251617672853709,2.3046875
-0.012525215469997693,0.009093778528103587,0.032189905566982605,0.036270014690942445,-0.030653696702244923,-0.017918614626348073,-0.01932988759767154,-1.364149042724566,-0.10280581801771622,1.46641226777215,0.0637036718289785,-0.010007706728156875,0.05027446916619218,-0.10044592723729036,2.3125
-0.01035896794168189,0.007552394954142197,0.026778724368918577,0.030138920099541045,-0.025609450328185717,-0.014855317367655005,-0.0160566994597877,-1.1272027202245916,-0.08475043517115323,1.2123408536749969,0.052704691536342184,-0.008162923580764243,0.041542205617001574,-0.08316498431399916,2.3203125
-0.011913326664229331,0.008646329897461096,0.030740018921310976,0.034706538411158665,-0.029222343241343134,-0.017092055204123515,-0.018438203578695935,-1.296484027988006,-0.09720990257129707,1.3904385311903777,0.06053671518670967,-0.009440215106301204,0.047947070261570544,-0.09582002538727263,2.328125
-0.01196990700610714,0.008692734941857601,0.030843726915079854,0.034851840146778605,-0.029339627080352516,-0.017154052847379524,-0.01848695473307297,-1.3052318419210653,-0.09787689449199495,1.3968202760250588,0.060809192783999065,-0.009469016725204376,0.04818538687620819,-0.09643326642979366,2.3359375
-0.0007738966354416559,0.000775380888615386,0.0025129673882143887,0.0026144996944672625,-0.003226075874409239,-0.001168597581430431,-0.0013480146489979715,-0.09115266119129677,-0.006467832141195504,0.09546992857247925,0.004046370121715052,-2.190969815750641e-06,0.0026480931427219174,-0.007008574370459679,2.34375
0.01224642844434681,-0.008444757763874395,-0.030352418752291298,-0.03480467157884514,0.027136165581551124,0.017376756923170283,0.018526645307857872,1.3240566516949723,0.10028531829911887,-1.4188140434555567,-0.06198491957602036,0.011001652367456302,-0.05026904120638718,0.09707885950671573,2.3515625
0.010835583769525925,-0.007453103721824636,-0.026705545689721753,-0.030693230993352028,0.023834416803852367,0.015319501928596827,0.01632141933319214,1.1730684833632044,0.08899528577341007,-1.2542513828237907,-0.05482242265546761,0.009795175867594869,-0.044493118046946174,0.08589185038239205,2.359375
0.002947019880982412,-0.001866935420210957,-0.006733193733014059,-0.007954747300735547,0.005420814808869394,0.004046829957278514,0.004250886362958497,0.3158468875469986,0.024318841704535674,-0.3362881326348662,-0.014770984559894883,0.00311684852043577,-0.012382002009503764,0.02280769099410002,2.3671875
0.008142356414924503,-0.005540575866079696,-0.019899006190449476,-0.022842900705273266,0.01755617376959831,0.011469162266738896,0.012229879157549146,0.8771995843767058,0.0666350698178088,-0.9433072133721927,-0.04111876454790299,0.007541533637395559,-0.033466700469974305,0.06405790476837304,2.375
0.020316784585428065,-0.014166320980378176,-0.05071977955243555,-0.05785510102161761,0.046014584133999135,0.02885916645995377,0.030884044511255246,2.1986993614353163,0.16644414981274433,-2.3642251834328585,-0.10297318722502095,0.01789260869703521,-0.08296511655715916,0.16116712834615574,2.3828125
0.016492084895732118,-0.01147150067626897,-0.04106742394182066,-0.04695732944947424,0.037127664596204125,0.023420270888782808,0.025036638723498043,1.7866581288006147,0.13548055594369346,-1.919800491935766,-0.0836767094847798,0.014664627207329268,-0.06749714294662522,0.13085697046741046,2.390625
-0.0030438854929931295,0.0023581852276123015,0.00831417257317033,0.009095054970321695,-0.008499178740939625,-0.00443975520151077,-0.004868862534709784,-0.33145580215259307,-0.024448958192774102,0.3589206191754811,0.01546904389435259,-0.0019276044077686427,0.011808738335389894,-0.024744368460455,2.3984375
-0.015214445920549996,0.010987040951250351,0.039051666895847416,0.04405043367519229,-0.03697523358824902,-0.021789807880563238,-0.023494832480874535,-1.6532699371571178,-0.12448068348308483,1.7810479458873485,0.07735617060238849,-0.012292109962710017,0.061224879065716484,-0.12174445673716498,2.40625
-0.011128446879651265,0.008103573337562111,0.028682618668465415,0.03234563242153785,-0.027446385074478642,-0.01594551610237763,-0.017215223896832728,-1.2121940555804238,-0.09130625372088474,1.305443702926508,0.05668323498057801,-0.008827966680893072,0.04464109567251329,-0.08930730909009253,2.4140625
-0.005546325834342108,0.004147008280467428,0.014568685878394789,0.016334646791559812,-0.014343688260537541,-0.007978663638302099,-0.008636251271996596,-0.6074724002535676,-0.045448432724321086,0.6510454882288146,0.028266382054970333,-0.004042634982209271,0.02200666879069431,-0.04504157255423057,2.421875
-0.009731945371442936,0.0070993635229522,0.025175444926627946,0.028337671524092143,-0.024043185699491702,-0.013952792805639064,-0.015026214371372252,-1.0604476753560501,-0.07941393923513787,1.1352003513766498,0.04938270489985267,-0.007550336094101886,0.03902319478394717,-0.07848057697792632,2.4296875
-0.0149910264596305,0.010819981915627786,0.03847306806284461,0.04340163026396076,-0.03632333806569486,-0.02144624005655967,-0.023087222036742426,-1.629104577587175,-0.12244167727165263,1.748855766209854,0.0760608024233081,-0.012030821207430521,0.06035021295130019,-0.12019575272923726,2.4375
-0.007856834803941153,0.00578068622582764,0.02043849871193372,0.02293359774511726,-0.019746102932055042,-0.01127128787577477,-0.012209557992161545,-0.8553254709768221,-0.06426315740991573,0.921144499767575,0.039980537156424446,-0.006043068722729341,0.031369399649871677,-0.06317693319909795,2.4453125
0.007843371098389429,-0.005319722481341104,-0.01919157851383501,-0.022045006864521065,0.016813955523250036,0.011077968310368728,0.011763527781717117,0.8446497435870035,0.06411516219930201,-0.9063148251499055,-0.03955593041760116,0.007237377403710275,-0.0323096255663227,0.06174119739879558,2.453125
0.012833963684595292,-0.008853003647923912,-0.031739908036831674,-0.03630254602569959,0.028442560593733474,0.018150166608729704,0.01938868791955187,1.3833942316976084,0.10503548005590398,-1.4889477991440416,-0.06488194858927365,0.01150637217119762,-0.05250215775454879,0.10121040602336188,2.4609375
-0.00010810730018100791,0.0002933704708438239,0.0009397019236496576,0.0007884249105012829,-0.0016972769074082969,-0.0002864163804291492,-0.0003608941093824721,-0.01890205049902213,-0.0007845174220413795,0.017296506487952557,0.0006562232177667566,0.0005960666982134209,2.1747227193072752e-06,-0.0018416782778426543,2.46875
-0.010986293167869424,0.007984976161330783,0.02833845706702963,0.03189819505297503,-0.02702099872064567,-0.015746980682121037,-0.01696770361056361,-1.1954059508348067,-0.089806265090828,1.2850406301663022,0.055770939512446514,-0.008623047825755152,0.04407415685449188,-0.0881432932689805,2.4765625
6.683927437234799e-05,0.00016997042757513524,0.000389922718486713,0.0001417842368869544,-0.0012464798844858621,1.1582894946699942e-05,-0.00011043622986194001,0.004283890508267859,0.0006381294612906437,-0.0012858981156646883,-0.00023987452409897155,0.0006838119100439641,-0.0008088734314351988,0.00015672064439763308,2.484375
0.02068856744876774,-0.014418780166961891,-0.051651024401218486,-0.058988165684591386,0.0468295736387791,0.029372548622998196,0.03136653968809947,2.2399868379098695,0.16949853563921446,-2.4042167020808356,-0.10478796394677475,0.018125111695411006,-0.08447039105259412,0.16443057468807867,2.4921875
0.02398139192300184,-0.016760605938225762,-0.059944179237058894,-0.06837380741210441,0.054539810415125324,0.03406487414489437,0.036424942466408275,2.5980611682658017,0.19666962770531332,-2.790658847388631,-0.12155429442246207,0.020957650309310096,-0.09782228847940112,0.1905564435366047,2.5
0.009100657779611873,-0.00624262990682747,-0.022387934689555085,-0.025625631686009016,0.019877002584048377,0.012880896177169228,0.013736628097497703,0.9857393268931496,0.0750587722727485,-1.0589454090135875,-0.04615591366477918,0.008402441737332032,-0.03743647287033597,0.07184243931045327,2.5078125
-0.0028458530201107522,0.0022204805796505675,0.0077842653093278084,0.008662434848060474,-0.008015676315368503,-0.004150776780596464,-0.004521193643350703,-0.3116043580976162,-0.022875456621096815,0.3348853942548865,0.014494155318348441,-0.0017353198863738655,0.011060341319179514,-0.023539947611688688,2.515625
-0.005643276589408087,0.004222499642890372,0.014894543431769656,0.01662514977216743,-0.014621232749748232,-0.008159658312615796,-0.008835673335557783,-0.6183733274596591,-0.0462596190905898,0.6650805238957926,0.02881937204864988,-0.004167415142905198,0.022414605852455895,-0.045852787522913135,2.5234375
-0.010527302832792388,0.00768546856203211,0.027246500147197796,0.030558627472729184,-0.02604291318349123,-0.015107220181551204,-0.016306992356993753,-1.14802801475015,-0.08654787087224279,1.2358145285190603,0.05363502595976013,-0.008329152536785405,0.042201324313139145,-0.08453391276359094,2.53125
-0.016992962416753295,0.012245521398129637,0.04355317517707914,0.04912770887579546,-0.04108289500398634,-0.024296304904851726,-0.026164920307913037,-1.8462084453334622,-0.13920774432029911,1.9865568379848562,0.0863470371452122,-0.013768674348878436,0.06843701920160189,-0.13591242000545375,2.5390625
-0.012004110872254815,0.00870087616062883,0.03095158443662717,0.0349087694906544,-0.02940705293766204,-0.01720214391609547,-0.018534364314501943,-1.304299661791754,-0.09790433760777212,1.402092105481362,0.06096124965763676,-0.009497187412945526,0.048245253502091794,-0.09635970888447891,2.546875
0.001728174465161248,-0.001012854261817688,-0.0037246769381445196,-0.004471752708792396,0.00262387930599919,0.00234315359336449,0.0024495764796638193,0.18262804398763485,0.014504672328724906,-0.1978595389111907,-0.008685380049494554,0.0021391288129029005,-0.007468037993353464,0.012851272041200384,2.5546875
0.005418076059593815,-0.0036116156972870015,-0.013094994439076293,-0.015158066553024456,0.011215600341015599,0.0076315105874690675,0.008106640994763463,0.5812597140810635,0.04430094977840016,-0.6254054390135094,-0.027356243416193995,0.005236442538907395,-0.022517262969157396,0.04237626214177503,2.5625
-0.0038794254510326194,0.002971445661566631,0.010326672055635986,0.011443726375480108,-0.010483920651688855,-0.005571855486169056,-0.006096855890980574,-0.42603270879670535,-0.031940519014948196,0.4588305904769541,0.01980838574639505,-0.002660519670289417,0.015164065018954318,-0.03148255696798506,2.5703125
-0.008164631174833972,0.005997399555645141,0.021184543863464148,0.02380093859602099,-0.02048305480843071,-0.011701866395226645,-0.012687282938001315,-0.8896170945086813,-0.06668755446699902,0.9563708677747597,0.041513512865204875,-0.006285174688455708,0.032627318177628296,-0.06566293299841457,2.578125
-0.001026394868721813,0.0009406595577767635,0.003233179468685107,0.0034278976513916633,-0.0038088054983191383,-0.0015926417996374104,-0.0018101692054602588,-0.11581548082975725,-0.008050973176340228,0.12272742306707463,0.005296567391883974,-0.0002178882941765704,0.0037548682648797372,-0.008960859721244815,2.5859375
0.0025818414264332477,-0.001610123165409257,-0.005909261904991424,-0.006929294456017404,0.00465034750396162,0.0035546681845007987,0.0037449690700680294,0.2747911816657596,0.021224686739202202,-0.2974841625147528,-0.012985814844361064,0.002853113755028606,-0.010912334477719884,0.01978048645458486,2.59375
-0.002919959049691639,0.0022886264424829654,0.007885243343642602,0.00874333103582201,-0.008171008947660029,-0.004218939715591665,-0.0046084938605395745,-0.3219100080898926,-0.024047551077448198,0.34502712697927035,0.014921403983892845,-0.001811613209498345,0.011318064927640526,-0.023934675342381213,2.6015625
-0.0015088718131645326,0.0012893630171874587,0.004343042573219505,0.004636918811603128,-0.004919739503528005,-0.0022046366748049097,-0.0024822050232952845,-0.16840897306030211,-0.01226482293335283,0.18146924825804134,0.007740112636486666,-0.0006358383707342208,0.005576723284836482,-0.01264127040181122,2.609375
0.01454952903396389,-0.01008146921656716,-0.03604646584525694,-0.041338161422272306,0.03248359602850197,0.020588337329514414,0.02197568210352123,1.5738185970734961,0.11951763863091777,-1.6890493272762794,-0.07369157187190832,0.012947839050773404,-0.059511265016324186,0.11528162936899729,2.6171875
0.028941886532837115,-0.020271040204211267,-0.07228871034592045,-0.0824739368440252,0.06602747486288382,0.041030753925704974,0.043948533608321204,3.1351367339238942,0.23727634531466843,-3.364860229674342,-0.14660865388464206,0.02513491658319764,-0.11787134427799457,0.22991378183855,2.625
0.025947556288558778,-0.018149666246105468,-0.0647944980576773,-0.07383502599080607,0.05905014380944073,0.03679683657671275,0.03942398512067767,2.8099014934650115,0.2125534024422032,-3.0158557751033435,-0.1313799084920954,0.02261125429554164,-0.10575728205209006,0.20594281795040392,2.6328125
0.009189573801665608,-0.006286978119376468,-0.02258946908546026,-0.02585165124585289,0.020000082450528447,0.012987529924180164,0.013852751189051007,0.9916619028046637,0.07543245226413813,-1.066056792882474,-0.04647239931243696,0.008437374971872899,-0.03779476174235561,0.07229395494334828,2.640625
-0.008960060299047959,0.0065551963897246485,0.023204841056675474,0.026087171214431215,-0.022279063517197554,-0.012836478163591614,-0.01388644059737072,-0.9757963173969488,-0.0729806153737592,1.0453535879951956,0.045449835627416064,-0.006923686027067012,0.035849052774911724,-0.07219979379937289,2.6484375
-0.019866772229311973,0.01427029349770195,0.05073835053189629,0.05730477419499659,-0.047690966908151694,-0.028357064716581885,-0.030550151140308072,-2.1560512986015468,-0.16239826012631542,2.316666197470051,0.10075475607075753,-0.016174241182700944,0.08008605515436082,-0.15871317176379351,2.65625
-0.022340474834731776,0.016024990202671934,0.05694444047146834,0.06439769772889653,-0.05349225323872744,-0.03185762777082693,-0.03430503951501253,-2.4235348223372393,-0.18299928026731938,2.6088024511536627,0.1134118269258678,-0.018296154729586823,0.09008699337110655,-0.17818945462356348,2.6640625
-0.023735050840203484,0.01702203852316225,0.060445126888592056,0.06844381045602378,-0.05680585827888013,-0.03384102082383181,-0.03641937496566659,-2.578032636675017,-0.19462568346326303,2.7735745588723675,0.12056943054846611,-0.019479308965982114,0.09576800619271747,-0.18957012883036922,2.671875
-0.027459151394357315,0.019660885051344276,0.06989932065416235,0.07919879349530501,-0.065520472958447,-0.039178790238129625,-0.042111264710652574,-2.9858302466701288,-0.22503519197089525,3.2059708422137976,0.13943203658202727,-0.02259802954248466,0.11095606255932391,-0.2197390917049489,2.6796875
-0.019620319611923995,0.014104812801038738,0.05017432708202992,0.05675278538166987,-0.04721315859572286,-0.028056564452205703,-0.030149311597651447,-2.1355735410396766,-0.16057027336692614,2.2906801259569565,0.09961477975608987,-0.015934726360762957,0.07917009378385584,-0.15744810409440255,2.6875
0.009528858675977749,-0.00653096607184549,-0.02340698434752009,-0.02690211585696854,0.02080966808571568,0.013433355789800714,0.014348636244716901,1.0285223207054335,0.07836023156485712,-1.1049632357931933,-0.04822305789658533,0.0087212592949389,-0.03916906325495117,0.07505006692925623,2.6953125
0.03826373757982512,-0.026859954275892117,-0.0959707473728915,-0.1093942408692327,0.08783241165503516,0.05435194593378475,0.05820562035411623,4.145347853850649,0.3136271670341204,-4.451380704947166,-0.1939089561738204,0.0330071482821376,-0.15580110807887737,0.3042348281494204,2.703125
0.03818904163848362,-0.02679857398777509,-0.09578134115820015,-0.10916796059219888,0.08764159584167183,0.05425949413107929,0.05809152737310106,4.135460292927675,0.3127937750914532,-4.44332199457853,-0.1935090456923493,0.03294677733738837,-0.1554527486966568,0.30360148053498226,2.7109375
0.014613636613694542,-0.010122163625179816,-0.03625762520146111,-0.04145347771325589,0.03267277399346522,0.02071088589346165,0.022126044049988216,1.5793270283563487,0.11972033334612073,-1.699201086354699,-0.07399186583007798,0.013037231028676289,-0.05974464398245231,0.1156540085446556,2.71875
-0.0074752167954817705,0.005494763227183274,0.019495964708230153,0.021957962793983588,-0.018801376176795354,-0.010735359167340619,-0.01158361082554698,-0.8130905249515453,-0.060940936177005134,0.8730554119414896,0.03796525295138535,-0.00563335094929414,0.029881597608103074,-0.06028527819468985,2.7265625
-0.018484220945484256,0.013288410379710368,0.047288879725013874,0.05348399345159217,-0.044484290830478314,-0.026431830895191463,-0.028430393360279537,-2.006554012302825,-0.15109753900724812,2.158033335445785,0.09380452345922712,-0.014987446130028736,0.07454327887576313,-0.14786257101294153,2.734375
-0.018132720706587217,0.013058095731245252,0.04641862776361113,0.05239066648279362,-0.04373598767474277,-0.02594799343755008,-0.027942844286589837,-1.971233444650161,-0.14855092006579185,2.1206835046819874,0.09210697074550678,-0.014749323993988612,0.0731086708549917,-0.14500288281612592,2.7421875
-0.002218593747406828,0.0017998769081051435,0.006222377925966876,0.0067218444290194895,-0.00665005105914499,-0.0032633766318899216,-0.003630714701969984,-0.24598748247329347,-0.018299831693414904,0.2664725169350541,0.011427953207463544,-0.001287886473028302,0.008479644025647881,-0.018225889270636387,2.75
0.018807937847716717,-0.013099812362335468,-0.04692178718418665,-0.053539777351703594,0.042458517110881014,0.026720364812391595,0.02854166712169769,2.03721306089732,0.15434375117614763,-2.18777142959918,-0.09531505192027155,0.016567347579111373,-0.07690073087132991,0.1492312309286253,2.7578125
0.019834428462697912,-0.013840854942227615,-0.04952537831846912,-0.056423759058105,0.04491134240151881,0.02818813059524666,0.030147946884992883,2.1496148664347046,0.16309162408008465,-2.310516616754419,-0.10062337292551275,0.017493422383771825,-0.08103707393602458,0.15726500639209554,2.765625
-0.0008077840292762811,0.0007790909128761777,0.002654511525165466,0.002802468302574972,-0.0032894353730936153,-0.001239854041882025,-0.00139743193590655,-0.09207998232423906,-0.0062799661152414,0.097184310214661,0.004143439384061061,9.462432726355103e-06,0.0028104221735922225,-0.007320158472653617,2.7734375
-0.015787697636925672,0.01140210466511275,0.04051138292353652,0.045735007501900696,-0.03832313984407019,-0.022588791955396675,-0.024313559257274263,-1.7193835595309508,-0.1295336083001784,1.8475079396706322,0.0802985578747727,-0.012734967653097229,0.0636155119085233,-0.12661189257865232,2.78125
-0.01198517118380908,0.008717297255261061,0.030864334628123435,0.034783019472926925,-0.02945915689663402,-0.01715749532982823,-0.018522341065370804,-1.3062229663111529,-0.0984886836561323,1.4054604595324527,0.061071734956386695,-0.009558514434672443,0.048141827194765195,-0.09615752030056166,2.7890625
-0.004830107351093128,0.0036430184130612896,0.012776942727154201,0.014265340307324074,-0.012705476446019872,-0.006972180118642161,-0.007601496285801988,-0.5284268838808416,-0.03950259394723373,0.5687645781392655,0.02468119055589653,-0.003482637306078877,0.019114682974917356,-0.03913466222372366,2.796875
-0.004318530900142539,0.0032700502612341286,0.011554017913150362,0.01284892753786072,-0.011478194936638736,-0.006286729100727473,-0.006827538394678378,-0.47273455077150767,-0.035030606463518944,0.5070296275475219,0.021998882522759507,-0.0030029146474027015,0.01709320475124337,-0.035197920604586964,2.8046875
-0.0015730330553310329,0.001325883838499298,0.004656835782168955,0.004974249298910315,-0.00507625130956579,-0.0023869657548516443,-0.0026129594601111967,-0.17548864603200678,-0.01266943915536312,0.18767985127348327,0.008079685111463921,-0.0006561081291010238,0.005928501116226718,-0.013373543507268782,2.8125
0.005477381088907474,-0.0036593880429434075,-0.013238279538174462,-0.015361024749947797,0.011391758239877274,0.007716537963261145,0.008204028202017813,0.589536227955172,0.04484502544915688,-0.6330851109378601,-0.027686112359618265,0.005299850339061229,-0.022797588909297097,0.042971430653115365,2.8203125
0.004482588621489274,-0.002955307834173111,-0.010813465901936516,-0.012632379834780483,0.009109325682869105,0.006350980118349158,0.006697774159913229,0.48292181792324096,0.03674016631572665,-0.5175421843199752,-0.022713662649151888,0.004435470664197873,-0.01882717204433756,0.0352881253472217,2.828125
-0.005921007710412622,0.004400792567566948,0.015517813707565853,0.017237520855332766,-0.0151645344099031,-0.00850601160735554,-0.009238155257386246,-0.6443127801739683,-0.048240628519764184,0.6944489749935023,0.030019269908458553,-0.004378126749193925,0.023452503288043686,-0.04753866643834013,2.8359375
-0.008609507371883625,0.006300836151735016,0.022418666151589803,0.02512642812702424,-0.021488969857768762,-0.012405017951427242,-0.013380902013160114,-0.9365865152366033,-0.07022498078461922,1.0082569890303725,0.04373706522983856,-0.006643353407710944,0.034466906557420976,-0.0691838914944251,2.84375
0.003815320939684203,-0.002481265065631082,-0.008954729686167773,-0.010387543332939755,0.007445910733959881,0.005291451814247246,0.005615803274121319,0.408051026932892,0.031314755635943686,-0.43870344182330195,-0.019171356244673806,0.0038824087997053375,-0.015908588631596384,0.029469177158889984,2.8515625
0.013736353190325745,-0.00948820043451946,-0.03407668900263359,-0.03889727417356305,0.030575466891031,0.01947149645716596,0.020790322719240903,1.4818377306143447,0.11244282463009884,-1.5939512370152376,-0.06947147986488057,0.012270819444926574,-0.056180704512834086,0.10841125927918596,2.859375
0.007120992577447533,-0.004809053195997808,-0.017383010655329146,-0.020019570712889352,0.015154006124701148,0.010064221958771852,0.010660889987181284,0.7662431854095888,0.058441484628543115,-0.8228722718389448,-0.035973675509880475,0.006655026504818017,-0.02935412794638082,0.055966080113902826,2.8671875
-0.0013804759791298377,0.0011903704229005298,0.004117889597881293,0.0044073425415006315,-0.004668455601023319,-0.0020668739878853984,-0.002350158717286999,-0.15176868352261055,-0.010970571555593429,0.1667170739737287,0.007127949790629781,-0.0005427169405987574,0.005139409835212419,-0.011485022315410503,2.875
0.00511003617651083,-0.003410623905999801,-0.012281669118253007,-0.014081139107300496,0.010469410948352685,0.007173269767452887,0.007588683538744091,0.552779613032886,0.042119730154818014,-0.5912200141410828,-0.025738072394190938,0.004964698732383992,-0.02119669082075446,0.040137782408264565,2.8828125
0.01220732359101716,-0.008424015793464515,-0.030238479455401618,-0.034421074414207144,0.027029374080367628,0.017298524249738066,0.01847312143402253,1.319014771190811,0.10002700027617357,-1.4191189291961657,-0.06171012247324067,0.010987991862072218,-0.04999536178330603,0.09634158389529367,2.890625
-0.0010184652738822258,0.0009418556714845051,0.003165898860149958,0.0033876261906109427,-0.003787670762039259,-0.0015401728081789745,-0.0017198308741882735,-0.11757356619168818,-0.008311963154527978,0.12168642723218223,0.00528550241364277,-0.00019394759408725607,0.003661248574321609,-0.009160078275935473,2.8984375
-0.01997075682917026,0.014345512026403098,0.051053267120815024,0.05762357329454702,-0.04795319594152381,-0.028552521266785175,-0.030691801206037626,-2.1709060987061073,-0.16334502378091825,2.329956603115377,0.10129650466381858,-0.016233521611299855,0.08052977323332705,-0.15990079447618852,2.90625
-0.01526649215029013,0.011010706923989283,0.03917452039881101,0.044084477622874395,-0.036981020893513794,-0.02185851416965302,-0.023530413331301406,-1.6581236570579634,-0.12477099222296527,1.7832214695607922,0.07743958922764724,-0.012274525503671618,0.06139363522730823,-0.122081779080933,2.9140625
0.00801982541140639,-0.005456756607849406,-0.019636415079526917,-0.02271706517271369,0.017285360231936664,0.011314572419500414,0.01202602992975189,0.8663322504121379,0.06571400122684667,-0.9270115912746192,-0.04054978716867345,0.00740018124867101,-0.033116601046221515,0.06351894908527056,2.921875
0.019700712815567074,-0.013710649421336984,-0.0491152619344751,-0.05619786681600201,0.04449625516099602,0.02795283611880041,0.029873102880220083,2.1305996586287144,0.16120284616112418,-2.2867212225783455,-0.09971952314887807,0.017284165713169403,-0.08048994299383538,0.1563781979376507,2.9296875
0.009362008996629813,-0.006402512320490692,-0.023001038980400294,-0.026462048335874358,0.020410053460547153,0.013231172708734763,0.014108060920135737,1.00968803052607,0.07671025103553822,-1.0848962714733652,-0.04734680818217711,0.008576114406964694,-0.038503349225959105,0.07380124303638289,2.9375
-0.009925280215016631,0.007228954548904363,0.02565380724271685,0.02892115884143683,-0.024523979384836844,-0.01421739638807106,-0.015325225666002638,-1.0791515055285499,-0.0809413610375671,1.1590367540035076,0.05036327922271474,-0.007714357166699288,0.03976237096707495,-0.07983054344736529,2.9453125
-0.02534741534046214,0.018143651716585163,0.06453515526013225,0.07311337937614706,-0.060493738456026847,-0.03615961551507976,-0.03888774915339604,-2.750652905558661,-0.207281374297327,2.9570554860145446,0.12857368823124093,-0.020792449629051128,0.10232811473930692,-0.20249956230940416,2.953125
-0.02662054266817055,0.019064176924437452,0.06775346906147404,0.07670478572889455,-0.0635175229728799,-0.0379782870296526,-0.04086419493499615,-2.8911425303338785,-0.21807545931616512,3.1093737371241836,0.13514120925443818,-0.021923354014714597,0.1075135678039234,-0.21257793032965427,2.9609375
-0.006786228011712349,0.0050377622782005185,0.017734412527518922,0.01987408717619752,-0.017290732762061767,-0.009756398018875156,-0.010580490586860057,-0.7425915386008438,-0.055798426706146216,0.7990821152043133,0.03462861260318622,-0.005143310813829128,0.027082209301122467,-0.0547641720983457,2.96875
0.01984011616428414,-0.013818980550595649,-0.0494443747154496,-0.056369171911843825,0.044842702897178045,0.02814656427436259,0.030112008792218467,2.145547526277187,0.16257901229790842,-2.3071947787520046,-0.10046794137602466,0.0174456957334108,-0.08092904493812755,0.15711616005447712,2.9765625
0.026103712468970742,-0.018268830755299108,-0.06524357777048694,-0.07429670932321135,0.05949246866770033,0.037059534377641694,0.03969303384808076,2.8268559571847702,0.2142380134201224,-3.0399538589684685,-0.132333056647326,0.022792793767834694,-0.10635269183538433,0.20699892789945523,2.984375
0.010433484028636258,-0.007176108903168581,-0.025673645799962765,-0.029421817728728823,0.022919337250733994,0.014732461203835761,0.015728903793207075,1.1278279272435328,0.08581595418688624,-1.2120254420929844,-0.05283155820380112,0.009506874015022928,-0.04278629018496255,0.082337835768071,2.9921875
-0.0009872090102154307,0.0009238317019282814,0.003153016805962154,0.003263507459318841,-0.003785116117171029,-0.0015349751787147737,-0.0017559870762095425,-0.11209327957353227,-0.008087634266338824,0.12269851304486722,0.005223537668395308,-0.00022670232606013116,0.003536568117689083,-0.00851196541555572,3.0
0.003754445287409671,-0.0024238676293752,-0.008851495659539186,-0.010353602528458256,0.0072534476318038615,0.005231547063205876,0.0054821156741577445,0.4012997224052593,0.030638319476651084,-0.429085127898658,-0.01876923550537141,0.0037536533709958226,-0.015728650085055598,0.02922828099946461,3.0078125
0.008590787087978391,-0.005857149364296199,-0.021079630979680266,-0.024209928018067352,0.01858542659653276,0.012123799939747049,0.01289602793368782,0.9265590730105686,0.07052331368095434,-0.9952562033352783,-0.0433889077313219,0.007883826926310946,-0.03536260499835462,0.0676492507304365,3.015625
0.002180457488760302,-0.0013351043678487226,-0.00487287510686773,-0.00580769096321219,0.0036970993645539935,0.0029802880397965074,0.003130210870982381,0.23270173661911198,0.01825777213177261,-0.25045907346708696,-0.010991531376276793,0.0025187310702146685,-0.009337003798918568,0.01656270897134022,3.0234375
-0.006381511841655836,0.004721481137976161,0.016739624494152314,0.0187199086165018,-0.016246579863614507,-0.009199964950363291,-0.009924604033476062,-0.695243322200899,-0.0519832500561554,0.7469815530482022,0.032392004007435526,-0.004706184171626689,0.025390954284656157,-0.051525836622015285,3.03125
-0.00896563521559765,0.006557709714058643,0.023187085818526812,0.026028178476832777,-0.022271778253855623,-0.012818367248084096,-0.013845992879700224,-0.9757961931105987,-0.07340573933294929,1.0480150793214396,0.04548854348855201,-0.006916899632383771,0.03580994370352734,-0.07194619498760396,3.0390625
-0.008689722994102925,0.006366957238158337,0.022437216478483908,0.025155741469726503,-0.021634443592826947,-0.012389141047994587,-0.013427619983625384,-0.9460614761140032,-0.071163612828722,1.0153304019697567,0.044076309389304326,-0.006712139488273744,0.03465456245452679,-0.06966047742280752,3.046875
-0.006786326529374747,0.00501522369720076,0.017700952784565897,0.019778777300161275,-0.017218863358499106,-0.009731744201769582,-0.010566511387045731,-0.7390088305142213,-0.05535666191465711,0.7939283416818815,0.03445526894436036,-0.005105292735956848,0.026997997041843146,-0.05454293285550485,3.0546875
-0.0019527743914869175,0.0015897837495475805,0.005598270000552898,0.006102725462889291,-0.005979088366537643,-0.0029226967381538425,-0.0032142947270450473,-0.2145983804067056,-0.015701510425643887,0.23223732081425508,0.010026661253769114,-0.001001267951160708,0.0074786100964356235,-0.016190491756571796,3.0625
-0.0010359371979191817,0.0009486490021239818,0.0032625064577734833,0.003528336123307764,-0.0038539758317961323,-0.0016068798313930534,-0.00177889486719262,-0.11696587828540463,-0.008488944663132983,0.12699365420407321,0.0054372153147948755,-0.00022213530357890687,0.0037596145201738602,-0.009040899868370145,3.0703125
-0.00847800557028124,0.006230694358520144,0.02195709708968102,0.024726613742988006,-0.021201494145612395,-0.012138991306238458,-0.013098529007100426,-0.9263030064712754,-0.06977846639360054,0.9956794128002825,0.043172639740868234,-0.006540475077074465,0.033883243461305,-0.06833103750497554,3.078125
-0.010235330813191456,0.007477133977657584,0.02640063281334295,0.029644930926755558,-0.025298473982398515,-0.014633221524377427,-0.01580038223382565,-1.1162675816435852,-0.08407555042326079,1.2017255356363765,0.05205219815976523,-0.00804885023157702,0.040977677864514096,-0.08218130105666695,3.0859375
