AF3,AF4,F3,F4,F7,F8,FC5,FC6,O1,O2,P7,P8,T7,T8,time
6.035947200792791e-05,0.00018717575538905047,0.00041103896643224826,0.00019000745596047504,-0.0012810679343056414,-3.4917379574367665e-06,-0.00010622191604490939,-0.0022877631897843522,0.00031531967555341155,-0.003301284801928812,-0.00018595226911029015,0.0007087415217322721,-0.0006946225732146937,-0.000360443008814369,0.0
0.00807123557573581,-0.005495304878004896,-0.019802502256046853,-0.022739427190356123,0.01743024037530789,0.011413839493423603,0.012188078002402675,0.8687439873462112,0.06606271392022882,-0.9362311431535844,-0.040861315621119706,0.007522307016685711,-0.03328311777317077,0.06342023362506202,0.0078125
-0.0006128562620661439,0.0006340509999139275,0.0021552145900607085,0.0022243875219471023,-0.002799367409334264,-0.0009675086826136147,-0.001084804005680185,-0.06929800041539855,-0.004686027716263231,0.07463806855236146,0.0031111263724769313,0.00017536803389235734,0.001949041308873125,-0.005656025589807825,0.015625
-0.00632013427740857,0.0046770346701814364,0.01659414236268456,0.018580858878900992,-0.01613629256891982,-0.009122970549397025,-0.009864717759416448,-0.6876011312893078,-0.05140795296776765,0.7405255550713773,0.032107569078908146,-0.004700846050838882,0.02515051055551588,-0.050957597382814177,0.0234375
-0.0013487765981613354,0.0011768959360483394,0.004030210186629828,0.004250611399085888,-0.004594335145694658,-0.00204029639999477,-0.0022961877224796593,-0.1502966301806675,-0.01107332221580996,0.16489219544210318,0.007029082138042194,-0.0005422313615447336,0.004961926593215572,-0.011240042930107913,0.03125
0.0007524186534310036,-0.00030419171437252423,-0.0013267523321439014,-0.0017993186279089458,0.0002984708498929507,0.0009952249100508661,0.0009640703461529398,0.07675443590096001,0.005925899277278773,-0.07840724057185168,-0.003596281102612306,0.0012445632195254462,-0.0036211838928211673,0.005448462485346378,0.0390625
-0.004367089595814854,0.003304712103273093,0.011570810727970447,0.012945383046771062,-0.011589006259529579,-0.00626528442361914,-0.006801229646725015,-0.4768879573683925,-0.03571834156363788,0.5149134705011015,0.022253977344764354,-0.0030349526985076172,0.01714563028312034,-0.0354753492938196,0.046875
-0.007092628771396909,0.005219998954103201,0.01849433930119502,0.020825167600912485,-0.01791271813386627,-0.010170960398075081,-0.010981571110885442,-0.7704690706087673,-0.057669224542054726,0.8296453429120609,0.03599498711883597,-0.005318457371223702,0.028248960680060033,-0.05721087027473578,0.0546875
-0.004743362527653077,0.003564452925493783,0.0126290371308922,0.01408485471698164,-0.012485145178068776,-0.006868359183347385,-0.007457348017182853,-0.5160477737863718,-0.03849451512522482,0.5581784217437236,0.02415753879865039,-0.0033702456434728674,0.01875271292386105,-0.03839654556010092,0.0625
-0.0026865226953263774,0.00212921943159903,0.007440739379315571,0.008141411728961486,-0.007760180165499085,-0.003940898389061618,-0.004347728816209089,-0.2959104793740533,-0.022046225392812844,0.32207361214894104,0.013851458882766288,-0.0016790217345209616,0.01042718673511083,-0.021991439525868496,0.0703125
-0.0010958837521045923,0.001013469567498855,0.0033722250220251503,0.003547645222839813,-0.004037003359058824,-0.0016458567079211043,-0.0018961303881093227,-0.1259879185890093,-0.00921294200151544,0.13555310188044223,0.0057896080361946834,-0.00032926681477660506,0.003997824491872065,-0.00945094955434775,0.078125
0.0013192654142766466,-0.0007054286270718198,-0.0027391148817547855,-0.0033622492348005413,0.0016728261543142507,0.0017925052059858352,0.0018196841860317777,0.1360417556617661,0.010779825095740533,-0.1501557674948482,-0.0065569226409702775,0.0017618616153901238,-0.00577734918091616,0.00963998190646886,0.0859375
-0.000588747907782852,0.0006301554445574946,0.0021325699907465737,0.0021590366863525495,-0.0027465881289216185,-0.0009622013135586418,-0.0010976299837678607,-0.06916083043856067,-0.004556543252751888,0.07048615515556074,0.003055118075009744,0.00018093845461759683,0.001969807925447658,-0.00560627756994462,0.09375
-0.0068382604643431365,0.005049921779557928,0.017933598492338828,0.020078070730168974,-0.017354906626911845,-0.009869993251670274,-0.010653151207522178,-0.7459311315691555,-0.05571296861196715,0.8002720136355036,0.034760610325368084,-0.005117240893784201,0.02729352455124863,-0.055309995411595377,0.1015625
-0.0039786434963413565,0.003034214362588427,0.010654733710555487,0.011779584774616068,-0.010709650470897536,-0.005759471259955745,-0.00628254010656115,-0.4361439954259625,-0.03246534027168022,0.4686459292087563,0.020288159929555266,-0.0027304033506958436,0.015622009524539786,-0.03237594963001566,0.109375
0.013524899079171801,-0.00934673256033621,-0.033563001156380605,-0.038484568853923144,0.03010940216307039,0.019175162138263938,0.020442887420758782,1.4613017816295033,0.11080841663513165,-1.5701611235820074,-0.06845848210437439,0.012061867307645044,-0.0554329327323403,0.1071316529944715,0.1171875
0.024881116246273476,-0.01738782868297764,-0.06215056331542546,-0.07096309052447203,0.0565778063987376,0.035292853559544785,0.03775927394133062,2.6926671452172077,0.2039539572769864,-2.892893561810584,-0.12604469579124025,0.02168616102316284,-0.1014522308652145,0.19749572783638705,0.125
0.01021649293689587,-0.0070208629135887725,-0.025070308272740476,-0.028777889496434273,0.022378804606176642,0.014380872365937332,0.015362183450090498,1.1033745626606153,0.0840486843195843,-1.185008053595302,-0.05172058608655627,0.009312788571507401,-0.041878263158246096,0.08056315957088107,0.1328125
-0.012973447279646812,0.009385820215976705,0.033372070255393696,0.03768693037239377,-0.03164724257923929,-0.01857933150783238,-0.02000279589731369,-1.4100886603118725,-0.10586208936256504,1.5149007446922622,0.0658083024713182,-0.010292850992720799,0.052172873520441906,-0.10410207338159196,0.140625
-0.011621839993064412,0.008438077698201102,0.029817099350317355,0.03364138409844695,-0.028448606046558664,-0.016576271302153327,-0.017894644276778626,-1.2635255963109422,-0.09500392761272618,1.3568546831131625,0.05895312396642517,-0.009172520910908206,0.04657244634840604,-0.09316337533479757,0.1484375
0.009112241477438329,-0.00622531178672019,-0.022513656064862678,-0.025877957846880215,0.019877469192389703,0.012943415270809219,0.013750876111653801,0.9841767838140996,0.07460545876311873,-1.0571922384993708,-0.046106723247712034,0.008338403063165831,-0.037583523229316074,0.07211302475539975,0.15625
0.0118401485328415,-0.008161415771029877,-0.02927876843636614,-0.03356725463650786,0.02619427818613832,0.01676930681610173,0.017874813005115685,1.280938315730592,0.09697793159591744,-1.3741288739871589,-0.05988772471029885,0.010646965467447724,-0.04856224902130326,0.09387463757307186,0.1640625
-0.01066510494744673,0.00775253906846492,0.02757168316939635,0.03112871922304431,-0.026284777493986743,-0.015299129966503929,-0.016491951550528707,-1.157919684545306,-0.0871966036365883,1.246983116475036,0.05421258041623382,-0.008372042133349028,0.04282518201002877,-0.08547124049727256,0.171875
-0.02227861721411214,0.01597601836257223,0.05682317790500267,0.06444860841416417,-0.053362577175423455,-0.031818488827596574,-0.03419685679335627,-2.418945150919955,-0.18235328781032717,2.600682780509919,0.1131103104225498,-0.01819958716683163,0.08992597447290496,-0.17823248527183197,0.1796875
-0.00464068816610347,0.0035141185748963156,0.012276494096595791,0.013766503585569094,-0.01227581123300691,-0.0067023954238750955,-0.007261674458681547,-0.5103602480992272,-0.038096403150799325,0.5491546059303893,0.023741144397827058,-0.0033053526676512903,0.018307539105224632,-0.03797038035304616,0.1875
0.012120910720645497,-0.008343038122428233,-0.02996909932156294,-0.03437809311615614,0.026774219494486058,0.017146052816447464,0.018306070198145556,1.306773183408337,0.0991738544328999,-1.4018389297533649,-0.06124050675620462,0.010865990645039524,-0.04971610448467332,0.09564646314204737,0.1953125
0.001653364454597994,-0.000954228222416804,-0.0034949068819962793,-0.004325420513772604,0.002390229984061798,0.0022424110262436753,0.002311994276212572,0.17561876791787442,0.013683997985132337,-0.18504410534128699,-0.008250049408751261,0.0020362396988235078,-0.007211858858521019,0.01256428266914251,0.203125
-0.014594387440077763,0.010532251903794186,0.037498070178031924,0.04234949860675007,-0.03545375411219335,-0.02087289626205531,-0.022479579159074437,-1.5845809685761436,-0.11928069040003993,1.7040487838047553,0.07407541421718958,-0.011683722498304627,0.058764430907221714,-0.11683265005179723,0.2109375
-0.00585993065151079,0.0043640467540488346,0.015418649546932846,0.017292005185610564,-0.015073778238323333,-0.008433851933669655,-0.009130306218959806,-0.6407487152110671,-0.04793339315058356,0.6857880751455255,0.0298160570166118,-0.004295144814335766,0.023348965015161916,-0.04750897231697327,0.21875
0.01612920826288114,-0.011184177455047102,-0.04007716218652854,-0.04587722748419203,0.036203644463468417,0.02285430838050016,0.024426874557773058,1.7414461092851163,0.13206458363405854,-1.874594004608046,-0.0816610382666172,0.014295516875868454,-0.06590434410614049,0.1275986711804765,0.2265625
0.018565273237627054,-0.012916181952835832,-0.046205169522893864,-0.05293506690371492,0.04189468817953455,0.026305557405777637,0.02810777856691743,2.008368996409156,0.15227998171877796,-2.1581612026888246,-0.09405587965063171,0.01634772504933819,-0.0758318019294252,0.14727502051566926,0.234375
0.00015077454816737255,0.00010511971846111288,0.00026548936708666087,-9.014202273965602e-05,-0.0010550059164062518,9.02526327929877e-05,-3.7450428412234e-05,0.014259650396004544,0.0017047229860335249,-0.013439954807093677,-0.0006957360918715078,0.000755269705580138,-0.001100246156298446,0.0007520785913871532,0.2421875
-0.011780383455523886,0.008557052247047127,0.030343317187152854,0.034180543184503386,-0.02891212544953896,-0.016878748231606233,-0.01824282096440464,-1.281752924602943,-0.09620994594778721,1.3772369087678982,0.05986731278708444,-0.009351855852797922,0.047350610947598355,-0.09447943128332896,0.25
-0.006189894789704723,0.004611113653103112,0.016198998553149466,0.01816149444490652,-0.015887997857867653,-0.00889877142269465,-0.009652051646165364,-0.6789826674296687,-0.050772955789771104,0.7268658909075545,0.03155440150147142,-0.004605916367666846,0.024648346769022902,-0.05021586847243518,0.2578125
0.0008913941599842145,-0.00041194486061619265,-0.0016794701976860667,-0.0021143740025784067,0.0006619761674053007,0.0011909817347529816,0.00121322046903451,0.08994693876426854,0.007269433678790551,-0.09946930634370464,-0.004424322878677023,0.0014292614311400898,-0.0041411814383211735,0.006154328230460528,0.265625
-0.0013146535819202445,0.001128558313209501,0.0039128187374450315,0.0042677770545320425,-0.004438478973145166,-0.0019641436960899455,-0.002157556311694627,-0.14518843260573194,-0.01044947346634237,0.15529602032994733,0.006680018930908018,-0.00041700390151227736,0.004802744276147502,-0.01123200531331591,0.2734375
-0.0026299538966578963,0.00205958341397716,0.0072570096721061746,0.008018228771164721,-0.007508911829582255,-0.0038584995454350895,-0.004214946502522562,-0.28623399488149903,-0.02115090071582216,0.30945721580234953,0.013379357893836496,-0.0015662336242366372,0.010168489374638203,-0.021477064712516775,0.28125
0.005708016666419655,-0.0038216045030415847,-0.013802337970168043,-0.015995492377250096,0.011894558059099418,0.008017016724669108,0.008491862407845602,0.6159918750697929,0.04681278446406873,-0.6581483280145541,-0.028797789675683156,0.005439450849403109,-0.023685082535415427,0.045043868337848826,0.2890625
0.013964704437069708,-0.00965502173461364,-0.0346930131022352,-0.03971613052135184,0.031135782867098234,0.019810935220879893,0.021138722094069466,1.5097626045783645,0.11424089781282186,-1.6187408032499935,-0.07063123846811989,0.012430400803579275,-0.0572443435600443,0.11070677808711142,0.296875
0.009995148711388957,-0.0068573599659918815,-0.02469849687021615,-0.028258746257721026,0.021919823631530555,0.014189004864675694,0.015128471362867959,1.0803624060911778,0.08198093270644088,-1.159508492122213,-0.05057730397608709,0.009124328347954668,-0.041131620102622585,0.07889424878018046,0.3046875
-0.0009956112468684551,0.0009082815720326599,0.0030977207275303432,0.0033407457182143135,-0.003682921116740044,-0.0014833336496953243,-0.0016670562101343234,-0.1099680989299933,-0.007730601038837221,0.11823298668905875,0.005092917222577351,-0.00014952151934112718,0.003540348678552706,-0.008713878806010477,0.3125
-0.006319059157484793,0.0046829991873880055,0.016627042598057484,0.018609388815914868,-0.01615705105614838,-0.009119451385660286,-0.009865802248855568,-0.6882507851775604,-0.05147218929783851,0.7409641899110592,0.03215634994618737,-0.004695706129169606,0.02519416257760541,-0.05103822107107143,0.3203125
-0.0061701704081341124,0.004597417164312031,0.016276019980013597,0.01813895030146424,-0.015905231260279238,-0.008929144903003134,-0.009683645295441043,-0.6751771070204879,-0.05070754163788394,0.728312302606076,0.031532172773377456,-0.004628957518450141,0.024580640493767614,-0.049817905674913364,0.328125
-0.008197559709730493,0.006040490825148819,0.021327550120074684,0.023917681131322043,-0.02063863459841587,-0.011785225207884132,-0.012755659913733487,-0.8969845342339617,-0.06751026297312246,0.9650376056743922,0.04182748561075207,-0.006347823550081131,0.03278639172409744,-0.06604608222568291,0.3359375
-0.009204432085523016,0.006740780464371426,0.02381932456360255,0.026805125379253208,-0.02289610729020028,-0.013196016259883165,-0.014248111895889357,-1.0051765444693261,-0.07546609899262566,1.0783520599313474,0.04680679644193846,-0.00714723571280932,0.03688308950044765,-0.07414899879621709,0.34375
-0.002089469960929733,0.0016884603090373809,0.005902813651348753,0.006441726140758693,-0.006244293403707406,-0.0030881711618953017,-0.003378409327520962,-0.23118673378627821,-0.016786901911804923,0.24621289413334066,0.010629352184979284,-0.0010853288496387211,0.00803480602113951,-0.01747481714199111,0.3515625
0.0048893338520639715,-0.0032531158841616584,-0.011662213849785727,-0.013554227133625515,0.010001103733817017,0.0068310757425195075,0.007255552853064146,0.5268698876508402,0.04043113513815266,-0.5663989835161267,-0.0247269151106696,0.004806298004943303,-0.02029578617497,0.0382001259995845,0.359375
0.0002951495688607512,9.697405152708412e-06,-0.00011057394128019626,-0.00045520122827055385,-0.0007511951571826058,0.00032390082169397606,0.00023564167590547628,0.02802580464008905,0.002535192620086383,-0.029235738270172108,-0.001360372858211689,0.0008757425776751462,-0.0017038359154508734,0.0017312556462199477,0.3671875
-0.005958223967530339,0.004444526823982544,0.015604448858686651,0.017397124949573815,-0.015328685776428586,-0.008547951462683974,-0.009305708676031728,-0.6513070774805908,-0.04885651991704971,0.700162590781215,0.03035982999531803,-0.004436323831308394,0.023647410135000047,-0.04803128551761378,0.375
0.0006174111881899792,-0.00021362976129109696,-0.0009597242756416161,-0.0013906746183199098,1.3023897397052977e-05,0.0007791363368099171,0.000722209298581349,0.06160816183572027,0.005175488192702848,-0.06626768225658534,-0.003005991894611319,0.0011497686881123416,-0.002982141852977805,0.00423327736862321,0.3828125
0.008563625956186913,-0.005850039313607013,-0.020939760768694395,-0.02403423170498944,0.018540826661475544,0.012043598731242944,0.012845044435137787,0.9244092057300615,0.07055003910446647,-0.9931478081088329,-0.04332383830678896,0.007915368332596042,-0.03516776955879405,0.06738210353716907,0.390625
0.0015702965097829928,-0.0009063536849008324,-0.0033270533905890454,-0.004000159601680722,0.0022652186321547073,0.0021172386053310986,0.0022022904153755447,0.16693960750162595,0.013285333640090614,-0.17996040293409665,-0.007911431984728205,0.002018349330671883,-0.006840557343106145,0.01169422469733747,0.3984375
-0.004961999411469752,0.0037247604357831037,0.013039131005331465,0.014549817641838601,-0.012920170335166967,-0.007105497004420051,-0.007722363672972928,-0.5419002249409651,-0.04049457221411571,0.5804127465604156,0.025173645357346393,-0.0035303228305591803,0.019545488893984685,-0.04018394559855429,0.40625
0.00900079187022097,-0.00614807465750797,-0.022217540540350675,-0.025563213248745262,0.01962980424076148,0.012782150275760792,0.013587921934647366,0.9717201874493947,0.07368411848132901,-1.0451904459530397,-0.04558846394692834,0.008248465877907474,-0.03714413904159522,0.07116430755416117,0.4140625
0.022840871926070937,-0.015948880021315587,-0.05703375079233636,-0.06510815760521203,0.05185167187147919,0.032415530558911464,0.034664688826608725,2.4738170228037477,0.18717445224488016,-2.656259703140701,-0.11569614253115251,0.019955099900368846,-0.09321465781496269,0.18144630972214354,0.421875
0.006836887202734278,-0.004634634801968168,-0.01657682441616161,-0.019066321650122738,0.014517479534825151,0.00958845852183175,0.010213299775342553,0.7396957085596587,0.05627123216228895,-0.7916092081685155,-0.034531455777199634,0.00644037598603976,-0.02820049383378187,0.05389386168155503,0.4296875
-0.020552721685610457,0.014754341879342981,0.052482605227256215,0.05945163799313922,-0.04933382917223813,-0.029369535700704583,-0.031565083786532507,-2.232170667841736,-0.1681750335089572,2.399681855760068,0.10434220497867708,-0.0167269705448564,0.08291863472786769,-0.1644839965567823,0.4375
-0.019441686407602028,0.01398679086830798,0.049608901131615715,0.05615328558937955,-0.04675632462539979,-0.027744139635948316,-0.029843905313027046,-2.1147886902900197,-0.1593124688064691,2.2720876902186284,0.09874533791707464,-0.015816932574936184,0.07836221155997512,-0.15578663082158276,0.4453125
0.005951305568172743,-0.003980875668673097,-0.014439328713202679,-0.016694356946500472,0.012417824699281975,0.008395646056720567,0.008899053803470993,0.6393009290905132,0.048710461470505825,-0.6848225735484688,-0.029980939854329237,0.005645883300100405,-0.02468007186146149,0.04662119384873421,0.453125
0.018396503267984338,-0.012805715280254171,-0.04576658955404809,-0.052298127732396525,0.041422975108955686,0.02607694019311913,0.02787038830766085,1.9921041572255616,0.15089745585491335,-2.1356908760324345,-0.0931168036861718,0.016195018606597462,-0.07514168181021719,0.14599122969404343,0.4609375
0.006836316561825263,-0.004630585533271373,-0.01656752059747815,-0.019055383252406292,0.014471223307515439,0.009607609292362165,0.010225726211408251,0.7382936901183034,0.056202562051460285,-0.7905272752585901,-0.034524580939714354,0.006441709350041401,-0.028177040719071404,0.05382102102296023,0.46875
-0.009156190601183717,0.006705812579599268,0.023764479985101793,0.026777385718962463,-0.02281369264996801,-0.01314946422007647,-0.014179609510686864,-1.0002192798624312,-0.07512400597065218,1.072841342152883,0.04659552928073864,-0.007095826558223978,0.03674763164752261,-0.07386343989401434,0.4765625
-0.017066122963822265,0.012316137885739075,0.04370059180136949,0.04930555877700195,-0.0412272742645842,-0.02440257383418381,-0.026269431877309804,-1.8592310408025066,-0.14003657465205177,1.9952230559463238,0.08669368745300249,-0.013813571766175193,0.06879605729430804,-0.13683043712034676,0.484375
-0.018123163325741414,0.013049668872653259,0.04636228572171388,0.05222015284005266,-0.04364490553806169,-0.025905871116161525,-0.0279065647032696,-1.9694790880798876,-0.14833724864785944,2.11739278041471,0.0919656616269956,-0.014713667334601905,0.07300338923060982,-0.14486155754774513,0.4921875
-0.011892884303053288,0.00862440569276772,0.0306413821433444,0.03441929283467606,-0.029115663325303277,-0.017032723604546558,-0.01840146901831664,-1.2906803959843436,-0.09696830168302183,1.3894542006742183,0.060338328464172024,-0.009430735823985417,0.04773192056818472,-0.09509528995522884,0.5
0.0008536613352517267,-0.0003884968831758387,-0.001530451906184478,-0.001975658830198228,0.0005582371375611093,0.0011196233389294968,0.0010759955997497552,0.08875880518806152,0.007276390447036563,-0.09638558959201801,-0.00421004516130429,0.0013607237577549804,-0.003895076258765988,0.006102699771313653,0.5078125
0.011761041095989336,-0.00809534412457858,-0.029079355995062586,-0.03319820759381542,0.025977104841039888,0.016652538767988712,0.0177650049558593,1.267757897639116,0.09629403371966408,-1.366966625681065,-0.05945734999121019,0.010600528173791356,-0.04813065395321111,0.09265365333679618,0.515625
0.014247907152341475,-0.00986681639553266,-0.035386449497357454,-0.04039492876576075,0.03183079080097022,0.020192786567954257,0.02159709081470937,1.5386484832886347,0.11677115504611832,-1.6575435809938364,-0.07215551193917699,0.0127358503002463,-0.05831766747509851,0.11252299818504675,0.5234375
0.010367061599305583,-0.0071421196376717,-0.025594722556828514,-0.029330458157804887,0.022830587982274206,0.014658371356390757,0.01566929210343269,1.12179871377767,0.08539397099212843,-1.206689185772024,-0.0525987241538924,0.009472693313247724,-0.04264437787587931,0.08188758981671691,0.53125
0.006016755967767323,-0.00406232185659496,-0.014579200050815795,-0.016881013734793022,0.012660975307513108,0.008452774743290111,0.008982967319725916,0.6510813613701458,0.049829751210549215,-0.6986949269245225,-0.03051913703465976,0.005760257472617931,-0.024963563687513506,0.04741387682988526,0.5390625
0.006471654195423947,-0.004361786850745306,-0.015703299252852142,-0.018212796902010896,0.013660090977954262,0.009105553856091821,0.009650287008139932,0.6981712637726473,0.05314941339106347,-0.7478794326915644,-0.03269537983581633,0.006089869508070657,-0.026776817647484977,0.05105643661773814,0.546875
0.011710161316554892,-0.008057515175246305,-0.028954961844727484,-0.03323386518180621,0.025859332955673033,0.016590795814465806,0.017684714556239062,1.2649698420040127,0.0957560792894635,-1.3554853916103897,-0.0591938408412704,0.010516010732366028,-0.048066064365642966,0.09271908871610093,0.5546875
0.012173839906197984,-0.008397206541089348,-0.030165063341808886,-0.03448429212034278,0.026976928649821586,0.017269445055400703,0.01844458451868593,1.3167023234589303,0.09975425185648402,-1.41040104844731,-0.06159634570531226,0.010955334503698847,-0.04996433219528484,0.09630937013318035,0.5625
-0.00025655006740652576,0.000388517732764736,0.0012310730644088295,0.0012510593119479073,-0.0019913478945602905,-0.0004462820058155127,-0.0005468617750851572,-0.029850534556185006,-0.0017310546507003843,0.035733856812466526,0.0013968069559065193,0.0004594504923022987,0.0005341093409840869,-0.0028024641639959554,0.5703125
-0.01733578846974302,0.012484519544863022,0.044399707728853786,0.0502133207293989,-0.041857859400065874,-0.024794000571026233,-0.026686895937176776,-1.8832071507802126,-0.14173422044810663,2.025675826077989,0.08806550494901753,-0.014034854442325434,0.06989052273634075,-0.13887016078284528,0.578125
-0.02402281850118247,0.017233663888859,0.06128173707436245,0.0692851761013118,-0.057491380574647845,-0.0343126662141317,-0.03692134116586038,-2.61098701729569,-0.19698578126258112,2.8061664537372724,0.12205249003240343,-0.019739080285524103,0.09699793353793365,-0.19205536246282875,0.5859375
-0.0190715833622749,0.013731314622075844,0.048722088230603464,0.05503389602116665,-0.04592344634034484,-0.02723538499953308,-0.029325784981415203,-2.075034021974979,-0.15666637766916777,2.2289146783588447,0.0969242270094528,-0.015533701694776874,0.07687279935042836,-0.15252399266337385,0.59375
-0.011635160373537292,0.008455864267463302,0.02993233997613171,0.03379159892447659,-0.028538891648368665,-0.016650035917914745,-0.017949939239835084,-1.267675861557167,-0.09544836373509256,1.3603606898739236,0.05913003042777846,-0.009189811863497878,0.04675624643147891,-0.0933470799985026,0.6015625
-0.0037843007294589477,0.002890952752406896,0.010190854687911644,0.011399390168833769,-0.01024208453316076,-0.0055145865240412185,-0.005993429276144551,-0.4156854197126925,-0.030692219060713743,0.4445576989948943,0.019276017369398466,-0.0025241817938937462,0.01499369313568052,-0.03100792877644831,0.609375
0.007487508206612971,-0.005083967648755385,-0.01819613404652848,-0.020940565951752997,0.01600300055839315,0.01051537808163129,0.011194339282715545,0.8063624206985341,0.0617106186415873,-0.8679330172680538,-0.0378778000415611,0.006996526316296085,-0.03076764756138919,0.05871163114375369,0.6171875
0.016815889024574236,-0.011680591020537846,-0.041782688044969096,-0.04785339055085579,0.03776203079749511,0.02383615006910578,0.025465490403498017,1.8182154641571215,0.1378577555978248,-1.9538613331176924,-0.08518296086141908,0.014865429579099155,-0.06876515446649252,0.13322571639350356,0.625
0.0157718535964062,-0.0109409311438697,-0.039215663455646546,-0.04495218703313746,0.03536147552645084,0.022385969606445778,0.023896523599667194,1.7061314527865206,0.1291700635759394,-1.8322029060924139,-0.07988625799967201,0.013970098209179266,-0.06460830318441024,0.12511577375045502,0.6328125
0.007716758748249163,-0.005245217770104027,-0.018863896028355732,-0.021734590336314898,0.01657546975994572,0.010890963395331998,0.011572089756979811,0.8334845590454546,0.06341871618758858,-0.8941390414979897,-0.039014087118390356,0.00716143094998417,-0.031830320818723626,0.06086784717670167,0.640625
0.0023820446051685726,-0.0014784862487147471,-0.005340692864983601,-0.006283236565768096,0.004124060289920707,0.003250850122149726,0.003402141941524269,0.25532569394332505,0.020039468657419138,-0.2732344120071019,-0.011970599672284402,0.0026754026665228073,-0.010074571241459959,0.018172340458445388,0.6484375
-0.0004718437168303626,0.0005374968905947758,0.0018295426339086619,0.001840533902060339,-0.0024911159076483756,-0.0007947594980469056,-0.0009197891631584601,-0.054120973006608425,-0.003349725503648507,0.05858255057888423,0.002436639446233262,0.00028280097358637167,0.0014492078442434515,-0.004559609096424681,0.65625
-0.005667609653414985,0.004223996704220467,0.014843305138911475,0.016541558017092027,-0.0145615000778306,-0.008128232039048788,-0.008802098318154952,-0.6184151952805989,-0.04627375666820048,0.6640213167210635,0.028758786548068047,-0.004132398446754306,0.022394786422013705,-0.04579733247453999,0.6640625
-0.006411535079929307,0.004762827912507188,0.016699946350805336,0.01862901624747901,-0.016322292331108202,-0.009169410072802163,-0.009949068920757424,-0.7002534950789455,-0.05264958348263577,0.751654010198359,0.032601616250364174,-0.004801547439484472,0.02540348891501302,-0.05165715455770915,0.671875
0.005203700753773943,-0.0034611049880645386,-0.012532096867953351,-0.014514605881679635,0.01070647723310571,0.00731397268500616,0.0077333221917461155,0.5598774105292446,0.04262280111531599,-0.6011214135296192,-0.02622815720599732,0.00502589516289177,-0.021613083620487594,0.040841861639337514,0.6796875
0.016396647519402004,-0.011396282044856836,-0.04072858554412369,-0.0464723240200494,0.03680477051957553,0.023203089045452752,0.024810018179946502,1.7752514042218221,0.13459134378225004,-1.9056212194985886,-0.08299382254203802,0.014536265361524902,-0.0669652049606447,0.12996088588043653,0.6875
0.009053695650935112,-0.006197035828781566,-0.022247759431227702,-0.02545198509431741,0.019708096197566017,0.012770000486752989,0.01363142578006712,0.9781024529088186,0.07439500373541605,-1.049947081631193,-0.045770181880081584,0.008335969748147156,-0.037200886958562294,0.07136772248709126,0.6953125
-0.00791107780103015,0.005828803302411236,0.020507191766784515,0.02309037700927587,-0.01986976497964334,-0.011336305964257535,-0.01225632960581396,-0.8646588340442487,-0.06491493180661662,0.9281268597105296,0.0402983482497765,-0.006057544012698407,0.03160700793426374,-0.06386163678615912,0.703125
-0.013200533439994526,0.009577735984883444,0.03388578814856311,0.038221457984727196,-0.03224346114751994,-0.01886260276224149,-0.02035541099656456,-1.4386076721117849,-0.10837432551478707,1.5456425818718014,0.06713281907176934,-0.010565994617649198,0.05307045942794047,-0.105877236433784,0.7109375
-0.012044940662472949,0.008740585938336338,0.031044346666896396,0.03493827788450037,-0.02954367273084072,-0.017245049379427554,-0.0186031745066576,-1.3097740906584063,-0.09866380091107854,1.4104022701778958,0.061198492279839915,-0.009572019175401883,0.04836371082208842,-0.09643287435980388,0.71875
-0.02077564781229077,0.014905735347273566,0.053104282392064245,0.06001504946817025,-0.04986993423373957,-0.029682077250051342,-0.03191248731611668,-2.2546491492446945,-0.1699907162568167,2.4261505606249854,0.10540949589355657,-0.01692944888597259,0.08377583245430431,-0.1659944928285256,0.7265625
-0.025173042908847247,0.0180306931510727,0.06417808784695621,0.0726464501707519,-0.06011847217329976,-0.03593079921937205,-0.03861231521523001,-2.7343117737702913,-0.20613984467998267,2.938010899569528,0.12774424860077715,-0.020649278913265286,0.10165620692817492,-0.20133277090514864,0.734375
-0.0031455084821256844,0.002457558783182111,0.008571764503622632,0.009464525892498346,-0.008763671466366429,-0.004579613632674093,-0.00500188798969655,-0.3483320258574311,-0.025795631367673974,0.3719570066590609,0.016096670137353282,-0.002024060637773229,0.012309551653273519,-0.026040757834551363,0.7421875
0.02542349551627868,-0.017768517015627414,-0.06352723082588276,-0.0725011934182689,0.05786295355457742,0.03607076004929952,0.038586040145382514,2.7517884377540267,0.20849252053399533,-2.9567822676247335,-0.1288002045875952,0.022149783352252587,-0.10364954877720814,0.2017364004568505,0.75
0.02576061461942116,-0.018023788772633664,-0.06439268309483585,-0.07347188537220328,0.058654082291115836,0.036556243994881894,0.03909252597697271,2.7920324150119784,0.21155575416646988,-2.996754034111172,-0.13055043992086643,0.02243913944903184,-0.10505619162474299,0.20469493758255677,0.7578125
0.008935153838182703,-0.006114181028114197,-0.021950752265892326,-0.02516457466727488,0.019398704481554924,0.01262904411452123,0.013418076050062957,0.9670158331413258,0.0735975048943962,-1.0365161263679101,-0.04519134100445757,0.008197794330463753,-0.03673772056412859,0.07063674224550294,0.765625
0.009251950175055939,-0.006323852153966723,-0.02274444710361708,-0.026027806519383266,0.020130214975202232,0.013081258458134981,0.013924844089481723,0.9975183187177445,0.07581211570141,-1.0732197655264244,-0.04674146969822678,0.00847331068348131,-0.037952943740768776,0.07289490829894367,0.7734375
0.020657766815028147,-0.01439679325739876,-0.05150874006275641,-0.05877508266994179,0.04676716116811035,0.029293281893044257,0.031359979261518185,2.2329146797223447,0.16919783068789904,-2.4029144612959232,-0.10462411033697888,0.018154946881894483,-0.08425748718205758,0.1636110533323575,0.78125
0.012839602298551064,-0.008881031950897894,-0.03177536572846189,-0.036442458701643865,0.028575943938433636,0.0181527164446682,0.019425989954947195,1.3878887159208457,0.10548199423821406,-1.4930479326190225,-0.06508294869206775,0.01155651883113119,-0.05263034289052118,0.10149231412596983,0.7890625
-0.010658318662887151,0.007744351100581268,0.02751480074845804,0.03088954837746722,-0.026241820346842793,-0.015282595554435667,-0.0164736902082403,-1.1580166777206133,-0.08691150663810684,1.2458574061931973,0.054066617848197315,-0.008358406378384264,0.042671831337893346,-0.08543497749257668,0.796875
-0.023002045314994186,0.016500320503198086,0.05865769905048523,0.06629886904821823,-0.05508774759962342,-0.032836836197486834,-0.03534259751649123,-2.4988529381315585,-0.18845425551165246,2.686888588585062,0.1167759307423542,-0.018854176248882838,0.09280915754558795,-0.18373754906241355,0.8046875
-0.02103072342532527,0.015122726382057238,0.05366730278135283,0.06070492156983441,-0.05050989418258562,-0.030020591897866683,-0.032319498109932655,-2.288606957431807,-0.17268563768500073,2.4579470250105806,0.10685891064925453,-0.017193291543193427,0.08487826392977627,-0.16826456271113713,0.8125
-0.017728192024733847,0.012774752145007623,0.045313361389091776,0.051309055143227186,-0.04276367977020441,-0.025312043369839207,-0.02724015320447414,-1.929543498254239,-0.1453719806201856,2.0706031430165748,0.09005198902571034,-0.01435587729043709,0.0714853578832252,-0.14213671052850002,0.8203125
-0.011289460498420379,0.0081944892824066,0.029074241895888604,0.03287113631567012,-0.027702555375054456,-0.016149749324762687,-0.017397014735792186,-1.2266650086240276,-0.09205793507672297,1.3185055435137005,0.05730294623997043,-0.008876792057967152,0.0453080897749791,-0.09074719614521515,0.828125
0.0027463467020006644,-0.0017422428664391365,-0.0063130165226457525,-0.007452180335672329,0.0050241614429424875,0.003816438778744245,0.004009537455406396,0.29760482449406994,0.022997980013254996,-0.3152467858486266,-0.013868248035674526,0.0029764007753185088,-0.01170655722949923,0.021307998682390934,0.8359375
0.012904093919786381,-0.008913963071616848,-0.031950913768132624,-0.03669012084175278,0.02868294936849072,0.018277027402576678,0.019500692077422433,1.396846352911492,0.10572831940043852,-1.4965697808697773,-0.06529815719303947,0.011531247272850076,-0.05295566172593816,0.10236431429793373,0.84375
0.011114826126466788,-0.007639123056562695,-0.027485506298471088,-0.031558101841919414,0.024503922239209767,0.015748429115118236,0.016778633747305923,1.2005437189559252,0.0907864770737215,-1.288838643338916,-0.05619378303328364,0.010019539668484472,-0.04567244540306784,0.08806797367192486,0.8515625
0.006675930591512389,-0.004507811342845569,-0.016291134623209812,-0.01868275938921705,0.014156403041923591,0.009422853703002493,0.0100037565504688,0.7197502430829742,0.05474310625728256,-0.7736094695290436,-0.03372225494119931,0.006302706924082314,-0.027575977242591997,0.052535772951346614,0.859375
0.006236853311441769,-0.004204627129481968,-0.01510318345452898,-0.01729448688323901,0.013110841015536754,0.008752607728036904,0.00930292045726673,0.6726835827186182,0.05155351609199102,-0.7222243967948696,-0.0315194517032293,0.005950178974986028,-0.025698062369211048,0.04883234908577389,0.8671875
0.003922873430090304,-0.002558052792248443,-0.009195113033192225,-0.010718187093366952,0.0076876451358182185,0.005434065335431515,0.0057441316994539925,0.42013245024378104,0.0324965026731732,-0.45086982817593685,-0.019766210364033705,0.003968032279632747,-0.016300093816105993,0.030340959289951664,0.875
-0.0013318594929427562,0.0011716938564254958,0.004026742883521824,0.00416711742947566,-0.004556266313878362,-0.002010727079467992,-0.0022609924254921457,-0.15089807505679864,-0.010958807379998839,0.16197330151454625,0.00689399930182967,-0.0005096820796061007,0.0049209211910349795,-0.011332799720513013,0.8828125
-0.0017884809237394533,0.0014918248808190374,0.005104944969863655,0.00541311695360949,-0.0055966715529064594,-0.002622434009271811,-0.0029281550208322994,-0.1992377097600179,-0.014799383896129288,0.21455976151747425,0.009200053791582927,-0.0008964064979470064,0.0066943868611725205,-0.014786534331622069,0.890625
0.0026343137686934896,-0.001649695948870208,-0.00604120352944871,-0.007125754846872147,0.0047091464849376196,0.0036503430747753425,0.0038188333510148866,0.2816276312721193,0.021758128107366343,-0.30143760717888707,-0.013239798219042313,0.002875917396554339,-0.011192340238717118,0.020321713114540764,0.8984375
0.003342524611253387,-0.0021576161896814717,-0.0077600694173150155,-0.009013741724795802,0.006347405212018509,0.0046138027044517315,0.004882230227018955,0.3578664662837833,0.027839365361562365,-0.3850042087456253,-0.016851580535683877,0.003507740628044963,-0.01396116695622284,0.02568807622779461,0.90625
-0.0019388492457882475,0.0015825681872609855,0.005560637719432078,0.0060753228437314235,-0.005940385855405553,-0.0028908927949037877,-0.00316095745834953,-0.215646721640737,-0.015562375380424244,0.22921260826440065,0.009907454219694996,-0.0009577046254420656,0.007449464485335743,-0.016402598554043402,0.9140625
-0.007301793727346042,0.005387305029795763,0.01902007689550142,0.021306390565431255,-0.0184202406535195,-0.010467963182646277,-0.011313896051221534,-0.7970246616996074,-0.059873727838956343,0.8546662505093574,0.03713006322997574,-0.005532051742185316,0.02910109614282538,-0.058895423595965626,0.921875
-0.008280902869792444,0.006088113391573062,0.0214710892007522,0.02408363186334785,-0.020733651423066237,-0.011842657826264117,-0.012818824620166189,-0.9029759670205281,-0.06805423265603103,0.9705660200640992,0.04215534963391485,-0.006399429477770642,0.033042480732319204,-0.06657190028560662,0.9296875
-0.004848033146539021,0.003653021180689388,0.012850127408170252,0.014298851155753791,-0.012751391202954501,-0.006988669738263272,-0.007613932784729169,-0.5303098605716179,-0.03968098395063697,0.5703737855748473,0.024724633794017438,-0.003480834210020163,0.019161852096315723,-0.03926505504452137,0.9375
-8.962888251515673e-05,0.0002694201990965466,0.0008338598396366663,0.0006542546124281322,-0.001598032734694103,-0.00023466665181238506,-0.00034264361155221073,-0.012781645828380378,-0.00035272798702094425,0.013629260143816603,0.0004863423479329033,0.0006000618342968753,-0.00015002392630125464,-0.0013438039712110055,0.9453125
0.001503257202898568,-0.0008610142581429258,-0.0032583370031014566,-0.003941574228051631,0.002172744991422992,0.0020532040550818704,0.0021282655222010015,0.16082138827072917,0.012692603888313512,-0.17214151898090055,-0.007605994573901959,0.0019618488927491675,-0.006660947883143315,0.011386157257482127,0.953125
0.0012742139194894192,-0.0006808056694517665,-0.0027014661825446287,-0.003237585486748505,0.0015886619721228806,0.0017415317330392519,0.0017753029221434424,0.13427063974998146,0.010496293712921672,-0.1422435075593433,-0.0063036615895343635,0.001711855254824843,-0.005706378452570421,0.009469244390837067,0.9609375
0.0066750713292679,-0.004490641841012787,-0.016256665954745116,-0.018674861481545443,0.014099813754705088,0.009407861944538524,0.009971880955855343,0.7183671946652798,0.054594987505078664,-0.7693926381698188,-0.03360089999560383,0.006232629300263274,-0.027554653631940897,0.052433285231238004,0.96875
0.014609557764374942,-0.010119424360813168,-0.03620291854086448,-0.04147681506262241,0.03261361935103361,0.020676101166473046,0.022065329692072644,1.580479929808093,0.11980711266548832,-1.6955463887540823,-0.07393288498384583,0.012969697088487216,-0.059758491148582574,0.11581205931356342,0.9765625
0.00814079839208956,-0.005557120165444544,-0.01987320798939858,-0.022979264432600892,0.017589040766757182,0.011470421474358339,0.012220557524395296,0.8808599148562979,0.06695503956699911,-0.9439759584706636,-0.04123878863547225,0.007546103347017206,-0.03355354840711584,0.06441314030472399,0.984375
-0.01409715759650587,0.010190787335940225,0.03620839129685032,0.04083728199543208,-0.034277234310002236,-0.02016468078334634,-0.021704097562849176,-1.532954929065115,-0.11544154102165873,1.6475829336658694,0.07157706427821954,-0.011265243734655978,0.05670559018030488,-0.11296106251974544,0.9921875
-0.02334691551173748,0.01675465656257991,0.059522284958115,0.06739869208221527,-0.055892385900010555,-0.033320707437269496,-0.03583400585887747,-2.539437652800923,-0.1914085914543165,2.726345579583336,0.11855635903835934,-0.01911372224236852,0.09427160848704778,-0.18693902739938306,1.0
-0.0005030846652866552,0.0005816144881839065,0.001868155559676577,0.0018291681115624612,-0.0026067307157795496,-0.000808023958447051,-0.0009706249848881441,-0.061058590397202996,-0.0040465658208613305,0.06366736973544876,0.002657380524347276,0.00022187029314320965,0.0015324672392550652,-0.004867376513314672,1.0078125
0.026768655287524045,-0.01873805486304197,-0.06694015780354239,-0.07639361592678563,0.06102515984821132,0.0380022078939718,0.04066503274358431,2.9001932583144714,0.2196587527040543,-3.1151341650182256,-0.13570766630656464,0.023319114372434842,-0.10915884576306768,0.2126966429702226,1.015625
0.019691381068991147,-0.01372872866165759,-0.04905623905994216,-0.05596930941452813,0.044489963617861374,0.027921890302937676,0.029856484173060548,2.132994762678067,0.1615495458655468,-2.289537241001847,-0.09974133406590013,0.017319831042463388,-0.08035717629956206,0.15633495088670138,1.0234375
-0.012964904192160379,0.009398509120462804,0.03336197733675019,0.03778271713291695,-0.03170874630883336,-0.018562074373743347,-0.020002668730482752,-1.4114261444252538,-0.1062779843719389,1.5166991238434184,0.0659635375965774,-0.01033888622450984,0.0522329469838042,-0.10410735838608876,1.03125
-0.029526046510601388,0.021118509891729014,0.07513392391986626,0.08519345756454633,-0.0702922433688831,-0.042131139709007476,-0.045271877030405173,-3.208027028195448,-0.24183530291626187,3.4449687841198293,0.14988205952126002,-0.02434328925225536,0.11936786269330006,-0.23619123171231177,1.0390625
-0.01780419022371857,0.012805077376950942,0.04552941901772308,0.051431023564569356,-0.04289134059417031,-0.025442480867341282,-0.02736579401237315,-1.9339303533980094,-0.14537539921925535,2.077057819327571,0.09029780481986621,-0.014396913337069954,0.07168352260693457,-0.14263138748078497,1.046875
-0.001908558144611839,0.0015536603082836546,0.005424632700436658,0.00581457255071418,-0.005844521452498881,-0.0028192607265608454,-0.003123646544741357,-0.20868669805811624,-0.01508131666390587,0.22632733218750917,0.009710717952893615,-0.0009644529187187183,0.007177371606124468,-0.015782202331267866,1.0546875
0.006131284246820794,-0.004112015868500976,-0.014827974958822692,-0.017185907549635067,0.012821959614578904,0.008615498303200856,0.00911494149436886,0.6602900706060741,0.050307437042465375,-0.7063442163805406,-0.030879358121891458,0.005781704083950836,-0.025354450885373515,0.04822146284187323,1.0625
0.01642521890039268,-0.01137863295071146,-0.04078520109289028,-0.04668077530497278,0.036812843342476906,0.0232616297846294,0.02483959337201387,1.7729061317770212,0.1342226550191174,-1.904592195142798,-0.08299532880046388,0.014481647468177442,-0.06706945674510512,0.12999546624272587,1.0703125
0.025013779704916764,-0.01746979416909023,-0.062485957618749796,-0.07132724224624148,0.05692021105994256,0.035494013517891186,0.03800142210192589,2.7044651913490085,0.2047476043729013,-2.908973960750569,-0.12668560711277294,0.021814823598784984,-0.10194808458096404,0.19831939039986998,1.078125
0.014969703254953406,-0.01038785813428403,-0.037192071849729814,-0.04254184509099686,0.03356268314813859,0.021215148207670967,0.022697434827150156,1.618894174323466,0.12291103985972716,-1.7418555002396634,-0.07593031085195288,0.01337459186814991,-0.061256229785901874,0.11850239882540575,1.0859375
-0.005044655941496748,0.0037701103315453057,0.013278444978010326,0.014828727011007294,-0.013132351195325841,-0.007258284612800368,-0.007873888766174316,-0.5489740080196546,-0.040977353208244305,0.5917399435367687,0.025560872074900775,-0.003582551665424288,0.019901264360051154,-0.04063937044785053,1.09375
-0.008917628232247357,0.0065256289042901145,0.023038561401207882,0.02590665961923105,-0.022218322097908902,-0.01276141115528866,-0.013808561207188094,-0.9698632030521898,-0.0730707381409253,1.0457178033969763,0.04532963255164474,-0.006916990560384516,0.03559475450090065,-0.07137972298522166,1.1015625
0.001021514511358843,-0.0005004284546598496,-0.002045469860902927,-0.002574097567342448,0.0009582548684377702,0.001394428336654108,0.001373360668249633,0.1064076731774946,0.0081418488206807,-0.11384887612056392,-0.005016289118356876,0.0014847704308035851,-0.0047105203193609025,0.007674367639425181,1.109375
0.0005586904101342807,-0.0001833967904911361,-0.0008492220500641322,-0.001155228852256015,-7.946791920655361e-05,0.0007299862495765835,0.0006828349032241281,0.0571832870717456,0.00466113102505544,-0.06344288843061163,-0.002735300994493921,0.0011292816693322346,-0.0027796520332038113,0.0037876038489128216,1.1171875
-0.009660110799670198,0.0070389015163135485,0.025009828118093116,0.028232646702501665,-0.023906121353571393,-0.013848630659587954,-0.014932630525091584,-1.0491047843266263,-0.078623172934524,1.1278518164085665,0.04904243967548212,-0.007505545331788424,0.03872426387682522,-0.07775130099802743,1.125
-0.01031158241218038,0.00750919316590663,0.02671172747318155,0.030081548759305084,-0.025481686257672033,-0.01481168823410458,-0.01596550787532293,-1.1205910350037351,-0.08400742240597178,1.2085371909420215,0.05241473349415144,-0.008090099561007286,0.041373432055288255,-0.08294436010892291,1.1328125
-0.005520005837588339,0.004136174353538471,0.014605391616900802,0.016236228083125522,-0.014349636564270195,-0.00799192532668657,-0.008672152731351532,-0.6038974803702369,-0.04522491509296464,0.6530250689864254,0.0282044901800588,-0.004071558507519329,0.021920075154391906,-0.04465132322782882,1.140625
-0.010934591183011386,0.007972923773715473,0.028224230494557922,0.03170064539489604,-0.02694708546339122,-0.01567541376396068,-0.01692810983835353,-1.192228774002706,-0.08985510305717344,1.2816850391993364,0.05565482483180554,-0.00865336323041414,0.04389217178437558,-0.08768127088409693,1.1484375
-0.015766565306210838,0.011379219657434644,0.04041779682605495,0.045611788399040676,-0.0381580928093164,-0.02254626857647164,-0.02428075006664685,-1.7147886902761855,-0.12916989544571955,1.8406630770192867,0.08005770190611335,-0.012702736407102596,0.06352005184424676,-0.1262607292399621,1.15625
-0.0030517631860746902,0.002364806138875741,0.008354474201786867,0.009241225421295442,-0.008496191628251593,-0.004456243209829423,-0.004847732328511518,-0.3348680370397361,-0.02456164174297727,0.357337316599822,0.01547836552354263,-0.0018896021460913012,0.011943816204172062,-0.025176705044441892,1.1640625
0.013718377604166545,-0.009504517014024156,-0.03398431713346667,-0.038832737923947355,0.030563924651142032,0.019423466591306143,0.020767761957731105,1.482761954632931,0.11287622880429529,-1.595215514993468,-0.06955936703347682,0.012318746624342037,-0.05611811054639824,0.10833031905351166,1.171875
0.01614656645804222,-0.01120674968023255,-0.040145939834079616,-0.04583032957016246,0.03615871057167964,0.02289819524779961,0.024465944452183763,1.7445231622674209,0.1323983177996263,-1.8745302755449937,-0.08172724025877054,0.014320898773607265,-0.06599911677674991,0.1277329973221365,1.1796875
0.014192575339443285,-0.009808836140270878,-0.03520136971726833,-0.040236937208945875,0.03156615302043158,0.020109009955047826,0.02145007387767067,1.5323801871448501,0.11611177629014278,-1.6442599334617163,-0.07167011663996331,0.012597172516111829,-0.05807881458798063,0.11222485528077239,1.1875
0.01668809305279251,-0.011580593084448277,-0.041472731315850914,-0.04740668888744523,0.03742785541572794,0.023637151792330217,0.02523884421770502,1.8042033608322106,0.1367013563088146,-1.9369455912942701,-0.08437283034573546,0.014714058742036656,-0.06820117177553021,0.132161012243368,1.1953125
0.0076197571466305875,-0.005181781768168425,-0.01862222327208423,-0.021470660627362036,0.016384797408070535,0.01073243775433519,0.011418349748258741,0.8221688138976041,0.06268869200841246,-0.8853190251991797,-0.03858881933033292,0.007113419057540846,-0.03142049902577868,0.060042255310157215,1.203125
-0.01400959892962916,0.010120896169687149,0.03590119341820778,0.04049847154815168,-0.03399025343437514,-0.020026037540726786,-0.021561400032676967,-1.5231663791813779,-0.11453069171997689,1.6331641330867375,0.07101383660702121,-0.0111598383612172,0.056319148576859074,-0.11219912837645149,1.2109375
-0.016992043765892667,0.012246333508539452,0.04343036103830006,0.04908160296949512,-0.040982717189079566,-0.02425952029980225,-0.026110093384642447,-1.8470917895794514,-0.1392004586028881,1.984445198976527,0.08626706899107524,-0.013738885615384161,0.06841660426505791,-0.13602610448620553,1.21875
0.006807878913412183,-0.004590966139861302,-0.01657775931111802,-0.019124802444388522,0.014463385098141523,0.009601113518984704,0.010196396378368505,0.7346889140534522,0.05574323977199452,-0.7852902421460533,-0.03432740704246123,0.006353850385456183,-0.028154132507118856,0.053609889844159556,1.2265625
0.01918264054217185,-0.013365281816015345,-0.04778539490731071,-0.054640780589255776,0.04334592488600447,0.027201119708583583,0.02907986458828315,2.079083907489612,0.1573136548162812,-2.2287428727377003,-0.09717278758849626,0.016856759827025385,-0.07838809580460311,0.1524583764776149,1.234375
-0.0015975789976217885,0.0013278437319406854,0.004635988712814007,0.0049203691623912,-0.0050676626006313326,-0.002373945697325007,-0.0026218670209081974,-0.1736330706000066,-0.012883874594584387,0.1898749715442868,0.008108087495460785,-0.000677328314979388,0.005918847524945563,-0.012956398891847591,1.2421875
-0.023650416869194474,0.01694760805184336,0.06028354403328304,0.06821888494469959,-0.05653545492976656,-0.033755242804833316,-0.036276958632968426,-2.568214083135939,-0.19374248963347168,2.760335559296297,0.12000483229117567,-0.01934072350305395,0.09544350732047034,-0.18895015210268798,1.25
-0.01595436233776762,0.011520106139783132,0.040877096226525175,0.04621798447272045,-0.03867257631152393,-0.022796107903158242,-0.024546281106208497,-1.7373270584250144,-0.13075922277155452,1.8654273686977447,0.08106600642695531,-0.012854489323555872,0.06427224958321527,-0.1280478783846804,1.2578125
0.004848870448595736,-0.0032047787358780175,-0.01162324699208572,-0.01345716037552086,0.00982781464558305,0.00681645601850969,0.007190912049068273,0.5187837236029952,0.03989617885102717,-0.5596940472755864,-0.024470186465610822,0.004748686483592543,-0.02013938958719892,0.03766239179375028,1.265625
0.008604339752382537,-0.0058757771464938895,-0.02110842632963621,-0.024258547823641823,0.01862641631418883,0.012155299142260871,0.01291646201024795,0.928841209305978,0.07084202972336406,-0.9988922160568116,-0.04356599624351275,0.00792947380988521,-0.0354075547381123,0.06782741348664063,1.2734375
-0.004107397210674906,0.0031221785773204594,0.010995453478246408,0.012260004576019575,-0.011023248110319354,-0.005956779442563964,-0.00649665677595717,-0.44895476942357937,-0.033441569885539,0.4837130692664943,0.020978031601501145,-0.0028519126587273503,0.01619960373606657,-0.033399281947172677,1.28125
-0.014266780296335982,0.010323693646354618,0.036672102139124516,0.04149176429459045,-0.034752932668553595,-0.020434296361492684,-0.022013332304030138,-1.552825303798172,-0.11687777066669354,1.6689924154008864,0.07259092625416676,-0.011464250941938552,0.057497633230353846,-0.11456395531646289,1.2890625
-0.012771819067192448,0.009262828043141923,0.03289459011319939,0.037186396417438886,-0.03124101655838144,-0.018303519634229968,-0.019716486615700513,-1.3917755072510216,-0.10452453283993576,1.4924145881463418,0.06493966050749643,-0.010164593803264692,0.051440143260635035,-0.10279334487377324,1.296875
-0.0005014803919356696,0.000562926919857528,0.00187956167654951,0.0018625983571065514,-0.0025515945173982817,-0.0008168522652080276,-0.0009514490826101902,-0.05908933680143001,-0.0037125475149627388,0.059887028439724224,0.0025682775498868933,0.00026345330782536874,0.0015517226169446104,-0.004870986721074809,1.3046875
0.018244924923750173,-0.012708042967758598,-0.04546352068734026,-0.052006722750013314,0.04117919776761741,0.02588513866292079,0.027681477989165423,1.9762414964167214,0.1498827626920922,-2.1218178943502948,-0.09250124469764563,0.016114632629645097,-0.07461743128511164,0.14478110719457704,1.3125
0.03147405945130543,-0.02205551076241889,-0.07883295613769764,-0.08993488985638662,0.07196794546095514,0.04471365611230396,0.04785945445637985,3.4106040462251115,0.2579216666009303,-3.6576509097066983,-0.15944333951121356,0.027253079285538988,-0.12829529648710178,0.25031591585213897,1.3203125
0.025107284767982258,-0.017538325950255153,-0.06272833433482417,-0.07160048399472049,0.05708871747809637,0.03563339328338537,0.038121984790237415,2.718086181772677,0.20549206874677806,-2.9150318459913547,-0.12707889082186444,0.02184495787236125,-0.10238364117073995,0.19947184743488405,1.328125
0.0010226386068816098,-0.0005015689541302414,-0.0019340016943997186,-0.0024926028893005607,0.0009718178948574469,0.0013376926561305873,0.0013613144904361441,0.10521769502719967,0.008309145054043626,-0.11380393067588021,-0.0050462879091076355,0.0015088319412566694,-0.004607206623310448,0.007396225234001359,1.3359375
-0.02058302642582958,0.014775138958507069,0.05256849037185031,0.059439480001269675,-0.04936349933519998,-0.029411600787016857,-0.03161005235864204,-2.236933454150767,-0.1683931687693355,2.4001355272673206,0.10438381715973698,-0.016729640549117263,0.08304171270317803,-0.16475611061523243,1.34375
-0.02272575808871832,0.01629358407145141,0.05793796175552607,0.06554338532568514,-0.054387196634959424,-0.03244523792987928,-0.0348918534949614,-2.4684733129319687,-0.18593400415861863,2.6520832108378385,0.1152775294261585,-0.01856319008986924,0.09169883676669242,-0.18167281427923812,1.3515625
-0.00869970485166501,0.006382619563488529,0.022517738558411778,0.02531931226384696,-0.021738104600419677,-0.012467088343976708,-0.013499425469549482,-0.948237913914792,-0.07134941883343313,1.0210041288625873,0.044297978147014416,-0.006749610084690468,0.0347849774807449,-0.06983370769072635,1.359375
0.0053570006640414605,-0.0035587811314548154,-0.012947069006168694,-0.014955219824472685,0.01103874960848845,0.007543752123684232,0.007964527937725589,0.5749263991870993,0.04360069836833445,-0.6181631357751329,-0.026930112489611517,0.005133067223697839,-0.02222767692071257,0.04205199704947206,1.3671875
0.008192171077899678,-0.005577677848588098,-0.020070507279107717,-0.023046029592388672,0.017703257701322694,0.011572663702437092,0.012320345027001236,0.8831378976930904,0.06709223619010425,-0.9520293962326166,-0.041420877202498714,0.0075748420671116435,-0.033729117001888624,0.06446747134236827,1.375
0.0009984525067210312,-0.00050233437051718,-0.0018940831410632806,-0.0023978341092392315,0.0009546061028493014,0.0013237774370737235,0.0013496088439983616,0.10531809372147839,0.008644412193807119,-0.1141546199384589,-0.005058758582052001,0.0015198162953801585,-0.004567201352106119,0.007095329815789977,1.3828125
-0.00700595677479813,0.005163582607917334,0.01830030282224785,0.020542926731016223,-0.017747088106894845,-0.010072543146993506,-0.01089198433818399,-0.7618989586669122,-0.05681637730566959,0.8212776293540001,0.03556628037090756,-0.0052723388071893385,0.027896647038194052,-0.05659775769445111,1.390625
-0.006907950226499283,0.005108820772464753,0.018032215728954644,0.020218454883028245,-0.017556680346552365,-0.009923369339626623,-0.010764143489983488,-0.7528197083602346,-0.05640997121053829,0.8113841142445015,0.03518785575301456,-0.005222936783533366,0.027517762450441047,-0.0556732477774603,1.3984375
0.001982215565811385,-0.0011769263290433557,-0.004414465820367686,-0.005318084675307417,0.0031940234454218264,0.0027443887528642717,0.0028190916164864835,0.2102526318008444,0.016078876329528525,-0.2256108576795226,-0.009869291305134174,0.0023032881780937074,-0.008539553802998326,0.015283991877791324,1.40625
0.009995717076535406,-0.006860546753605265,-0.024627193247366612,-0.028297764698336406,0.021928361522792702,0.014148888790880606,0.0150797097517157,1.0806137997892664,0.08194001744909195,-1.1606055505037935,-0.05061394103172243,0.009122613094597377,-0.041068589486657786,0.07914654436407116,1.4140625
0.007253596134606107,-0.004933408886631208,-0.017680247163429565,-0.02038958633714341,0.015540662937993993,0.010224736236410455,0.010899348759540295,0.7843917153016619,0.05991812812970816,-0.8407957897771667,-0.03680904823077616,0.006832125292895558,-0.02994619842311354,0.05716393871387628,1.421875
-0.003725881854421144,0.0028428617925872856,0.010054142995489988,0.011143505544558318,-0.010109557805256162,-0.005422320977297588,-0.005880134026898178,-0.40806048991831345,-0.03005876225946755,0.43978283990360023,0.01891531493526575,-0.0024709858668738975,0.014643824746985237,-0.030492766096395445,1.4296875
-0.011477102544636733,0.008349301138986588,0.029626584332606225,0.03339898005461137,-0.02824352588401001,-0.016457823916045163,-0.01773650771291182,-1.2516418965126588,-0.0940717665382817,1.344283395896944,0.058389483296019,-0.009079910954529641,0.04614554853297629,-0.09232543225525318,1.4375
-0.009938498485522817,0.007272085997683258,0.02574336584128171,0.029009449510502338,-0.024685996316104478,-0.014269276403990333,-0.01541193250556956,-1.0855264600502967,-0.08174509798874251,1.1655948354644856,0.05070522162318999,-0.007822584999138711,0.03991839727106447,-0.08004723932164098,1.4453125
-0.0019414997327902267,0.0016031158792037927,0.005556961664399045,0.006092169083322417,-0.0060188353627827484,-0.002899084197987937,-0.0032193249273202293,-0.2166037173375426,-0.01592225956147847,0.23253445716704607,0.010100654526084196,-0.0010478952902575871,0.007452570381715839,-0.01632602198786429,1.453125
0.007769546961965393,-0.005285754917378279,-0.018973127843178304,-0.021783794171823027,0.016688016886931487,0.010923789082550267,0.011629078098131037,0.838090512265048,0.06401556233877258,-0.9013436219181215,-0.03928574204994294,0.007223267209434929,-0.03198925890403232,0.061032369195584885,1.4609375
0.014012541264947765,-0.009707104886005291,-0.034777318669331224,-0.03976255523607625,0.031299236042496355,0.019845145511313965,0.021218464248354687,1.5153836431511942,0.11507817118539188,-1.6291517428896547,-0.07099783406237271,0.012539746167651073,-0.05738134620340943,0.11082986214679551,1.46875
0.011632198974530224,-0.008012532944366565,-0.028808632912941355,-0.03301189493513727,0.02574657021935176,0.01649681733362468,0.0176152515327725,1.257210542368792,0.09525227056313201,-1.3492718030224877,-0.05886418433830008,0.010496468040339825,-0.047777390036489883,0.09201416156501852,1.4765625
0.0027221942771104516,-0.0017011643626873756,-0.006310709362040009,-0.007506292823354431,0.004947705750265657,0.0038144618733685076,0.0039803008526703995,0.29165623897305737,0.0222030688134427,-0.30930186358044537,-0.013651263842312243,0.00291032027617209,-0.011629018198176135,0.02120725908936577,1.484375
-0.00462396626861507,0.0034899644824524312,0.012264699397725065,0.013532456306302591,-0.012159326493350645,-0.006669655351741897,-0.007275116675829851,-0.5038942727534019,-0.03777347563518293,0.5447266123187773,0.023521030027128607,-0.0033010094319117327,0.01821056194711187,-0.03717345555048711,1.4921875
-0.008627072752817462,0.006313005809480045,0.022371542609388742,0.0250207994336136,-0.021456075870547382,-0.01237538825126759,-0.013374303429859355,-0.9378423570113961,-0.0704894099570695,1.0079864251344288,0.043751147948688285,-0.0066404952291751656,0.0344756828179434,-0.06906110333532438,1.5
-0.011720837582509726,0.008504170015167239,0.030158279252903125,0.03398209514235063,-0.028701959611025975,-0.016761388498815387,-0.018061065529015843,-1.2750068353505641,-0.09595181575756574,1.3679229477503803,0.05948750864880818,-0.009231507611300958,0.04704576417111106,-0.0939515728585778,1.5078125
-0.006711034914995971,0.004967825431126688,0.017521928920059365,0.019742902632512917,-0.01710221691395451,-0.009625571313695278,-0.010413995082356473,-0.7339702305481837,-0.05492100205548337,0.7857164263193531,0.0341615259698244,-0.005005874687857168,0.026756126900809935,-0.05439895178319728,1.515625
0.012480975179228377,-0.008611814210129184,-0.030870847562484777,-0.035247508978279996,0.02761790458209067,0.017669752224423695,0.018848109486132154,1.3470111134346472,0.10250520370329097,-1.4495299258120824,-0.06316635010957372,0.011213846089172447,-0.05108731618459792,0.0983772471918292,1.5234375
0.02744234260685128,-0.01920473008017307,-0.06859491217641654,-0.07820898328658268,0.06253466315308927,0.038941928398596594,0.04165974533804845,2.9715002966676956,0.2251974868967715,-3.1921486160568366,-0.13906827733468793,0.02386119654954845,-0.11180813162424862,0.2178101636726069,1.53125
0.013318722086573809,-0.009210297676309848,-0.03294815344904496,-0.03775116877763144,0.029615662683122553,0.018834117519074583,0.020095829265946285,1.4413732940472264,0.10933809748767821,-1.545167171452487,-0.06740843923692157,0.011892970610774862,-0.05451879097954442,0.10555085121255779,1.5390625
-0.019044395513453917,0.013697338539920643,0.04871099503009083,0.05508799351608076,-0.04585791565615803,-0.02722313971679479,-0.02929400960831367,-2.069091093521264,-0.1559959405978509,2.2257466883950947,0.09675502279858889,-0.015498195303398814,0.07681423483357472,-0.15234602639312697,1.546875
-0.03255724477341407,0.023258504816420826,0.08278984216768365,0.09385657722694196,-0.07733950926663602,-0.046448740267999826,-0.04989595052885281,-3.535756248754818,-0.26663091195621386,3.7975870144260377,0.16522565378834636,-0.02690304219619721,0.13164697067719866,-0.2602433710575673,1.5546875
-0.017122272541201407,0.012326106224396225,0.04381128694556541,0.049521273688305716,-0.04129801617751201,-0.02447197283798055,-0.02631361429077155,-1.8611650627693443,-0.1399428709908703,1.9972737228178665,0.08685716891313183,-0.01380824826989246,0.06896007323693772,-0.1372819386142387,1.5625
0.0009211740699045259,-0.0004438278914739729,-0.0017378418875585127,-0.0023032222375405412,0.0007681567314864493,0.001217276714173883,0.0012218266213194868,0.09709935261955684,0.007867721714070065,-0.10257599156183918,-0.004619318297218874,0.001441881688002342,-0.004307285391546174,0.006739585721519853,1.5703125
0.004847626911668721,-0.0032075316104396355,-0.011642026934463784,-0.013540452590187454,0.009861349280853722,0.006809661397601557,0.0071908050008412695,0.5222928620136491,0.03967262185944867,-0.5558882374624385,-0.024384334844359173,0.004709086239087125,-0.020206156839426122,0.03817314356971721,1.578125
0.006464866154432017,-0.004338847834549748,-0.01571365972935974,-0.018088969825898766,0.013605763827922597,0.009107534980160203,0.009655451164026552,0.6951063529280662,0.05264879482700908,-0.7440448515966244,-0.03250233315341059,0.0060627614774825655,-0.026689582310711408,0.0508527378930613,1.5859375
0.013171888615288821,-0.009092911802290701,-0.03263394325798938,-0.0372938550982827,0.029286417332921238,0.018643016597304694,0.01991306804647454,1.421387689863115,0.10780902072035822,-1.529204525806027,-0.06660785996689433,0.01178847667476227,-0.05388650213004102,0.10401967747927544,1.59375
0.01278711483340439,-0.00883972186791973,-0.03165423819809168,-0.03624658429066623,0.028428098027209605,0.018087206584742978,0.01933232904126263,1.3817910933070883,0.10509906177656218,-1.4867025323070175,-0.06479816188524078,0.011507791141315983,-0.052378593804641084,0.10101518122968974,1.6015625
0.001760551648646551,-0.001041107623009201,-0.0038153354455671765,-0.004674526497037377,0.002696435703781929,0.0023967835464104308,0.002480274165520238,0.1884633014236251,0.014843756780344984,-0.20028074911720747,-0.008880435816419167,0.002153989685466613,-0.007674767140314127,0.013459210753369023,1.609375
-0.0026756826157851663,0.0021126491090305644,0.00738188035630646,0.00805669012635229,-0.0076873940406977015,-0.0039045523267051355,-0.004306790985631365,-0.2933610950629283,-0.021866128390242486,0.31861435169749164,0.013729213253093814,-0.00165218702724154,0.010348981479579463,-0.021783367420742827,1.6171875
0.007357058698398341,-0.004977463377212794,-0.017948375495849996,-0.02069130806607045,0.015717881414272702,0.010384610048353053,0.011025051947686923,0.791801189197496,0.06006553841056015,-0.8521243293733911,-0.037129188657962386,0.006839391083453047,-0.03031994671111187,0.05794244257284404,1.625
0.013902779071851178,-0.009619978003333706,-0.03447305712192444,-0.03945688203194276,0.03103446175298839,0.01969892103939677,0.021046250284423553,1.5009144640142793,0.1139194457061707,-1.6184505324376608,-0.07045480068311749,0.012436340190875436,-0.056874091624946714,0.10988953046962616,1.6328125
0.0031039796019861256,-0.001992469605311655,-0.007210715794306532,-0.008476194318428578,0.005870600193523471,0.004317519379493532,0.004563992367710285,0.33217422971088434,0.025839947770176,-0.36028515031228026,-0.01578163238242056,0.003329013214092495,-0.013083295768478333,0.023888707047177323,1.640625
-0.011797223539469465,0.008556182715619825,0.030394872332543545,0.034265030221971984,-0.028924306322191184,-0.01689697806709514,-0.018209183270885557,-1.281970151627969,-0.09624308968197443,1.3801083205692541,0.059875433520056136,-0.009321167658159086,0.04734747977935895,-0.09465979835459143,1.6484375
-0.015128794844961489,0.010930254636840506,0.038768195397013115,0.04377720828606552,-0.036733827510177765,-0.021623268920295233,-0.02331098600566955,-1.6441859998731645,-0.1239265361525239,1.7710588571658612,0.07690923645741014,-0.012196736229993243,0.060843035152638635,-0.12107687441057234,1.65625
-0.013360029396358507,0.009684520375183853,0.03426821602505039,0.03865340525524052,-0.032583974428044754,-0.019081653627812282,-0.020596993167900396,-1.4535468619557095,-0.10965073544617028,1.5629978413857988,0.0679432449626013,-0.010706221567446937,0.05366336774611439,-0.10696620215628747,1.6640625
-0.014503850042004347,0.010481936714973857,0.037174231709664864,0.041975907893163446,-0.03520751923000246,-0.020712980497716613,-0.022326179832512765,-1.5764582509826432,-0.11873249930082155,1.6934593879017155,0.0736437221685357,-0.011639364942044471,0.05832754023141215,-0.11617057735051921,1.671875
-0.007802608826351238,0.005725886512121838,0.020323495469363444,0.022874201839207173,-0.019587478433770036,-0.011210395251246568,-0.012101100942971685,-0.8480797385062621,-0.06340795397255386,0.91326064193872,0.039610534812175385,-0.005938593975410943,0.031170064485933253,-0.06293039204707035,1.6796875
0.010457693820074719,-0.007195015813698599,-0.025735751516555865,-0.029447427337245955,0.022955999701315056,0.01475671981475936,0.015762899672321872,1.1313322216866295,0.08616531428819965,-1.2122716200583394,-0.052937620725121495,0.009519112232104977,-0.04290411959696996,0.08247923116466281,1.6875
0.017814881378122104,-0.012386751387607475,-0.0443385667272959,-0.05061443980979715,0.04009444011195165,0.025242150390685666,0.026989590336582426,1.9264379894417571,0.14596898381017434,-2.069471607823172,-0.09015591629627262,0.015726623643284716,-0.072751534966287,0.1411564969434745,1.6953125
0.0032031146871780328,-0.002035450939292609,-0.007491005662825462,-0.008773176016767905,0.0060198445237374925,0.004459142297149468,0.004670655795825387,0.3402758453140122,0.025961487024499717,-0.36820435204545965,-0.016015960253939317,0.0033337237580937013,-0.01345121091451937,0.02481761053242097,1.703125
-0.0062159189648381815,0.004624059749412239,0.01630148264463434,0.01825410666258804,-0.015944243754484846,-0.008962482964730577,-0.009725622316946684,-0.6803905535736862,-0.050954361123568305,0.7289322812111798,0.031687669370730746,-0.004636977971874616,0.024779782341990138,-0.05024340571133776,1.7109375
0.00952510084495629,-0.006530862724037589,-0.023397265731040645,-0.026863209478598427,0.020780657164698325,0.013429047007723934,0.014321094574177993,1.0281502573987613,0.07841001868708883,-1.104904216879184,-0.04824993239463207,0.008725721919504202,-0.03910723163697397,0.07510790787477258,1.71875
0.02352205567135754,-0.01643929295802896,-0.05873072538228612,-0.0670247916944399,0.053444783258288,0.033372504814680334,0.03573640546744579,2.546458413236165,0.19305776990597998,-2.735320052262361,-0.11924614244113839,0.020596057123261093,-0.095942975070751,0.1866036419223156,1.7265625
0.007129204171842741,-0.0048238121913439,-0.017372582880541197,-0.020043962845970948,0.015204494074059553,0.010065305639067752,0.010723786479876946,0.7683015346598374,0.058389331431585485,-0.8237248638433056,-0.035994806682281485,0.006678134214592234,-0.02945233888954424,0.05603851918726941,1.734375
-0.01883790021977305,0.013563443876692064,0.048183186211050354,0.05440226451792584,-0.04537928440720782,-0.026904038461473188,-0.028963939853753333,-2.0472882167199864,-0.15449449031138332,2.203318079172099,0.09577056220926271,-0.015361051521964262,0.07591674926537402,-0.15071883855066295,1.7421875
-0.020654596335818145,0.014839392647174513,0.0527932798079544,0.0595691557106203,-0.04959055079106137,-0.029512275987916406,-0.031771713832603736,-2.2426528724733417,-0.16915267130555756,2.413546199858354,0.10489084971391648,-0.016890817991201297,0.08328634431319881,-0.16500509433608943,1.75
-0.006207387387511817,0.004599839120719605,0.016305387225659912,0.018106614540519865,-0.015834085835955723,-0.008940571924644538,-0.009682412946663107,-0.6751837921813011,-0.05062984748324693,0.7266723765018814,0.03148938882900434,-0.004596734515274621,0.02464367397266676,-0.04984941990865507,1.7578125
-0.0005556556406673974,0.0006013228112722255,0.001971336779006909,0.0019567293486602803,-0.002644279035771345,-0.0008632520898048318,-0.001000382351486496,-0.06421219357483592,-0.004465517132846081,0.06644295269282532,0.0028313149635360805,0.00022518489736347616,0.001713967073607902,-0.0050527722327187155,1.765625
0.00017064552113833583,9.98929980947086e-05,9.128033602380399e-05,-1.3808848118147876e-05,-0.0010119429365504236,0.00018575779732601718,0.00010810994459058058,0.011869989017950786,0.0013717371536768523,-0.017050689630060713,-0.0007609262085708555,0.0008216673238892747,-0.001184811622500217,0.00042616108822649473,1.7734375
0.008784350328298298,-0.0059926938714908555,-0.02163269169673081,-0.02468435610266213,0.0190358237456001,0.012429540320690238,0.013211056276610268,0.9460332632478733,0.07212287295081722,-1.019210701416227,-0.04442519633191151,0.008082848032710501,-0.036096008351342135,0.06903948473433989,1.78125
0.01216995206620535,-0.008396096482217735,-0.03013176561692744,-0.034468813781049316,0.026954932622021772,0.017224726183356243,0.018345171069421164,1.3158519276520426,0.1000697972783278,-1.4130070526509717,-0.06163741043144093,0.010934305833488424,-0.049846706255436836,0.09630881414801505,1.7890625
-0.002314828989944291,0.0018519870678934563,0.006455224986398289,0.007026640160285703,-0.006805146937460582,-0.003403144259521895,-0.003767288717111975,-0.2534063691523739,-0.018689095028561965,0.27539057200099354,0.011838370109110385,-0.001336149717117872,0.00890259971848114,-0.01889431866426206,1.796875
-0.01385491426152354,0.010023481089859624,0.035595879431364254,0.04019537851148227,-0.03374458809089753,-0.019832451821061775,-0.021367907856631008,-1.5063459139355866,-0.11344097740074625,1.6200502214875139,0.07043062736840745,-0.011103207915802427,0.0557450655256904,-0.1110289070365259,1.8046875
0.00010006106250213796,0.00014722835388557377,0.00039536711974020493,0.0002562317729860711,-0.001219605901594512,2.587672615132903e-05,-4.4135920076020435e-05,0.004997543533672717,0.0009325280395553804,-0.007595864954146866,-0.0003425203413813074,0.0007386022182021287,-0.0008571372505823833,-0.00020899151812643223,1.8125
0.022450405074405103,-0.015677554768175447,-0.056003546654635694,-0.06389032036752094,0.05093012892211938,0.03183976397885224,0.03409290630836895,2.429204551578412,0.18425873520798552,-2.6129378470112017,-0.11376414767845411,0.019686897824014126,-0.09158593424248686,0.17780441569635638,1.8203125
0.020385742205662857,-0.01421755761340544,-0.05080976103514311,-0.0580939884043055,0.04613377850549276,0.028912366831423487,0.030938889786308585,2.2074245944132183,0.1673203181342251,-2.3697484468869026,-0.10330494504295556,0.01791782723336067,-0.0832782766222499,0.1617095687424864,1.828125
-0.006234524767330106,0.004632595477003978,0.016355671427135142,0.018213503104672575,-0.01598048295188421,-0.00897086335788866,-0.009723533894140489,-0.6786724824031267,-0.05110225199373183,0.7365153698340126,0.031792585802052006,-0.00467397493879188,0.02473198774198737,-0.05004389565809911,1.8359375
-0.028794992285376752,0.02060782390209453,0.0732972611890911,0.08298713830198826,-0.06862251907022664,-0.04109103713781414,-0.044181659394978146,-3.126870715176237,-0.2361461869793392,3.36574156975789,0.14626603207527747,-0.023787853684461756,0.11634504562581217,-0.22986299718904635,1.84375
-0.030119586881561678,0.021538375471800927,0.0766435752613319,0.08682736779839312,-0.07167147932399714,-0.0429856002476268,-0.04619133008682267,-3.2720088042716053,-0.2467874222213616,3.515243485086877,0.15288911877924738,-0.024852539062848632,0.12176972741218517,-0.24070670466626126,1.8515625
-0.016706744794156795,0.012031306252477312,0.04277101210714489,0.048305270295020415,-0.04032788768643095,-0.023885229891406602,-0.02569251312700977,-1.816526158862757,-0.13653992205601814,1.9482691033474893,0.08472679875355849,-0.013440690054128594,0.06731431805785126,-0.1338843535716817,1.859375
0.0012797389092387803,-0.0006990681324430752,-0.0026426747242680845,-0.0033262235249305497,0.0016136842914246591,0.0017346946840781194,0.001765844649720644,0.13575324549556284,0.010831040116310841,-0.1460547096499337,-0.006473602601021434,0.0017648160665545574,-0.005717704085187284,0.009629958114957149,1.8671875
0.02094591145153966,-0.01460071003476229,-0.052260539827908105,-0.0596758990817237,0.04741217376672774,0.029732179302268694,0.0317713087452541,2.2677215550939267,0.17158330731864593,-2.43398998886492,-0.10604322964824342,0.01834337862594165,-0.08550076322936326,0.16634467970444528,1.875
0.036734326748461346,-0.025762001975283666,-0.0920768186552494,-0.10486839066487148,0.08420166361661616,0.05219334645454499,0.05587165478723898,3.97710356191058,0.3006857374025864,-4.27388321825838,-0.1860253353496647,0.0316869839055934,-0.14950557607724255,0.29184721985903417,1.8828125
0.03585140645244832,-0.025146139331862043,-0.08984494863122432,-0.10232042088563055,0.08218194972090069,0.05092405549161218,0.05453988812620065,3.8804449188013415,0.2936912228927238,-4.174194528934956,-0.18166182565605565,0.030989640758708983,-0.14590686736260033,0.284593006341393,1.890625
0.013594368195202957,-0.009412898919432722,-0.03369956314917208,-0.0385474868708219,0.030320525973634428,0.019243849086252617,0.020569025863140657,1.4692319480084262,0.111795823347691,-1.5817471684353073,-0.06894842363309432,0.0121945721993236,-0.0556471163918173,0.10739964887597103,1.8984375
-0.014389618040150274,0.010387957612592851,0.03689701377254841,0.04164749744114313,-0.03494641185887225,-0.020574056185192514,-0.022164501934610746,-1.5629469895577448,-0.11737495823958385,1.6810593273978358,0.072961689556268,-0.011510747925864448,0.05784649757831661,-0.11526508480189858,1.90625
-0.027577781925755863,0.019733770407246956,0.07016989208629969,0.07944964722307102,-0.0657290390523208,-0.03932923580623277,-0.042310712684943505,-2.9933234698711466,-0.2257824277943874,3.2190813001338134,0.13996112737568314,-0.02271892050364094,0.11135878984035666,-0.220185542227585,1.9140625
-0.024729549775292358,0.01772568386893488,0.06299131081133894,0.07129922856032896,-0.05908569070737995,-0.03527461355135791,-0.03796159876675427,-2.685769683743339,-0.20275219720016818,2.8862508876370856,0.12557588907148667,-0.020317215295565058,0.0998407023169237,-0.19750008541395825,1.921875
-0.019214447146167723,0.013813909975115477,0.04909563014389073,0.055524998475941535,-0.046203154794778836,-0.027444798116663637,-0.02953406472377872,-2.087558056724108,-0.15739261723592426,2.2427256559381585,0.09753733090261885,-0.015616447338375826,0.0774863366677576,-0.15364426772788178,1.9296875
-0.014507784419083278,0.010471612116648564,0.037238264336380854,0.04207026434188965,-0.035230499945390084,-0.02076550166054681,-0.022341794906649885,-1.5764289270200122,-0.11843805820131442,1.6950740679524967,0.07359042441068409,-0.011600774073177932,0.058377978719367715,-0.11630408649920179,1.9375
-0.0035020295791921997,0.002687461117617518,0.009470318554567602,0.010522369335587083,-0.009608646871796772,-0.005100744158288305,-0.00553802934435869,-0.38399096341675193,-0.028263489609431307,0.4144368892416104,0.017830870054815814,-0.0022910906064660145,0.013705718203116576,-0.02879063761471357,1.9453125
0.010661462177480681,-0.007318005535347874,-0.02627539542228509,-0.03011714551004212,0.02337086521593922,0.015068949907691535,0.016075270765004656,1.1497379162235757,0.08731708372730293,-1.2341483989955695,-0.053837256382759685,0.009654175130333415,-0.04376087999229767,0.08403181830378485,1.953125
0.016464504689853998,-0.011415421954283612,-0.040922332314969306,-0.046797841378315844,0.03689998056447037,0.02333132887999757,0.024918514197245403,1.7787407372128905,0.134552827598152,-1.9097555251532472,-0.08318331076523364,0.014528930277750247,-0.06730417976479967,0.13042267869320184,1.9609375
0.014961512906137238,-0.010363976421903367,-0.03713573432946959,-0.04251956460992082,0.03345385360384532,0.021190251881847963,0.022623166483721247,1.6180360263973015,0.12252263171002813,-1.7367416868749124,-0.07566981366869285,0.013274473886642586,-0.061219845189532524,0.11859031633263634,1.96875
0.015364246595237075,-0.010667580686264859,-0.03816624115144712,-0.043676063787300566,0.03446281498867491,0.02176831019576234,0.023260030077885567,1.6636003661083478,0.12629480399223053,-1.7873428334112604,-0.07788431326559714,0.01367263469199218,-0.06285894036107222,0.12177168903557219,1.9765625
0.01444441417992655,-0.010017413924322729,-0.0358527155241593,-0.04099865896114454,0.03232410680205081,0.020465632207930087,0.021874399485882073,1.5631091063021076,0.11876518088554398,-1.6810933490818363,-0.07323316067173123,0.0129136705308627,-0.059098336206233525,0.11432682255332303,1.984375
0.005083189353470077,-0.0033767828203111238,-0.012214021013585683,-0.014101647224084787,0.010432081816579543,0.007138044659900502,0.00757169404272273,0.5462796332394698,0.041684902267181675,-0.5869282981613119,-0.02561719510013566,0.004941467650377331,-0.021083014012578276,0.03971597871008042,1.9921875
-0.0046323570815728155,0.003506484730883439,0.012332838917040212,0.013767648795050207,-0.012272177997849546,-0.006702411269137983,-0.007291020068314832,-0.5072230055801892,-0.03805858418657362,0.5480867261063317,0.023719976283128344,-0.003327207255882718,0.01833726864450092,-0.03758746145951652,2.0
-0.0060385027713206274,0.004490631518008652,0.015896229733465606,0.01774516609996312,-0.015520226879654623,-0.008711507350957945,-0.009450833528262682,-0.6583820564513322,-0.04932516002972579,0.7098793373981892,0.03073154367052368,-0.004490365073587289,0.02402507349077672,-0.04867020323128267,2.0078125
-0.008185400783259777,0.005998319635250507,0.02129623161937301,0.02382951484081562,-0.02045775119866681,-0.01175869972519146,-0.012703373522623119,-0.8910322868439972,-0.06675512585037828,0.9558641826202837,0.04148323659355468,-0.0062465470328473835,0.03272455753669557,-0.06575205623825497,2.015625
-0.017017386912416332,0.012252781605159503,0.04354356339033957,0.04912702356949816,-0.04103529900889213,-0.02430527847652125,-0.026143138486391472,-1.8501233562402473,-0.1393090905938608,1.9846867772551406,0.08629317648248373,-0.013707266335339715,0.06853859636716864,-0.13620596300612342,2.0234375
-0.017947874423123945,0.012923189163074205,0.04586037633556559,0.05182265549507705,-0.043252590125084305,-0.025610463746314482,-0.027548469210642017,-1.9520472570804612,-0.147115618363212,2.096575507859638,0.09111940693040892,-0.014530448794686462,0.07228307187918996,-0.14374236268768567,2.03125
-0.00349768527409362,0.002701333773910288,0.009397936959235497,0.010434433742061698,-0.009603387520351515,-0.005052545098485578,-0.005526030263822768,-0.3848401756804879,-0.028601240071641786,0.41476391492510595,0.01788007507667755,-0.0023314297663005372,0.013659148430335643,-0.028668405659760338,2.0390625
0.007951865144651678,-0.005404744530967823,-0.01946848667311444,-0.02236339739852519,0.01709082863403802,0.01121465997743366,0.01189893515806027,0.8574639406506152,0.06537893309733912,-0.9206341233071692,-0.040203891627595106,0.0073525927077530695,-0.03274318389238465,0.06262263321856447,2.046875
0.004065108114950096,-0.0026569996164567656,-0.009646033975029758,-0.011194598457001296,0.008039625197882086,0.00566953097538178,0.005955512131092573,0.43637964630342446,0.033454939212399754,-0.4690356043733838,-0.020480181789618086,0.004064113474208911,-0.0169378346883977,0.031755754522684476,2.0546875
-0.0004882294037631751,0.0005641794356775724,0.0018322212381532781,0.0018930097861003374,-0.002574574061330364,-0.0007970085795013836,-0.000954075123293395,-0.05749361639333352,-0.004006616939344621,0.061554872177779184,0.002649308736983152,0.00021996813729558418,0.001517399670701126,-0.004577365426790154,2.0625
0.005430800941991521,-0.003627986221835541,-0.013114957501951966,-0.0150652515712183,0.011238289811308802,0.0076401820918301075,0.008120279427416293,0.584049723535347,0.04458025459912567,-0.6287581537599027,-0.02738703154875748,0.005256716789124825,-0.02253161001929057,0.042376523927159265,2.0703125
0.00949729861648781,-0.006510331366494306,-0.023363914391037837,-0.02677576605122006,0.02074475268303817,0.013420460606736765,0.014323285976520439,1.0254049593350472,0.07815186212672467,-1.103481542326055,-0.04807752714609467,0.008716511790981244,-0.03904821712719806,0.07472108881496761,2.078125
0.003204657771248149,-0.0020569293075149804,-0.007468017882446238,-0.008823448276843315,0.006074744807542608,0.004455859727953999,0.004688269874349732,0.3444970705000026,0.02664361217002621,-0.36835019979241923,-0.016176893780075422,0.003364546311455428,-0.013537607586295,0.024861470704683534,2.0859375
-0.0015578628897884752,0.0013204430609478517,0.004552976558839963,0.0048011515210955895,-0.005063954564009952,-0.002317655220220294,-0.0025970662028123796,-0.17097821019271078,-0.012628523132247304,0.19051524888072685,0.008058176327099794,-0.0007163917805164226,0.00576840495885718,-0.01279196192091649,2.09375
0.0027354798589931495,-0.001711628125525491,-0.006271254334305318,-0.007440552293623647,0.0049222957715236776,0.0037927114328663394,0.003964727911052771,0.29347429166220973,0.02232672675339,-0.30898855121436664,-0.013647179066765611,0.002906354853065262,-0.011625079198139359,0.021310380895678382,2.1015625
0.00505016773654331,-0.0033542646711042425,-0.012089343250465677,-0.01400532932910047,0.010347599409019786,0.007073680714279045,0.0075150612891651215,0.5427527267205818,0.041406326828223705,-0.582819994320667,-0.025449036847828264,0.004914898003425278,-0.020966210711034706,0.0394135765898226,2.109375
-0.0021703311855018875,0.0017435373828376473,0.0061254382183117545,0.006671627541333143,-0.006438661963945606,-0.00320288856725456,-0.003495678387496523,-0.23995261782820784,-0.01746419440154871,0.254602111949497,0.011032703254957848,-0.001143869291942441,0.008336047677144017,-0.01816321944823285,2.1171875
-0.00878093025102907,0.006420163047844626,0.022763927899037494,0.025544520734693876,-0.021851908768717242,-0.012588161413028646,-0.01359072938085263,-0.955457020637452,-0.0716142649674994,1.0260393748883243,0.04453429911100381,-0.006750252081147846,0.035119968507272496,-0.07054350906720187,2.125
-0.0036889836144539056,0.002833080867881859,0.00990474241070455,0.010930744035215713,-0.010039504342423339,-0.005332411083960562,-0.005836642172259222,-0.404239733024705,-0.030268604894692738,0.43703145156664064,0.01885615027596903,-0.0025016019465464814,0.014456803050318767,-0.02986099695368792,2.1328125
0.00836122629371279,-0.005679970761328987,-0.02044853823426955,-0.023544679599380055,0.01800889042903766,0.011789485919304286,0.012543664627253337,0.8994149371908631,0.06816377048906713,-0.9654569364540261,-0.042132947116247974,0.0076704189116676025,-0.034377922093036375,0.06585854796206829,2.140625
0.013430262107297775,-0.009276284190596638,-0.03320862075399028,-0.038015996005897466,0.02985781740297473,0.01897982188994017,0.020292095818860042,1.448104257743058,0.10991133685105155,-1.559296018724704,-0.06793151633430966,0.012010966837615374,-0.054901214554633954,0.10597647666774694,2.1484375
0.005627884819542354,-0.0037768225916600725,-0.013583825598941694,-0.015666917590460832,0.011739153068326359,0.007897972588324217,0.00840702405737046,0.604740821910032,0.04647284051944883,-0.6540646011434699,-0.02856414547737177,0.0054719347922574805,-0.02327708537284091,0.04393880330299365,2.15625
-0.007608033117953469,0.005585474600594545,0.019729501984299812,0.022223695277441172,-0.019100595308511676,-0.010897141338931035,-0.011792207342907184,-0.8278130542480561,-0.06184865753541221,0.8882292460142445,0.038521250620564704,-0.005739109536474817,0.030359172170337814,-0.061211161143779655,2.1640625
-0.016511961679426708,0.01190472229070404,0.04218947310562812,0.04773378844909815,-0.03991167770399899,-0.02355858299629209,-0.02540959626605987,-1.7938408564235337,-0.13517067542296796,1.9285343157982875,0.08383849280494159,-0.013345808098413955,0.06646802041334965,-0.1320451970708775,2.171875
-0.018438181274324686,0.013280042051228276,0.04709668212633399,0.053278363934115926,-0.04443704705427316,-0.026319302706544114,-0.028372956533669065,-2.0043375778491908,-0.151229267847707,2.1536068582536374,0.093717654837192,-0.015014330599840092,0.0743148864617439,-0.1474812755142012,2.1796875
-0.013338526192699053,0.009659260211946562,0.03425759616681124,0.0386727500674395,-0.0325097739353478,-0.019076377366866838,-0.020576861056522757,-1.4505907089615961,-0.10918216427892145,1.5571210818473826,0.06776803076732464,-0.010662830072956977,0.05363027626336956,-0.10694938978665303,2.1875
-0.000480267650306507,0.0005434830398217076,0.001828324960658861,0.001802535536177832,-0.00249235237414721,-0.0007832679579004179,-0.0009216351169402447,-0.05430476289251565,-0.003400773921488172,0.05859023199367401,0.002452483232660807,0.0002632807351729296,0.0014177350354391352,-0.0045911136071056305,2.1953125
0.01276145509030196,-0.008822015150792143,-0.031555282101420834,-0.0361741804505878,0.028342763235148817,0.01804899012721688,0.019293099394472938,1.3811082025730304,0.10501987449661587,-1.4802434574546597,-0.06462680315478801,0.011454802714612801,-0.05233592401964631,0.10084136945779712,2.203125
0.01368202402913092,-0.009454195841954054,-0.0338687031706184,-0.03883362890937234,0.030423771303346277,0.019351086980472824,0.020674864420280225,1.478526608301207,0.11202993183506155,-1.583410270663984,-0.06913532182520797,0.012184849901573666,-0.056047290893362134,0.10827313329408274,2.2109375
0.00479809853092655,-0.0031632162340212142,-0.011482127715989164,-0.013384924080625981,0.009714398098660018,0.006721942114743378,0.007105753452025521,0.5150572358722167,0.03898302115472529,-0.5488465005026695,-0.02406259783664358,0.004653694170244607,-0.0199788603070123,0.037734168441152856,2.21875
0.003164323126849134,-0.002024811652381475,-0.0073799443142803095,-0.008689917152906743,0.0059702700706479464,0.004414516240738781,0.004634429973111334,0.34053590615335505,0.025968843834801775,-0.36258193959042423,-0.01591687469513358,0.0033125727023331263,-0.013362620717776766,0.024778146455216313,2.2265625
0.011296720063264347,-0.007794467022701309,-0.027883049891660815,-0.031950981468208545,0.024968760265254724,0.01598251897806725,0.017071952364007704,1.2231266135119154,0.09304537364107136,-1.313388088402629,-0.05726813636488294,0.010243299336330426,-0.046354902503108544,0.08928788484650364,2.234375
0.012300478046515744,-0.008496724397720265,-0.03040602753478404,-0.03477562703288267,0.027279496415512923,0.01739463640335017,0.018603312762322154,1.3287045689076045,0.10115083753993677,-1.4303609764977896,-0.062314665940569815,0.011098286769350315,-0.0503713039267571,0.09697701726895469,2.2421875
0.0015989131030143082,-0.0009057817871020863,-0.0034233930743018887,-0.0040854592369551366,0.0022736922381766077,0.002165972973165724,0.0022488768714705822,0.16531139996077884,0.01300843490353365,-0.1812106355713192,-0.007929152401717687,0.00200577463336758,-0.006902537538421829,0.011748871366184849,2.25
-0.0042616219051905034,0.003244514655596424,0.011360957751628938,0.012688899580593261,-0.011413053863865161,-0.006163256734587343,-0.006718565551685538,-0.46886399433505543,-0.03512749835166479,0.5032094684707441,0.0218202923041344,-0.002983611237754512,0.016860801220483283,-0.03465828557731389,2.2578125
0.0011003560578790597,-0.000562986468432181,-0.002133351218861146,-0.0027231612414326516,0.0011188299304775299,0.00146217195415298,0.0014528329345826615,0.11573045496933519,0.009114932902956258,-0.12277023118874558,-0.005462643653536161,0.001567307675004947,-0.004936064948082065,0.008244787990538195,2.265625
0.0019330272917142163,-0.0011607289642479436,-0.004218336655882854,-0.0051509000412027885,0.0031154805714462665,0.0026344121308831308,0.002732650946739183,0.20654209076664204,0.01612973766550172,-0.22227951901385556,-0.009779191311934329,0.002306000502238144,-0.008332975040745452,0.01483108351068953,2.2734375
-0.011539212691899706,0.008380200982020553,0.029725344053612185,0.033443956899672556,-0.028268616313635354,-0.016524823695052572,-0.017800713722043792,-1.256343254756567,-0.09441700940312875,1.3470685256079629,0.058544914654906625,-0.009089586476894488,0.046315993881716006,-0.09263502410993027,2.28125
-0.026804267026925985,0.01919414140012778,0.0681752579415305,0.07720590691844854,-0.06388080741309533,-0.03821460019650723,-0.04108215630227099,-2.9128041503478355,-0.21963092273624502,3.127521474919216,0.1360101137547795,-0.02203685638578197,0.10822823336327335,-0.2143187700442912,2.2890625
-0.027821704086235386,0.019916131388163186,0.07074401501813844,0.08014675438021346,-0.06628758387197714,-0.039655181406309366,-0.04265974925056073,-3.0221798188429685,-0.22781633415441932,3.2473150950200544,0.14118353355902424,-0.022925652359161004,0.11235823086673885,-0.22239605917931402,2.296875
-0.012707647251408785,0.009214978147284787,0.03268300661590147,0.03685137938384736,-0.03106480952654126,-0.0181822426935055,-0.019636160355652573,-1.3817277310783327,-0.10381389399669,1.4864093692010931,0.06453902969799763,-0.010144624472760032,0.05107610760117711,-0.10189758110106636,2.3046875
0.009726504657082032,-0.006664650659971123,-0.02386736268957181,-0.027431540698223487,0.021237928669506606,0.013711762827995029,0.014595314270565247,1.0515113793709505,0.07988943732634618,-1.1270566315226684,-0.049175485997456844,0.008842207462784411,-0.039919000065626126,0.07688919965787734,2.3125
0.027007439012617252,-0.01889529551331375,-0.06750455944769719,-0.07696083327805216,0.061536287827859984,0.03831854392147221,0.041011573988313836,2.9248815572698095,0.2212920813352069,-3.1406941312711623,-0.1367652973898627,0.02348633716789048,-0.11005456617920012,0.21450913153655604,2.3203125
0.02871191496514163,-0.02010628046735259,-0.07187698855856903,-0.08186942274763112,0.06553782628132318,0.040778346255384394,0.0436560239137367,3.1091956920866752,0.23532763587039723,-3.3414960953246067,-0.1454643267836672,0.024970173895115987,-0.11700869071510639,0.2279819760473196,2.328125
0.016301737679293632,-0.011330367897474516,-0.040573255390206356,-0.046330888576745416,0.03662440857931396,0.02312029366146158,0.02471314475525856,1.7641053126518553,0.133883689257244,-1.8968931078384847,-0.08261559331898478,0.014489700243566604,-0.06667671945912183,0.12913366336662513,2.3359375
0.002996408479851249,-0.0019134487538272902,-0.006946689293108252,-0.0082053024554357,0.005575556512802523,0.0041611526074120326,0.0043736109557878655,0.322617116220464,0.02488802946646131,-0.34367399385788244,-0.015110217283858729,0.0031934261331378433,-0.012700460862131006,0.02331084073553585,2.34375
-0.0026390841630897777,0.002085442063457111,0.007305290649318366,0.00796765674757524,-0.007614702269723114,-0.0038657188000128795,-0.004239153755010936,-0.28856377606084355,-0.021569079416412455,0.31719359786012985,0.013591520060698557,-0.0016324720193119572,0.010161305783570482,-0.021499315477034188,2.3515625
-0.00536290314420272,0.004021811391722521,0.01415724645512464,0.015811149036076236,-0.01396899215753223,-0.007724775685879327,-0.008370901614135081,-0.5860603040213309,-0.044103187035824845,0.6340763389303863,0.02743856626841364,-0.003939837339436871,0.02122869878399122,-0.043404950361335876,2.359375
-0.010898229870610121,0.007934001217563881,0.028105930769725725,0.03170309068043475,-0.026823160229509715,-0.015596356397528625,-0.0167943216063818,-1.1880782222275201,-0.08929493192388796,1.2740916055196172,0.05538800298842511,-0.008566925776736,0.04372096283793426,-0.08779166178351065,2.3671875
-0.015508997480505014,0.011184016549658211,0.03975014015965264,0.044903565963312415,-0.03753247636716254,-0.022172234777531195,-0.02384192392255181,-1.6872500964359876,-0.12673856365342864,1.8081583165997586,0.07863725516119215,-0.012425089153025048,0.06244581073306852,-0.12450345181897478,2.375
-0.013653129785553246,0.00986907305440832,0.035065180753846854,0.03952701058835706,-0.03321865194445819,-0.01953484827935637,-0.021041343491159364,-1.4842495962150126,-0.1114920301283884,1.5938339049811454,0.06923770616686276,-0.010878306962499475,0.05490336470248135,-0.10940894996374978,2.3828125
-0.0057972335764719385,0.0043263164526364944,0.015225531094807117,0.016977777797463046,-0.014951518822990452,-0.008344712195197933,-0.009073475573968577,-0.6331478963217948,-0.047464022677195884,0.6824037600662514,0.029538580807360156,-0.004292738442942804,0.023029822484545177,-0.04669708333416773,2.390625
0.00496670025781219,-0.003274532909344995,-0.011910543720488444,-0.013817373643765762,0.010098649650509746,0.006961765540399831,0.007346748569014784,0.5308760140470532,0.040441635714997495,-0.5702981055446398,-0.02493308478284815,0.00478846544126865,-0.020587922732131843,0.03877106196388017,2.3984375
0.014100609305766546,-0.009744119218926985,-0.03489947154230725,-0.03990586882261072,0.03138939767642587,0.019925484166585298,0.021285849625514115,1.520033237894898,0.11541687210849244,-1.63646753617793,-0.07128566504712112,0.012558980637500085,-0.0575827129794995,0.11125491643104671,2.40625
0.013822926563675442,-0.009570872655138528,-0.03420044809123673,-0.039109190279459416,0.03079698986206753,0.019526696171745548,0.02087505520175181,1.4931489538778364,0.11352682155852542,-1.6069744996810227,-0.0700229312944521,0.012386465329034152,-0.056478074105050596,0.10923121664682543,2.4140625
0.002515315889489605,-0.0015821010439953447,-0.00575438552763059,-0.006801126647813832,0.0045041027031153865,0.003483624306719086,0.0036431920857679084,0.27152353261768764,0.021024187808579065,-0.2903997665765437,-0.012776824045622161,0.0028253475801681125,-0.010710214818727545,0.019626190384687745,2.421875
-0.0068724676806531096,0.0050712712748254216,0.017870274050402823,0.020028061598532636,-0.01737232409125837,-0.009829927233004973,-0.010671561661887699,-0.7454964183680289,-0.056136222355658634,0.8045998732782783,0.034883758035225566,-0.005171695497273155,0.027300165263037687,-0.054958797752596655,2.4296875
-0.002870697447826701,0.00225384367645553,0.007806460477781977,0.008583363548913328,-0.008086792017935131,-0.004138777273551786,-0.004572904090113834,-0.3139565482032529,-0.0235841033727989,0.33901126615656124,0.01469740605263648,-0.0018221583631108423,0.011092800683733367,-0.023306405363430698,2.4375
0.005504708555042776,-0.003675719050799951,-0.013265426523485698,-0.015355991798659072,0.011418990590247431,0.007751039841448413,0.008205213804238425,0.5927100847053564,0.04520045088057037,-0.6381709040297135,-0.02777392354861072,0.005293546888813421,-0.022827962091412097,0.043099116183408136,2.4453125
0.003617413355388862,-0.0023515991180712292,-0.008496252226240281,-0.00992053597772995,0.007034073766109775,0.005048621355243959,0.005334254955841918,0.3885505145216351,0.03008503571684963,-0.4190167599928583,-0.018278845981050992,0.0037376277008614968,-0.015172751115650505,0.02792249385151471,2.453125
-0.004347463380780413,0.0032881473085869576,0.01157966904068992,0.012896260274579503,-0.011556259858259615,-0.006294757965428649,-0.006825543533825491,-0.4755667357246705,-0.03521180305235394,0.5119186526151872,0.022133117973557666,-0.003020521125101612,0.017106264154173732,-0.035522750804089086,2.4609375
-0.0072855159972509565,0.0053846759484459964,0.01898851551431062,0.02129715113217266,-0.018467638560634495,-0.010483390363496466,-0.011332487893498219,-0.7961155077542156,-0.05976505375617363,0.8587367178577923,0.037163820023863946,-0.005564960823789701,0.029022125471067067,-0.05881400717404616,2.46875
-0.009085051648970067,0.006663489594663364,0.023520296489888164,0.026435255147458363,-0.02266904192006058,-0.013033229067741632,-0.014084680965210752,-0.9912761756763764,-0.07477490202971217,1.0689970788934042,0.046328481288951305,-0.007105339864149417,0.03633526964522987,-0.07294879276818964,2.4765625
-0.012983823986819016,0.009405259015234708,0.03333823735113024,0.03761111607593752,-0.03168121727644888,-0.018559196657431817,-0.020008158680779015,-1.411323091741964,-0.1063487382803247,1.518824428354702,0.06595606113929582,-0.010354971989016888,0.05215011360731143,-0.103932580413396,2.484375
-0.00483501734971231,0.0036220093309969822,0.012796142950970068,0.014296092463701962,-0.012629286426889007,-0.006966896629526242,-0.007546075700086151,-0.5265515446851657,-0.039096447937042755,0.5653608337648353,0.02450378624218194,-0.0034007239490069655,0.01910367574383326,-0.03925050117603413,2.4921875
0.017096596722111647,-0.011891842407903648,-0.042488296194011906,-0.04852816305626609,0.038458687264198925,0.024215673287111016,0.025921619709207398,1.848998789400677,0.14049825034375704,-1.9888461570315457,-0.08664372529851434,0.015162169143721465,-0.06982927035599076,0.1351771983733234,2.5
0.02327934405504202,-0.01624948491825571,-0.05807601764636759,-0.0662776620951663,0.052804794772624106,0.03300766578534231,0.03533415435984565,2.5171893963951897,0.1906742638790068,-2.7052454614688832,-0.11784730461478243,0.020347305172884314,-0.09489566760766487,0.18452024594387045,2.5078125
0.0005232884750952922,-0.00014284486667381156,-0.000692159434559932,-0.0011110148765799907,-0.0002480526990390351,0.0006416089310918197,0.0005788554584752021,0.051380250655881525,0.0041055766500166894,-0.05276193374790091,-0.0024419412969708255,0.0010524314140869305,-0.0026040247016124673,0.0036228332383812477,2.515625
-0.01541460563278149,0.011123322878461267,0.03951945010863473,0.044574068000368255,-0.037352675402845786,-0.022040571676173966,-0.023761212564475286,-1.6740827527862125,-0.12615361154096952,1.8010969510167423,0.07826434330750776,-0.012421479278713168,0.06204840439275891,-0.123188384661206,2.5234375
0.0031537607352660193,-0.0020233300133302335,-0.0073032499287622515,-0.008593131247650734,0.005973519079303519,0.0043662237292151984,0.004590354649697223,0.33888240807846154,0.02614154642929452,-0.3655080138122019,-0.015948433567924067,0.003333017737866557,-0.01324823291061533,0.024484114861234103,2.53125
0.025023781559384728,-0.01749213956345744,-0.06251363045522906,-0.071275763967661,0.056962927344507676,0.03550567314492423,0.038011951667705525,2.7079995291969445,0.20509545370940713,-2.9132235318038027,-0.12680059008727837,0.021855977070141825,-0.10198187742048563,0.19846655739350774,2.5390625
0.01307964619239908,-0.009031585084759049,-0.03245343698407403,-0.03710677696588998,0.029102885616284917,0.018552188778637964,0.019810703835649524,1.412508326588389,0.10707680038347377,-1.5188295780842045,-0.06620293347316451,0.011725746301526023,-0.05359489493142165,0.10339537615668892,2.546875
-0.01343496511646832,0.009730856607452865,0.03444591449118811,0.03887462626535254,-0.03274413980352181,-0.01918107476672583,-0.020693332843680363,-1.4612699282203099,-0.10996564998130734,1.5721339338965963,0.06822736149714628,-0.010741087617937257,0.0539639518047836,-0.10765780298850114,2.5546875
-0.019083166880770986,0.01372596229461628,0.04879577413105205,0.055161085827902176,-0.045962435420168424,-0.027279193023430463,-0.029387763667956333,-2.073841651341233,-0.15605998480418437,2.229877859965182,0.09689495079924935,-0.015535605173021954,0.07698791533578761,-0.15269350491901063,2.5625
-0.011712397481609476,0.00851278221017562,0.030256768838353806,0.03412873986483531,-0.028804179590397733,-0.01682711736845981,-0.018161072914214014,-1.2760429783259024,-0.09582712652795192,1.3700337506566742,0.05959826517189126,-0.009299736019148488,0.047170001454157014,-0.09410984673163028,2.5703125
-0.013452909411827085,0.009742666008743846,0.034576055893250204,0.03906595309390314,-0.0328141412851932,-0.019260488379620713,-0.020753450304612554,-1.4646758888257492,-0.11029067176775696,1.5714194299060773,0.06840447924680602,-0.010750702351918,0.05415109877650451,-0.10794244677550544,2.578125
-0.014281182849195665,0.01031603986734929,0.03655734040979337,0.04128340893054844,-0.0346498471779031,-0.020369619428287678,-0.021936831290241005,-1.5521682018090206,-0.11691801765722015,1.6659210174947054,0.0724375731328066,-0.011403991205508598,0.05735284106327569,-0.11437088286961167,2.5859375
0.0003684484544347759,-6.253016169446345e-05,-0.0004206305494322021,-0.00079962465642326,-0.0004483856731151101,0.0004904906837786119,0.0004321227662799727,0.038673686535236444,0.0034614959694147384,-0.04156834461061705,-0.0019688772182478763,0.0010181401078293002,-0.00213946692280253,0.002458425589565277,2.59375
0.014323538987034758,-0.009933374943889121,-0.03556150724456588,-0.04075668830466699,0.0320327739235153,0.02030715320256227,0.021676747021223637,1.552381055258713,0.11783412337104084,-1.6642410143099622,-0.0726308038793986,0.01278238410220268,-0.05870189131627786,0.1136689570979624,2.6015625
0.011306814727287395,-0.007781569701634202,-0.027889964640708243,-0.032009131892294485,0.024903300893418884,0.015978949959451223,0.017034784406832607,1.2237771403684163,0.09274757793300245,-1.3076318888493097,-0.057113551290595796,0.010156181509745166,-0.046410015813061804,0.08956975421770366,2.609375
0.00509212442914758,-0.0033728895447482387,-0.012194055675500956,-0.014117878161772481,0.010372282300281213,0.007130825733832344,0.007568437660112962,0.5472524340138923,0.04152871252288525,-0.582176108585006,-0.02550588904879767,0.0048868039946972,-0.02117756366650251,0.03979493054169285,2.6171875
0.00960475934048401,-0.006572686802745993,-0.023577540784590352,-0.027016165427035665,0.020928212069137177,0.013552021984498232,0.014487665395934695,1.0348023841956637,0.07865585648925293,-1.1118631522802298,-0.04848984196436379,0.00876920442051369,-0.039457850035200775,0.07541690048783295,2.625
0.012781558107911255,-0.008835265024366637,-0.03159468600885734,-0.03614377838789545,0.028390877846440628,0.01806551448495123,0.019332889260431398,1.3802807496159115,0.10506163580201701,-1.4860179156515774,-0.06474480692497205,0.01150887067037477,-0.05232650938125294,0.10072980276007686,2.6328125
0.002763397119826042,-0.001748668776829105,-0.006342351462114099,-0.007505441962833973,0.005052133644734357,0.003816151324447933,0.0040147607260428994,0.29622713914281446,0.02303795784843623,-0.31821206926031775,-0.013972478077444096,0.003007455869843399,-0.011704514318989065,0.021303890860056716,2.640625
-0.008512180291590758,0.00624656161748106,0.022078643569729522,0.024767447757946662,-0.021269380364622108,-0.012211121631315805,-0.013214823012926551,-0.9269620878097357,-0.06973238304674864,0.998723866413623,0.04330665500974147,-0.006594560603198066,0.03403572095496694,-0.06828219911640293,2.6484375
-0.006085140208072222,0.004545772455641297,0.015964303281541685,0.0178634751304419,-0.015656999308593954,-0.008760158070158263,-0.009517663537813765,-0.6674257621886259,-0.05020032368717398,0.7166788801005847,0.031099873441577004,-0.00455554847077371,0.024261515843091244,-0.049170390327759564,2.65625
0.0038796725748830776,-0.0025118283730598545,-0.009147159716798503,-0.010627988228697503,0.007575572091093453,0.005397248035406033,0.0056928200970472334,0.41137353120515113,0.03157507580150743,-0.4472037479580916,-0.019474847109330933,0.003931521585312214,-0.016094430998872603,0.029949326144024888,2.6640625
0.004959817227011704,-0.0033002643138631553,-0.01188179862267645,-0.013753976580663288,0.010152301275985256,0.006935489479772408,0.007357161134214172,0.5317468472994844,0.04086490975178632,-0.5759629698853974,-0.025118859594621935,0.004908123575583575,-0.020519684552397877,0.03873510123453419,2.671875
-0.005420368592217708,0.004032847247550119,0.014255929639063405,0.01590866379873669,-0.013997519852184757,-0.007798115996719535,-0.008464538090525069,-0.5894673530453961,-0.0439886415131043,0.6335015121080974,0.027422329668296094,-0.0038800604276003586,0.021476860438290484,-0.04356387706442349,2.6796875
-0.013784350896266949,0.009964073982582042,0.03533155778876272,0.039859856452072476,-0.03351073656504203,-0.019671071843109803,-0.021227757033122217,-1.4959328656236013,-0.11274520719560806,1.609825396654753,0.0699230081871973,-0.011023027117675478,0.055357875832363845,-0.11012319749280775,2.6875
-0.010523893317140326,0.007671907354805088,0.0271335855646357,0.030565660826118002,-0.025944890191771503,-0.015040967012814252,-0.016265004336649198,-1.1446177542067097,-0.08625421690713517,1.2302896282090152,0.05351611602401432,-0.008306885541072078,0.042167694363008185,-0.08441277102115588,2.6953125
-0.0021732273560360347,0.0017573219076892322,0.006099944422796623,0.006667509773462473,-0.006466306783423483,-0.0031803570196040805,-0.0035185617303075223,-0.2396175698639251,-0.01764461806549773,0.2557380865546833,0.011150146664197133,-0.0012121598454156986,0.008321234852568011,-0.018105822569077,2.703125
0.002144931210148193,-0.0013129207315936055,-0.004792323948746075,-0.005703549195638571,0.003627477555426636,0.002956895907162621,0.0030917021149842088,0.2300968966527786,0.01810807897445597,-0.24756431090349185,-0.010844512736392278,0.002488201004357912,-0.009217413851280836,0.01625085250785704,2.7109375
0.004036420485886127,-0.0026488023248579943,-0.00957346228696824,-0.011118806745249296,0.008003642766156706,0.005645675491651916,0.005983265885174698,0.43505818196985213,0.03357369515529586,-0.4642404831760291,-0.020400847248104783,0.004077650924406823,-0.01691625357235213,0.03132311269407313,2.71875
0.00450353037070053,-0.002959215149868646,-0.010746138859769248,-0.012472865018993336,0.009016594094090719,0.0062999505137313625,0.00667154864296296,0.48320088806173345,0.03688482834243081,-0.5137985056595897,-0.022603257177089355,0.004414722098757839,-0.0188054734926372,0.03510125069068156,2.7265625
-0.0019879849180583723,0.001645710293403551,0.005643053573635031,0.006084678569329306,-0.006140175093029367,-0.0029441637088370204,-0.003260618558348752,-0.22214665070197429,-0.016665614795445236,0.2433565328878206,0.01038903047631491,-0.0011075552017522515,0.007549394087036754,-0.016462798759071907,2.734375
-0.008512401756583321,0.006250249119418611,0.022109695135377257,0.024772045781044638,-0.021294734592357697,-0.012225531425548846,-0.013213124562565279,-0.9282833493254111,-0.06985560615238953,0.9993150207273913,0.043355892067279224,-0.006591088825592692,0.03403490096950713,-0.06839361039969022,2.7421875
0.0014519834194481715,-0.0008199656784399507,-0.003027728875605638,-0.003732002755994313,0.0019923951912426264,0.0019556231863093842,0.0020234923199254633,0.15352581362241696,0.012271459421003524,-0.16612619012344776,-0.0073176332747572,0.0019023468710317286,-0.006373676020986095,0.01077827861513788,2.75
0.019078178647248534,-0.013294947968783178,-0.047508296560994784,-0.054213207901343444,0.043079747034635456,0.027039831064545345,0.02894817596626815,2.0638091437084274,0.15669125307885876,-2.2199581570240263,-0.0966963912241232,0.016837891012157845,-0.07787742081308441,0.15100280555089587,2.7578125
0.016788595423619365,-0.01166235413797315,-0.04175924701304342,-0.04769432519711885,0.03770453226176153,0.023794589378110517,0.025449619345092985,1.8143819727861528,0.13752971178219536,-1.9502975146945636,-0.08498930235131824,0.014866020544142657,-0.06860913351273087,0.13291731332225723,2.765625
-0.0011704832670016286,0.0010507485469675535,0.003538396404188837,0.0037215264871499607,-0.004168977303592093,-0.0017503417991746146,-0.00198820368882651,-0.13155036146886578,-0.009734006924327125,0.14313046112299216,0.006104233796354426,-0.0003686938957695043,0.004229798167196639,-0.009814430096229076,2.7734375
-0.004565240757669076,0.0034427100052916884,0.012130242941230628,0.013462014088620898,-0.012042752608693813,-0.006592474232892224,-0.007192871173305807,-0.4972963786771661,-0.03722621035741626,0.5358411513871503,0.023234979378133805,-0.003231161145982986,0.018018584671131647,-0.0367663453792033,2.78125
0.004074010844763365,-0.002678445598651052,-0.00964057563481042,-0.011247919792928388,0.008136519754614147,0.005683611585675951,0.006002346382792394,0.43923641385919454,0.033743266256066294,-0.47364094034794174,-0.02064671917902552,0.004121150979557142,-0.01699623248205978,0.03185326009953004,2.7890625
-0.002746321019813328,0.002155639065414086,0.007541032313384102,0.008320737227425212,-0.007773252162088593,-0.004012311719738402,-0.004371854391976253,-0.30282341725328216,-0.02238277073829214,0.3220649536334185,0.013966119130999863,-0.00163532540639066,0.010670675727476835,-0.022664006574505537,2.796875
-0.01714551301451307,0.012357287874736998,0.04382465184591314,0.04957171010459259,-0.04138795142879037,-0.02447502472117216,-0.026329498918791615,-1.8654498986161832,-0.14058623705753773,2.00355516914203,0.08705975512215154,-0.013847945798767917,0.06904783036110372,-0.13738149203034966,2.8046875
-0.011297555333065694,0.008221193802552883,0.029080392776927654,0.032794149369704775,-0.02778908368429947,-0.01615088550613737,-0.017430189170924808,-1.2302710379288864,-0.09251267335515079,1.324354622798972,0.05743856032229132,-0.008931811463807013,0.04531549322534676,-0.09074178491287382,2.8125
0.00259846848303728,-0.0016162232552231158,-0.005916820669662993,-0.007015348745847229,0.004600189418412731,0.0035926718175765425,0.003727656927786248,0.2776222352343038,0.021574962764691438,-0.29566990629904666,-0.013035814959005848,0.0028151005231707065,-0.010999510547814152,0.01999821550744132,2.8203125
-0.0017707867783207912,0.0014756740083893144,0.005140648537777445,0.005555196649458019,-0.005584725812848352,-0.002647568179718719,-0.0029664491901422382,-0.19660049547389125,-0.01430293887599887,0.21154876652592458,0.009129200521761428,-0.0008830501757426335,0.006793682403937968,-0.014777439359073411,2.828125
-0.007054275926943697,0.00521575253004311,0.018437801051304534,0.020728975504661698,-0.017894160564190683,-0.010152900576268574,-0.01100437419577843,-0.7704276967111902,-0.05778883990165604,0.8258653612302526,0.03593946933651973,-0.005343250033685599,0.028223536321069807,-0.05691844418737387,2.8359375
0.01032381836313508,-0.007087497861952983,-0.025455828394021503,-0.029117437142579552,0.022655074438265192,0.014603524585168857,0.015567933075183912,1.1141705758147122,0.08467351195449832,-1.2001103487142333,-0.05222160740427458,0.009392499561684309,-0.04235205677753055,0.08138671309420363,2.84375
0.024376272755220276,-0.01704078180086477,-0.06091885732223643,-0.06949002227669517,0.05545930730169597,0.03460833398160375,0.03703533333171051,2.6395381410704437,0.20007833482761941,-2.8377779623751285,-0.12355761984891425,0.021304325153037745,-0.09943910393538434,0.19334768724130436,2.8515625
0.006529137114356218,-0.004412488855689561,-0.015871008137068307,-0.01840688971651447,0.01384848689182509,0.009201263657798912,0.009775618624225657,0.7060687336407235,0.05388604536546047,-0.755942819948489,-0.033060405091935266,0.006174263004715804,-0.02707338367264389,0.05145201785446768,2.859375
-0.018327263162456444,0.013185690377659525,0.04684900423731788,0.052862007534511514,-0.044153197440646996,-0.026175616998101874,-0.028178265729686326,-1.9890813827802853,-0.1500753529684707,2.144097282264602,0.09308326251067313,-0.014908627655101375,0.07376507625021479,-0.1463433970846195,2.8671875
-0.018726652892092924,0.013475215903889183,0.047849793838619877,0.05409790437395812,-0.045119042553718416,-0.02674050735478496,-0.02876735442700922,-2.034299200082105,-0.15360975927784368,2.191566751021886,0.09517897273866902,-0.015248326270283694,0.07540778964485728,-0.1497084564346711,2.875
-0.007913978450497986,0.005818437984986639,0.020575743432659287,0.023161222924004535,-0.0198843505102145,-0.011357755848651969,-0.012236304078469717,-0.8635516783759579,-0.06489077513525718,0.9282482128506909,0.04028068717725476,-0.00604435239328203,0.03157152349274026,-0.06392194900541925,2.8828125
-0.004407178910565989,0.003325096179799664,0.011746820965322114,0.013069917254082616,-0.011664612311411453,-0.006382580031937426,-0.006894054137327466,-0.48265734166653457,-0.03581546234583209,0.5162770044304823,0.0223795410673595,-0.0030358571930735934,0.01735777812823845,-0.036009253633074195,2.890625
0.0031914477012112306,-0.0020530695810266333,-0.007423593610264553,-0.00878980564608639,0.006048362163390013,0.004423845602965013,0.004665576684500162,0.342705734938141,0.02652129227960926,-0.36792432943399417,-0.016151155802097424,0.0033718386272223472,-0.013472446561170312,0.024799160907231155,2.8984375
0.019959975522639273,-0.013903370517512647,-0.049747484775921245,-0.056867424360277904,0.045095255751334766,0.02829591495401501,0.030239531280137302,2.159888694230532,0.163594310464956,-2.317914494857444,-0.10105405292401784,0.017509332657299554,-0.08148209875910749,0.15845728308364423,2.90625
0.025799735025664485,-0.01802086377523695,-0.06447843961340814,-0.07352767291837888,0.05867568852383358,0.03661093621532458,0.03916213053195851,2.790033782417003,0.21115080833952926,-2.9973046386377065,-0.13057984366930458,0.022438631816569816,-0.10511139344882384,0.20469927426959494,2.9140625
0.012918776985380066,-0.008912186872157533,-0.0319544963063442,-0.03652397543150791,0.028664119698050685,0.01826864710611232,0.019512746984312608,1.3924105738119223,0.10575256827191304,-1.4998122060276438,-0.06533581178881526,0.011585820353428542,-0.052794203051380696,0.10188388975973225,2.921875
-0.002142267197472583,0.00172497011447942,0.0060406284064086916,0.006641757073383354,-0.006395465854561943,-0.0031655309407827652,-0.0034738550719471215,-0.2378090125363864,-0.017258567132718367,0.25119280654804677,0.010886218701747417,-0.0011068726994199077,0.008298686834961017,-0.017898539004989087,2.9296875
-0.009780449150834798,0.0071227477559452235,0.025261743980160446,0.028463254831618698,-0.02417124793042394,-0.01400409202533813,-0.015129007760841593,-1.062832334724639,-0.0797203475897947,1.140751484834266,0.04956909267273158,-0.007579686587892224,0.03921304444860404,-0.07840483972274367,2.9375
-0.01400718820827129,0.010128491393173457,0.035893486615838,0.04053593696674935,-0.0340457622443619,-0.019987271656078012,-0.021579264740292228,-1.521102005142625,-0.11463384149982538,1.6354822023299644,0.0711029879113723,-0.011221043898161009,0.05630788624199346,-0.11199132936278407,2.9453125
-0.013240122700451731,0.009599546137648445,0.03399220185316535,0.038370426096221905,-0.03229450156710346,-0.01890650132775633,-0.02042121826971738,-1.4397959472276334,-0.10859530859381791,1.5473428340768172,0.06732418939210626,-0.010614659811311732,0.05321983898680297,-0.10605558919402444,2.953125
-0.004683260349057845,0.0035374745942578886,0.012457559029032374,0.013898580610902858,-0.012346920158315193,-0.006768224948385094,-0.00737086132354396,-0.5123679346776056,-0.03829804559128997,0.5494982603183665,0.02391442187288784,-0.0033474247968751044,0.018548921124672352,-0.03807204680903986,2.9609375
0.0025669008026942327,-0.0016081795505330895,-0.0058263964200709764,-0.006875378992501883,0.004577673030209805,0.003532166945547237,0.003710073930050832,0.2750243446784115,0.02148999832920191,-0.29530940794997584,-0.01294541087267043,0.0028350860681618877,-0.010887571355664243,0.01960869730947894,2.96875
5.08892940790483e-05,0.0001735223662861985,0.000492362343096497,0.0002954797078246619,-0.001298022140066411,-3.395437201969045e-05,-0.00010803204476280441,0.002327632970769265,0.0008662055608827909,0.0004954152696604837,-0.0001907013496518274,0.0007030076934705981,-0.0007485158123623513,-0.0004237636688138545,2.9765625
-0.006634346428440927,0.004920844174279688,0.017341598529786388,0.019410840377238715,-0.01692385250985862,-0.009533768934716025,-0.010315236374028229,-0.7242550214236031,-0.05438458976848879,0.7823094223131433,0.03382197802176233,-0.00500029041388891,0.026351238467643093,-0.05356862914962633,2.984375
-0.00845427309879439,0.006215503632168807,0.021938848719360804,0.024594651166815477,-0.02117254088303088,-0.01212748913430731,-0.013113014053622767,-0.9222337735093364,-0.06958735428777352,0.9941424364016174,0.04311521365474138,-0.006562963753459666,0.03376474441495682,-0.0678950338728909,2.9921875
-0.0035766918435954967,0.0027495967815331346,0.009642248837786404,0.010595951584390034,-0.009753046252836604,-0.00519564318029578,-0.005669068340956094,-0.39146167916095925,-0.02928198947319257,0.4230761702269379,0.01829485374652452,-0.0024049052238200048,0.013982578605496353,-0.0289921582812049,3.0
0.005786164809759755,-0.0038925753757592173,-0.013979641067535404,-0.01622890984756317,0.012114036220314756,0.008125375338050099,0.008645425352254056,0.625195486237035,0.04791421925830507,-0.669970694223191,-0.029302557030650576,0.005565796794915678,-0.024027739991800873,0.04542248763821796,3.0078125
0.014025355787491218,-0.009721011414537753,-0.034780829803828836,-0.039797015652156945,0.031303233903055984,0.01985485806182193,0.021241016047150556,1.5167622372794516,0.11532379505333946,-1.6299908703072834,-0.0710771781130574,0.012556297321632003,-0.05744191535608129,0.1108627912678349,3.015625
0.01265846243058257,-0.008739528071391849,-0.031350815724821415,-0.03583240394284078,0.028072524486142697,0.017917209460869377,0.019148489754496758,1.36583681236158,0.10362257032835483,-1.4697531602855078,-0.06405239543289874,0.011380128148732254,-0.051840485311687466,0.09999694612954413,3.0234375
0.0026948403492397114,-0.0016836587147589842,-0.006203685449823047,-0.007267819877138372,0.0048333121989263894,0.0037369502801060427,0.0039118312826583405,0.28574848448375273,0.02185232164852818,-0.3086181997451871,-0.013501933202824197,0.0029208398201527558,-0.011383004922719202,0.020806501165421862,3.03125
-0.001028786405840424,0.0009431433870458812,0.0032347379477030785,0.003381685146117255,-0.0038180440755281697,-0.0015761621359618276,-0.0017973479789879382,-0.11561237255553168,-0.008298436160968765,0.1239725195575004,0.0053061541274137414,-0.00023154773469323184,0.003720172658976327,-0.00877575604633189,3.0390625
0.00873783927939291,-0.0059739264718613495,-0.021383125057223815,-0.024630715684098584,0.018982095522221045,0.012317692663396761,0.013117699573820037,0.94406593077005,0.07193973236951172,-1.0154126593731667,-0.04427203178397404,0.00805695120792823,-0.03591555056539793,0.06891818819376196,3.046875
0.015846821422693655,-0.010997533923358008,-0.03935857636339347,-0.04501293960009987,0.03555241920595824,0.02245739171296279,0.02400511190739952,1.713355687318983,0.12997044015355183,-1.8428566422079293,-0.08027191250486856,0.014080655385454027,-0.0647804117593494,0.12541165514821842,3.0546875
0.0026961310888215175,-0.0016803858063332126,-0.006231664419882296,-0.007318912765463637,0.0048598059340050756,0.0037692450534221036,0.003949034598404543,0.2865253803114841,0.022016062243579746,-0.307589109545309,-0.013507231207294086,0.002922703001060945,-0.01146235291477911,0.020643547736059396,3.0625
-0.020535894992259753,0.014761769267302542,0.052389483283459534,0.05928085219530908,-0.04932873050160276,-0.029298009485111576,-0.03154413772263542,-2.231646915059245,-0.16820069914859737,2.400867743556662,0.1043029389538558,-0.01676716754605384,0.08279841080721899,-0.16430348445204906,3.0703125
-0.027855188683400364,0.019934465528562678,0.07090228667776884,0.08027892328676821,-0.06638471245966733,-0.03974181275113479,-0.04275931057479241,-3.0243159308124286,-0.22798937984116122,3.2518496380086184,0.14135936603486932,-0.02295352902261882,0.11256085633692264,-0.22245854144953556,3.078125
-0.01395702252451872,0.010094129931939862,0.03585037503098001,0.040465956963357155,-0.033960979241303764,-0.019975218596855866,-0.02154867958731295,-1.5175377479963559,-0.11419294859957729,1.6299693379141944,0.07086338635862338,-0.011167888225898277,0.056228006238046344,-0.111699726272148,3.0859375
0.001687876573921445,-0.0009762921131407334,-0.003649234882140569,-0.004343039995608311,0.0025172418026957353,0.002297237135314981,0.0023596917079779767,0.17811940275751828,0.013853769458353262,-0.19346437536729374,-0.008424088607628904,0.00207637975941149,-0.007261412433654534,0.012775028342526735,3.09375
