AF3,AF4,F3,F4,F7,F8,FC5,FC6,O1,O2,P7,P8,T7,T8,time
0.0026099899278157635,-0.001638235457133564,-0.00594012367218623,-0.007059897298064573,0.004680670243555969,0.0035907649304782294,0.0037800672558631647,0.27887764166524787,0.021660898557820357,-0.29939632698641483,-0.013191135044611616,0.002890869894714233,-0.011072971208707911,0.020095947319475484,0.0
0.01809153892099851,-0.0125821774411726,-0.045067646100349565,-0.051487906130474784,0.0407357354178722,0.025646033752467535,0.027381101067700767,1.9572836359165764,0.14840563155870987,-2.1011008009259373,-0.09159844633461929,0.015934596773847585,-0.07389651553969735,0.143523233051248,0.0078125
0.016468819863182684,-0.011426373087484057,-0.04100999730453278,-0.04688260086979797,0.03695423936488571,0.02335765121899899,0.02490988704038936,1.780572331106344,0.13491239517215106,-1.9120986174860028,-0.08333751716343751,0.014536287462893838,-0.06733637033559621,0.13063960799311777,0.015625
0.005865255722968776,-0.003931870368672172,-0.014202749137860344,-0.016460805202238686,0.012273730738500124,0.008255808469431306,0.008748945558376969,0.6312313300444342,0.04808917988773304,-0.679538449689975,-0.029649434838204706,0.005597453113690076,-0.024312231767909503,0.046107410216846396,0.0234375
-0.0034797770047638264,0.00266982325273516,0.009442016690120623,0.01042953796668972,-0.009500988113606395,-0.005068432594438656,-0.00550322409116738,-0.38100705698504184,-0.028217033833368342,0.4080364622843526,0.017682479884115233,-0.002271830763270587,0.013633180890760556,-0.028493310522462144,0.03125
-0.014030525555210376,0.01014123526672838,0.036046349729016984,0.04073422944725886,-0.03413200104604721,-0.020082319932808856,-0.02161264739109744,-1.5249738908592727,-0.11460595216455666,1.6399993825421573,0.07125350951019786,-0.011213570322710299,0.056453671576009445,-0.11261697941578154,0.0390625
-0.017045731037483733,0.012289949327071342,0.0435959937834139,0.04931163086069675,-0.041187340280171084,-0.024347882361247405,-0.026223494297794334,-1.852608531431616,-0.13958984558737852,1.99432188979839,0.08665163675892903,-0.01381176448666516,0.06866378745295638,-0.13649216050268098,0.046875
-8.679734734749831e-05,0.0002907503477663505,0.0008113581103835975,0.0006072556646077072,-0.0016358432117429941,-0.00020237195493433944,-0.00034098438425438245,-0.013336519586731016,-0.000846533124350312,0.01793110974746116,0.0006620056998993499,0.0005247390511683438,-0.00016597417089510026,-0.0011793434139496602,0.0546875
0.018622142190399347,-0.012966216874816737,-0.04633500815581802,-0.05299632472348827,0.042015052414805715,0.026407429823784866,0.028223893978981146,2.017075639889968,0.15267358430198083,-2.1651185814307308,-0.09432185138077141,0.016398721682365478,-0.07606348701805268,0.14788130356054183,0.0625
0.011064573289314095,-0.007634186909492075,-0.027255723041307044,-0.03123410553527522,0.024417572958280988,0.01564066007426274,0.016708288602475953,1.1983077274799854,0.09113704042987464,-1.287252630088445,-0.056114156804586195,0.010053830298803709,-0.04538111058026619,0.08747573872048134,0.0703125
-0.012281853688432062,0.008893618771224559,0.031590990865731805,0.03570223034698882,-0.030024134904680373,-0.017575588076257084,-0.01891509450183994,-1.3355219555035434,-0.10019664085320276,1.4331354936400895,0.06228406778664976,-0.009705814142183258,0.0493354071460585,-0.09870023651473693,0.078125
-0.02229363613850424,0.0160006334126024,0.05680782704466299,0.0643122846927198,-0.05341418159297543,-0.03181606272261076,-0.03421714926967987,-2.4243907184390654,-0.18269708305291288,2.6026437574437673,0.11317917425275296,-0.01823325069714272,0.08993285641680462,-0.1784300132912884,0.0859375
-0.01999313053111652,0.014382976930264814,0.05102438676123731,0.05766867619532446,-0.048091990868282745,-0.028551698570275216,-0.030744981786992705,-2.1751801945693305,-0.16407412449928788,2.3372977653180724,0.10159645456339861,-0.016326744135829813,0.0805991459281361,-0.1599110807153999,0.09375
-0.019305944352191833,0.01388536767007211,0.049331523816423896,0.05577101693823054,-0.046476778452264896,-0.027587256666916766,-0.029711452368723787,-2.098171102399453,-0.15812076441870584,2.2562410079477977,0.09805752769182711,-0.015724029424346097,0.0778541226408881,-0.15437090800004633,0.1015625
-0.010701871647630569,0.007784382065831698,0.027628322389268486,0.031203164922592206,-0.026372891040526945,-0.01534334920731255,-0.016553962756208348,-1.164494427769259,-0.08731479882785421,1.2501666271727951,0.05434621708737022,-0.008392857717638239,0.04299852638121375,-0.08604178772638056,0.109375
0.012259200093498597,-0.008459604784904507,-0.030334589050154945,-0.034639803593514776,0.02717812578347691,0.01734703035789984,0.018529310956702662,1.3229624235074515,0.10060091568803078,-1.4264192950615127,-0.06206857883108549,0.011056226340600885,-0.0501630479354806,0.09666767444058784,0.1171875
0.026016339434474758,-0.01818545240630102,-0.06507320193408389,-0.07420999514824851,0.05924451497430391,0.036943545531442634,0.0395422105259907,2.8138988662163302,0.21297346547584448,-3.0264997651745804,-0.13177346972096363,0.02267717069188884,-0.10605597526583967,0.20642018217195054,0.125
0.017769017756700825,-0.012352519966298109,-0.04424594587858754,-0.050646820977623734,0.04001423014907511,0.025207023652989168,0.026937237629471814,1.9226393605518641,0.1455181816283752,-2.0623808208628995,-0.08996393795876073,0.01567472886642769,-0.07265968755002644,0.141057769532071,0.1328125
0.011982061509679029,-0.008266125248809568,-0.029570818095599475,-0.033980024984735686,0.026522753233841588,0.016941168022194364,0.01807371947883433,1.297668604942557,0.09845743298007406,-1.3881930782554637,-0.060649770056864165,0.010773230222433296,-0.04914262328364458,0.09497520782145687,0.140625
0.022765135170018436,-0.01589512778110205,-0.05672090409440291,-0.06477579848006185,0.051657003720586035,0.0322603849223741,0.03452582032245224,2.4653090252715413,0.18680360115066913,-2.646823135700812,-0.11530558174048612,0.01990699489748454,-0.09280801716008787,0.18055662893696625,0.1484375
0.025711521921095666,-0.017974048107834872,-0.06420541548389132,-0.07323684848707898,0.05853802622342846,0.03648095761769345,0.039064307590574714,2.782362202585708,0.21069698714685542,-2.9914994918810724,-0.13023985383670716,0.02241578187824749,-0.1047789311838762,0.20384800908874323,0.15625
0.005332875201351495,-0.003557976021195438,-0.012901080981260752,-0.01492486353885723,0.0110582974970296,0.007537589712020688,0.008008344938568423,0.5738402542994637,0.04380266713188775,-0.6168446026983524,-0.026981563888654917,0.005182932341898621,-0.022217525684497034,0.041673307899278894,0.1640625
-0.015531253834203103,0.011196220050337623,0.03972064777587083,0.04485704860597844,-0.03758395406673448,-0.022151823410508024,-0.02385796906947288,-1.6854239659542876,-0.12678836195758092,1.8149219124620775,0.07876015238822723,-0.012486928463490985,0.062382783330917964,-0.12429279380616387,0.171875
-0.017387563024036944,0.012512559958525921,0.04450805958614883,0.05025622628256977,-0.04196814221979201,-0.024862384615363546,-0.02678429747076723,-1.8864417831183498,-0.14195926732083727,2.0319829945763512,0.08825603109332804,-0.014102423612963716,0.07001764200793667,-0.13898550204045357,0.1796875
-0.013009256598953307,0.009429899886027092,0.033527366571802705,0.03776577637295739,-0.03182148855278437,-0.01867974038949119,-0.020165469586050134,-1.4148027241104872,-0.1065106506815959,1.5224428124262777,0.06619385450162289,-0.010431764057894935,0.05237658115564819,-0.10412581613170833,0.1875
-0.017488613756846367,0.01260878132457945,0.044753994320904295,0.050598943504390016,-0.04226280590434256,-0.02501926280783221,-0.02696059152885284,-1.9034587525380915,-0.14357250705120925,2.043783917470468,0.08893140557758479,-0.014201338076867466,0.07055535376313105,-0.13991121535216397,0.1953125
-0.024170237833861994,0.017329021602623722,0.06151668976999221,0.06974162565971752,-0.0577773171024691,-0.03447070484723061,-0.03706984339890584,-2.628194525925809,-0.19822382709682795,2.8198507795522785,0.1226987578498035,-0.019793640732939717,0.09760468490866918,-0.19330299353009794,0.203125
-0.021669410823024746,0.015545609246168705,0.05522744156645326,0.0625803334259222,-0.05189007007496986,-0.030911478570806176,-0.03322740245134973,-2.355190136621725,-0.17739894144966423,2.5260069669580587,0.10990441528533308,-0.01763989556737544,0.08744548959378251,-0.17344314933909916,0.2109375
-0.01018774179450517,0.0074177913722369895,0.026325853091015747,0.02964283627178851,-0.02512950409116592,-0.014602905195674531,-0.01574879557175992,-1.1085712281174511,-0.08317038314670265,1.188945922122706,0.05168455049545838,-0.007947329987643652,0.04087720422533109,-0.08184174040637653,0.21875
0.004646000339774033,-0.003070252308915446,-0.011118015100454608,-0.01293582050736504,0.009400148239305763,0.006514202910730764,0.006866614520393997,0.4998538866329441,0.038236517462036,-0.5356067756399141,-0.023449907150338095,0.004560340716669798,-0.019342808864644526,0.03645262976854749,0.2265625
0.01753028536093218,-0.012181760132269188,-0.043687811180736065,-0.049889727550514656,0.039416312894335316,0.02488502691754112,0.02657357413138251,1.895961090750645,0.14363868846384034,-2.0344318711053404,-0.08873761192261535,0.015461419903416318,-0.07168662369553412,0.13897902445094448,0.234375
0.02197660334709993,-0.015335405286469397,-0.05488199402843331,-0.06259030646895239,0.04982264233411883,0.031210365150147863,0.03340726337906519,2.378091993942903,0.18013273696121979,-2.5543643922522143,-0.11133102424151918,0.01926786782364107,-0.08974074252946337,0.1741758126696331,0.2421875
0.015087302338535662,-0.01047086120489747,-0.03740216470547855,-0.04278822747887614,0.03379936044109793,0.02136257187775916,0.02287735349451463,1.6323873013997132,0.12389765636720895,-1.7544054486843972,-0.07645145491240443,0.013464253086553732,-0.06173370968117053,0.11926484000711349,0.25
0.0044961705444611375,-0.002973419799934002,-0.010643536618120664,-0.012434639906690331,0.009084013897530184,0.006268452705944749,0.006658886908782106,0.4848428873279548,0.03716138035715536,-0.5194029091245097,-0.022707330325323134,0.004467876024772519,-0.018715666751881105,0.03509905194142532,0.2578125
0.0037050942791804647,-0.00239911950123058,-0.00870604831033862,-0.010225669341942911,0.007192090194215505,0.005165604431676091,0.005427025427418449,0.3982948469225694,0.030457301144545982,-0.42383199457253873,-0.018597777916209354,0.0037395957304503717,-0.015519597299738704,0.028961679570181344,0.265625
0.016097416562381013,-0.011160478229905683,-0.04001107774693816,-0.04577807364124134,0.03607614474019451,0.022816246401249907,0.02435724698246837,1.740507566420168,0.13179395064772909,-1.866745726099716,-0.08139635474308181,0.014208211797772529,-0.06582763282339023,0.12758310896260025,0.2734375
0.024771790757837385,-0.017305984439304752,-0.06184412569673033,-0.07058823719973244,0.05632132162684114,0.03513246817857464,0.03761125518339876,2.680292960139182,0.2029383214240067,-2.879715243928748,-0.1254363315714792,0.021586749175447242,-0.10100067919428585,0.1964451848342165,0.28125
0.009040561323886016,-0.006184087164635879,-0.022099952034562935,-0.025412002882820358,0.019649144772178512,0.012718805944077,0.013593125637294397,0.9747721996332348,0.07425609987401958,-1.048934743142572,-0.04574180819035203,0.008320602000075486,-0.03712380398203299,0.0710554828268869,0.2890625
-0.023937742800141486,0.01715386379429605,0.061048775801904646,0.06912202612274192,-0.05724899274354086,-0.034184891754600356,-0.03675473289860206,-2.600529983882182,-0.19588037228134034,2.7932412383389265,0.12146351839130112,-0.01958658520803308,0.09668313651295063,-0.19146339623785946,0.296875
-0.03999129017479016,0.028523777877695607,0.10143361349606683,0.115045140523253,-0.09467291037356429,-0.0569777491096179,-0.06126541074217089,-4.340956759011007,-0.32753217175797944,4.663910140965487,0.20290048130680136,-0.03321531506815882,0.1617668377872376,-0.31910195933848706,0.3046875
-0.022403875804368104,0.016080590962939574,0.057019509929896635,0.06453949688839451,-0.05364219848020704,-0.03193666574568814,-0.03442482591111698,-2.4336313336913404,-0.18351658063461576,2.614164891040552,0.11373041185085704,-0.018358248237441345,0.09037310021197936,-0.17888949053776915,0.3125
0.0033989690362065724,-0.0021918328045383907,-0.008021629359011599,-0.0094242787332528,0.00655416726054542,0.0047545901634267465,0.004971931294444051,0.3653093305671019,0.028035546529813993,-0.39342801641577063,-0.017181417064767352,0.0035143939931241417,-0.01430658950094965,0.026640676629037505,0.3203125
0.008015427492284163,-0.005473458544685782,-0.019618608340445983,-0.022581458550507964,0.0173429386182317,0.01130689882579981,0.01205037088463921,0.8669698501641915,0.06608781131931975,-0.9321966518233487,-0.04067735009135852,0.007479447083930471,-0.033018566327776236,0.06330446874745856,0.328125
-0.0003528682263960339,0.0004536268883316663,0.0014835732512006542,0.0014691421270698187,-0.0021936607515419234,-0.000594292331182806,-0.0007035549466221094,-0.0414953387277852,-0.002534822647349139,0.044149156396721546,0.00180358733694405,0.0003946778377220897,0.0009311377199771732,-0.003555408367433365,0.3359375
0.0017006728425915572,-0.0009778221076237289,-0.003698768969780453,-0.004430903258253425,0.0025209876732068853,0.002328000534985809,0.002413464912927212,0.17858824331612072,0.013885553422027507,-0.19098195177087737,-0.008436238017970958,0.002067357326409894,-0.007412919005190265,0.012695714774635252,0.34375
0.009648446524601976,-0.006594030952236069,-0.023698677066660418,-0.02726058542298454,0.021010914718738078,0.013622203221340655,0.014518694636306208,1.040358133148518,0.07875825523202486,-1.1138333355550174,-0.04865294038517525,0.008756110852266174,-0.03966652078600071,0.07617622418589616,0.3515625
0.003928734600655236,-0.0025640240423623548,-0.009223843939686997,-0.010837539866747778,0.007711776160702924,0.005474040823143384,0.005788579942280559,0.4233459190075487,0.03217669239027017,-0.4493793436730471,-0.01975519712410923,0.0039525758815032895,-0.016449471160211296,0.030822120493731828,0.359375
-0.008423243329846623,0.006162543068714538,0.021923296464863833,0.024676904975569194,-0.021050416656743978,-0.012101210298006378,-0.01304941773188691,-0.915211054158119,-0.0686633445350448,0.9853775905013223,0.0427753361691909,-0.0064528075099115345,0.03370710015869277,-0.06775062107860229,0.3671875
-0.0035020084177165016,0.002693496406906162,0.00946167455231038,0.010604738915637933,-0.009611319333211894,-0.005098002367559087,-0.005533429834012056,-0.38607677501148746,-0.028497626589986905,0.4116962609782778,0.017889641560987997,-0.0022957113140665538,0.01377680153218014,-0.028980295170420695,0.375
0.014178136604637565,-0.009797776360994012,-0.035175185038570055,-0.04020166288168337,0.03156730163378658,0.02006660144160056,0.021446057632285784,1.527457105050229,0.11597931874810682,-1.6445227009472647,-0.07166051280194526,0.012628855169390397,-0.05798708319320722,0.11178954912889137,0.3828125
0.01607055145939192,-0.011142145413521203,-0.03996041162931385,-0.045763626554958525,0.03601692595723664,0.022778034331646733,0.02432647866392322,1.7358698723451598,0.13159928551699274,-1.8640470259394992,-0.08131827536162825,0.014220944655726864,-0.06573578278277607,0.12728544772051942,0.390625
-0.0012573389439672557,0.0010994016550327148,0.0037643529353365334,0.00393224682840959,-0.004306983784351348,-0.0018679591122013068,-0.0021287786651755093,-0.13777460907191866,-0.009887396999960859,0.1506797046815926,0.006404971285227417,-0.00042101215147368897,0.0045632654229458836,-0.010446965496158547,0.3984375
-0.010750073175405538,0.00781286713887106,0.02773180466040134,0.03125413639840012,-0.02641799327093518,-0.015382491585289404,-0.016610939759416608,-1.1674738234006004,-0.08758578650106696,1.2529854110041987,0.05451437300160529,-0.008434019280033882,0.04314197293859369,-0.08626201673957097,0.40625
-0.0027805416031951692,0.0021855022988243526,0.007622787146068036,0.008417649957748342,-0.00786470537486758,-0.004042935640969891,-0.004416795130286112,-0.30718430276723,-0.022692933120087945,0.3256418483451511,0.014175825736196426,-0.0016849082176740042,0.010813028192342073,-0.023047799421897646,0.4140625
0.0008877317839424471,-0.00040750125651396794,-0.00165405369249314,-0.002179610316876449,0.0006724107813800367,0.0011886222050624055,0.0012019390010418428,0.09078047124019509,0.007196445196146602,-0.09819198395200819,-0.004399994498052432,0.0014114630099606956,-0.004160205036362772,0.006303230324389223,0.421875
-0.009461692641674579,0.00690617016766204,0.024469420750899827,0.027469691429728573,-0.023463767148421067,-0.013547690286987192,-0.014629139669530762,-1.0274471112787555,-0.07729183436289506,1.109381526847444,0.04805432051424225,-0.007368186947611039,0.03778404179673072,-0.0758106460974796,0.4296875
-0.012899604830031322,0.009337276358248423,0.03319826432746277,0.03738671690436172,-0.03151048673622525,-0.01847773522125023,-0.01994263331840278,-1.3993701251574884,-0.10527449400387665,1.5096068838579753,0.06551477537176321,-0.010304131096884817,0.05181826116435345,-0.10311706754110617,0.4375
0.002927868138271333,-0.0018507557511635892,-0.0067173327752493295,-0.00795357012325165,0.005362740151700925,0.004026851633612565,0.004193698319846979,0.3131471518941555,0.02412046408970664,-0.33525216822165793,-0.01466879996287439,0.0030822213473077884,-0.012294072897823487,0.02277675283413673,0.4453125
0.018595943177226685,-0.012930567965233753,-0.046306919841380356,-0.052876145726160534,0.04191287898897532,0.02635029345329524,0.028156764092066487,2.009240088853376,0.15217777875474284,-2.1618070214338063,-0.09409721835424581,0.016365765882629113,-0.0758622961363486,0.14738758693730186,0.453125
0.015365457910153835,-0.010651033284961994,-0.03820100595188857,-0.043572838781515265,0.034421934445549494,0.021777406819610472,0.023278520317004035,1.6595681395237976,0.1257970005760026,-1.7868358057555864,-0.07776443722173518,0.013668028878422287,-0.06279525304867647,0.12151353820234036,0.4609375
0.0026360509426699586,-0.0016506098194621827,-0.0060381726837187965,-0.007006785336453677,0.004738810516277131,0.0036388367340853276,0.0038370702947296254,0.28046026478888725,0.02179075582704832,-0.3039203811996169,-0.013249220670402323,0.002905124706032543,-0.011127560348030873,0.020019961423461685,0.46875
-0.0027586896396494436,0.0021699119320834795,0.007636515404167965,0.008441331631911115,-0.007888342880566838,-0.004072379262908391,-0.004450026219015159,-0.3044946977773579,-0.022334205195704865,0.32701017794397824,0.014134459629108854,-0.0016910394579976087,0.010787180766371928,-0.022869302159938078,0.4765625
-0.0017735449668247073,0.0014782040146746594,0.005120548060139951,0.005487376622021139,-0.005611792895700355,-0.002648811477644631,-0.002952437220597988,-0.19708084395491543,-0.014427913752873117,0.21518592742142112,0.00916622614882752,-0.0008911304604152061,0.006712119892191289,-0.014736992129585473,0.484375
-0.004427397082119047,0.003351764368086539,0.011720499022957208,0.012984456788374595,-0.011745796379316529,-0.006357811368504267,-0.006931174855677924,-0.4831285678211546,-0.03628389171139452,0.5240489649943815,0.022568258143678587,-0.00312221712391786,0.017343363885795555,-0.03568321829287058,0.4921875
-0.012048822918849369,0.008733830982482106,0.03091402713042624,0.03484307874668553,-0.029439242786461622,-0.017168025431037882,-0.018491387820205516,-1.3086770279206246,-0.09862038136484495,1.4083976357533525,0.0611027909637623,-0.009516872528812012,0.048224729799748886,-0.09650367046512974,0.5
-0.01672046549607606,0.012035421070430926,0.042762335012400815,0.04831528265076249,-0.04032066099389889,-0.023851075461252366,-0.025636143946854238,-1.8159434869769047,-0.1367216973751571,1.950792071427001,0.0847501576893098,-0.013445463012105016,0.0672648345211003,-0.13390332078239706,0.5078125
-0.011251527159759722,0.00817383398337226,0.029028522594129587,0.03267737119815245,-0.02763721106570212,-0.016121653188855233,-0.017368502253694146,-1.2238801142324716,-0.09192284553549157,1.3162690802085617,0.05711468627492991,-0.008860113220700084,0.04516591319836069,-0.09030905218293661,0.515625
0.0018014692840590293,-0.0010500708050067745,-0.003913835043540152,-0.004761564952300985,0.0027286493103949724,0.002447078189390295,0.0025056533524880453,0.19066493868526085,0.014817028510141814,-0.20157582732883078,-0.008941349047376151,0.002128309322766902,-0.007780310253999672,0.013774451802932814,0.5234375
0.010236093367882454,-0.007013335532447092,-0.025226683086873185,-0.028944113158289923,0.022392262918930154,0.01447459152738512,0.015396885430052805,1.1038391369634437,0.08377598880663303,-1.1860322592661778,-0.05168596215555445,0.009262960049134577,-0.04200765177392487,0.08082852745204792,0.53125
0.006376304170772545,-0.004288143483677695,-0.015456817019718929,-0.017817359281535442,0.013435501268365034,0.00897599192117797,0.009534424669143084,0.6842833845875854,0.052256674449397925,-0.7406104510032426,-0.032195418406327385,0.0060430426252607704,-0.026311454280080793,0.04979322535388242,0.5390625
-0.0006158790003686503,0.0006482755880460047,0.0022457775419020857,0.002290627229325366,-0.002835930098652018,-0.001007504898648904,-0.0011387699730594956,-0.07255174434919742,-0.004785218503760717,0.07273633913163403,0.0031873284489288404,0.00016223122047915591,0.002082628013595014,-0.005955915314636822,0.546875
0.003276032838969785,-0.0021116597945031157,-0.007594699894997027,-0.008891964950362204,0.006240875435549238,0.004534208479294686,0.004792195491425549,0.3524103359405026,0.027222313384571904,-0.37850043706957576,-0.016542725313450586,0.0034448895765336563,-0.013762110270841984,0.025322283095629193,0.5546875
0.016280314618159843,-0.011307868116456109,-0.04049768312906442,-0.046261350190966444,0.03654293804329218,0.023082506164282337,0.024639301001420175,1.7636168241162444,0.1336448220798587,-1.891232568654864,-0.0824203539723755,0.014404497263101846,-0.06660194117967394,0.1291657942089856,0.5625
0.02289530411229748,-0.015977336317979422,-0.057207300361897084,-0.06525999952869757,0.051933037439571984,0.032500407049700836,0.0347214995084248,2.4788697434109173,0.18762896201556492,-2.6607627555253677,-0.11589406355302972,0.019965316033108547,-0.09343169472941283,0.18181550521386636,0.5703125
0.012527383291473751,-0.00863767228033084,-0.030956893850123044,-0.035478726052648187,0.027740163927324375,0.017693116699332583,0.018873130257272164,1.3523024786448914,0.10264120830703019,-1.452752689421845,-0.06331349202265468,0.011202243718021974,-0.05127657651022825,0.09902063759290122,0.578125
-0.010399751848348291,0.0075781242251983525,0.026937542901854877,0.03030146245583064,-0.025684080880534248,-0.014957140738375929,-0.01611174441454892,-1.1337138278363337,-0.08503627308124985,1.216840816229357,0.052861589429344644,-0.008147615339982308,0.04179620492223752,-0.08369371474474872,0.5859375
-0.029124728422403087,0.020823730724876324,0.07408945433790748,0.08393721343858027,-0.06928771708702436,-0.04154912759705373,-0.04464663504032834,-3.1628812131894404,-0.23836882310069754,3.39677508852211,0.14772669624596435,-0.023961028859551835,0.11772177867392046,-0.23273516170802808,0.59375
-0.026794804739365755,0.019182370341058654,0.06810819878833675,0.07715759103721884,-0.06385079357291769,-0.03817541796284291,-0.04106420313013909,-2.909944849594048,-0.21949082310387452,3.126960553497924,0.13593586598022675,-0.022016808395108993,0.10819029123112128,-0.21396931845172637,0.6015625
-0.004820271251042635,0.0036370970457207654,0.012693255850833113,0.014116562664891374,-0.012656170617259531,-0.006914984619601761,-0.007541352839135851,-0.5267742996894469,-0.0396736652780599,0.5702118143751751,0.024583170568625735,-0.0034616652366951293,0.018998459647070642,-0.03873906080298304,0.609375
0.01510829840879687,-0.010478469016710113,-0.03749698332585026,-0.042959760849038305,0.0338055079725889,0.021404834594947488,0.022862319937294904,1.6362535297348892,0.12376087196941551,-1.7521806308323478,-0.07649132004037898,0.013417175768634116,-0.06185304475370904,0.12005821288897922,0.6171875
0.016632790903993964,-0.01157375917616202,-0.04132537657385365,-0.04723534338973057,0.03740154938665916,0.023567600782592003,0.025212954749494688,1.8028644717051856,0.13659673250221438,-1.9343088871508372,-0.08431025995577184,0.014756523983802597,-0.06802626197468059,0.13198688509758302,0.625
0.006734888743859903,-0.004562897955911408,-0.016390121776045246,-0.018820350622474523,0.014319923042977632,0.009492503609848608,0.01012786831502931,0.7268319090392791,0.05550419429371622,-0.7823786640603244,-0.0341035747376926,0.006385592023139566,-0.02785462138318448,0.05274771545567814,0.6328125
-0.0007880194835312463,0.0007837654507993062,0.002593045220581434,0.002697384020296267,-0.0032906030878891474,-0.001221947781239703,-0.001376089796654631,-0.09300101015630312,-0.006447350420578859,0.09828096394930441,0.00416717881514346,-2.973718787898125e-05,0.002677117379755252,-0.0073774897685008126,0.640625
-0.004513484573324811,0.0034267194131330416,0.012032703328624678,0.013315305160383607,-0.012014943074055038,-0.006534274028979042,-0.007101900457873287,-0.4967291393335606,-0.03703723054112222,0.5348279200355941,0.02309849711137724,-0.0032128596331918407,0.01779403016851549,-0.03685681967016621,0.6484375
-0.007592031442610777,0.005589305002390639,0.01980976129494113,0.02216613632497257,-0.019149662665768542,-0.010904710944803045,-0.01181008290994204,-0.8269486292776571,-0.06195476858219659,0.8898540158585407,0.03861472515271212,-0.005792687098972597,0.030306621995543657,-0.06112822488010946,0.65625
-0.0075942343894793325,0.005582693791095279,0.019786630893675584,0.022265706355520914,-0.01910966920132533,-0.010895830872814987,-0.01179486817401193,-0.8268179707915917,-0.06184363539290792,0.8857193375170038,0.038568277936417344,-0.005761750340842105,0.030374755464175292,-0.06125401991426004,0.6640625
-0.004679395173701225,0.0035340439712365696,0.012407111107191206,0.01394266034305207,-0.012324948501899073,-0.006753902820416595,-0.007334797273566697,-0.5145379072018472,-0.03826229706431127,0.5468718117514779,0.023848459469123204,-0.003300313400280326,0.0185881653728283,-0.03831500020308483,0.671875
-0.004725780208949639,0.00357721320673781,0.012519856988026011,0.013997080390905461,-0.012445044781740702,-0.006830401866053479,-0.007415089511710831,-0.5207022289687876,-0.03886143766870942,0.5556927406602173,0.024121825745726907,-0.0033607957925501884,0.018734392279857157,-0.03861084778485954,0.6796875
-0.006403936247127737,0.004751325746904537,0.016762544271563314,0.018715587680981815,-0.01632495730150717,-0.009220984195410939,-0.009996088330795705,-0.6980962753718304,-0.05233874709561092,0.7521164780982353,0.03255946700225676,-0.004785179193256408,0.025463670220398093,-0.05153331890590739,0.6875
0.0006289929215194866,-0.00024171776932081792,-0.0009703775155044224,-0.001460809234045126,9.193870725347646e-05,0.0007878077305416384,0.000720738428994952,0.06867752694234162,0.005641298164628234,-0.0683447406083214,-0.0031543464272992244,0.0011660354170473894,-0.003092947723887175,0.0047752336402233355,0.6953125
0.018702249761502386,-0.013025089544434723,-0.0465727667852163,-0.053238877043938114,0.04219034610938131,0.026512608875908634,0.02830874087916037,2.026777054417701,0.15359822610419535,-2.1736238952175437,-0.09472073341916101,0.01644782393913162,-0.076386881771891,0.14858308721794283,0.703125
0.03334525921101162,-0.023371916931477357,-0.08353895561805312,-0.0951846853484987,0.0762929392912758,0.04736405936392953,0.05069496137342077,3.6104421791998322,0.27315631624580294,-3.8783881143254186,-0.16887248169508903,0.02884105066266756,-0.13578151785866857,0.26489729092211395,0.7109375
0.026353030993410492,-0.018425343103386605,-0.06589927210866511,-0.07508850648677302,0.06001000448727708,0.03741556792265286,0.040063404672109615,2.8512271168983134,0.21575665755044354,-3.0645644943544865,-0.1334369014099252,0.022958439551953994,-0.10741830477422445,0.20902884073616051,0.71875
-0.003069323676477992,0.002383106632724749,0.008384147471480453,0.009323970049070826,-0.008566528647980838,-0.004481126925360986,-0.00485396890919365,-0.3376195956113637,-0.025056877236586703,0.3615496518761377,0.015673765864003115,-0.0019146628255417503,0.011982507197567894,-0.02532266602131776,0.7265625
-0.03158578095917836,0.022563148945589674,0.08038904595240148,0.09106367692320423,-0.07508553871516928,-0.04509181503609065,-0.04843519258649228,-3.4292606517729163,-0.2585785552528094,3.6849746006600252,0.16026451106816403,-0.02607420486889632,0.1277167372084768,-0.25233150846140556,0.734375
-0.033306479475414534,0.023792505322768467,0.08471400996650404,0.09588082514500793,-0.07912727223492162,-0.04753087819995905,-0.05108703421823204,-3.616391499846263,-0.27287411918192417,3.888642789637836,0.1690384896995422,-0.027576296160538975,0.13466176739421426,-0.26583159150492996,0.7421875
-0.011214906078338697,0.008161382941792642,0.028888670078987187,0.0324579238127708,-0.02757866275614393,-0.016045625178561555,-0.01731940370199608,-1.2206015270755166,-0.09200476329823551,1.3149990678389347,0.05700493466870976,-0.008876032557484434,0.04494221917303153,-0.08979464251165029,0.75
0.006723988453327116,-0.004544439240350903,-0.016434115097329456,-0.01892497025866484,0.014308582513753637,0.009517672469517227,0.010124336387614903,0.7252997704825905,0.05518817000345827,-0.7788143318753256,-0.03404377792997326,0.0063582582915668855,-0.027870343079891353,0.05288136514668088,0.7578125
0.008108298646936614,-0.005531591903953134,-0.019903701152845968,-0.022802672490183726,0.017533214959248828,0.011473753229012937,0.01223439075641118,0.8752278791773709,0.06682941680982107,-0.9423440496964782,-0.04110663066122214,0.007557469595496691,-0.03343338900528659,0.06366967893049948,0.765625
0.008264513897834821,-0.005636413414517335,-0.020246124355189143,-0.023259367658598526,0.01784961704877879,0.011657555188081549,0.012413721669747985,0.8918109007423717,0.06810966272780336,-0.9580328600780261,-0.041836872100070914,0.007653760800842691,-0.03402062857399876,0.06500944855338284,0.7734375
0.01294395441651987,-0.00893719419373049,-0.03205206914317625,-0.03675058458316308,0.028743052796325108,0.018306583486985984,0.019517209054474516,1.3995314095072153,0.10618481947067951,-1.5002986366570372,-0.06547002786152342,0.011560909341645506,-0.05301453702922314,0.10257367481055232,0.78125
0.0044838731692955795,-0.002946297626584241,-0.010739424473350738,-0.012497353573913407,0.009041690283726504,0.006295509440779942,0.006624151782221368,0.48220473506668565,0.036682476676775495,-0.5161455365456007,-0.022553792451804593,0.0043960298276159325,-0.018700616918423688,0.03521754641635107,0.7890625
-0.01752197252557706,0.012620469258743763,0.04479221654612002,0.05067652761805691,-0.04224091754972559,-0.024998406282285973,-0.026919403527014704,-1.9047151579634656,-0.14353924457839812,2.0435400767220986,0.08895149643012833,-0.014179607378145508,0.07060808664142638,-0.14034394138075734,0.796875
-0.021855161514901477,0.015677211865242974,0.05577786411368589,0.06314894294415044,-0.05233575498145683,-0.031180695902180405,-0.03351561320769156,-2.3748874746146056,-0.17885161252220366,2.5465631470967094,0.1108430466150007,-0.01780090238798148,0.0882154989731055,-0.1750376283252136,0.8046875
0.0027257138284392793,-0.001719615022926613,-0.006221618606222064,-0.007358491894370082,0.004956542632274496,0.003770731665995975,0.003976909561686461,0.29098183928539406,0.02258406696117939,-0.3151512509946432,-0.013767584572810899,0.00299126187248143,-0.011522084678346898,0.020884942551818067,0.8125
0.02232674631313439,-0.015580402438743415,-0.05571179790328645,-0.06359531452050643,0.05060003132242482,0.03165625942264157,0.03384944213600831,2.4163057038186535,0.18301839920223473,-2.595006434437301,-0.11302864206845882,0.0195182164726958,-0.09106977351796418,0.17719827583629255,0.8203125
0.011697833543164745,-0.008049424275319354,-0.028910695801612773,-0.0331057933037299,0.025763524434510337,0.016532681507646585,0.0176014976046895,1.2628904870702051,0.09581332422691823,-1.3545169325661022,-0.05905605253432817,0.010478976044115148,-0.047949753958651434,0.09251568409670594,0.828125
-0.0076382871465503765,0.005628288464788833,0.019925835386304207,0.02237469875520793,-0.019304576623459708,-0.010997615721684506,-0.011899403801964128,-0.8339664353929919,-0.062483166373423174,0.8969790219760763,0.038915367434539584,-0.00585707948451086,0.030518123580517066,-0.061659405704915994,0.8359375
-0.00910922560170568,0.006656342550153969,0.02368637254908488,0.026605014824240818,-0.02266253935136893,-0.013107502622269371,-0.014115987466452647,-0.9925554758063619,-0.07432170682334778,1.065540525661971,0.04624703383976049,-0.0070365700396056614,0.03650301509405758,-0.07344734591302494,0.84375
-0.00012570637791701217,0.00029925221933734317,0.0009842796193501157,0.0008143333597275564,-0.0016766229546989907,-0.0003086434799825792,-0.0003885928288010495,-0.017794627759212554,-0.000755658091710656,0.018776802639156934,0.0006851406560374347,0.0005831825277116461,4.9208414570391024e-05,-0.0017791476439000225,0.8515625
0.004927363258904909,-0.0032636898201443224,-0.011851528673243234,-0.013731693773264293,0.010083023264872381,0.006924049215641462,0.007323319575691663,0.530302987213133,0.04037702751791111,-0.5667630387074853,-0.02483657831737402,0.004810539651308744,-0.020485545865885097,0.0386974128387995,0.859375
0.010413970018535832,-0.007143165812696197,-0.025722730000405248,-0.029500704418609403,0.02285444706823129,0.014755489993657559,0.01569555289874331,1.1263053217020274,0.08522238680050083,-1.2041605579768626,-0.05261183446541805,0.009414353975339552,-0.04278425008618349,0.08259728629235337,0.8671875
0.016234026585579348,-0.011276366449643695,-0.04035801807040352,-0.04616933126361751,0.03644864010101398,0.023020870206138615,0.02458433525769695,1.7590276297067684,0.13311273828686002,-1.8847843081936946,-0.08220021876792377,0.014365925731951005,-0.0664091340051312,0.12897307300896269,0.875
0.007637509910047122,-0.005203401395540546,-0.018640260645390754,-0.021466769660500668,0.016435916605550265,0.010764878540569614,0.011476711944152774,0.826367333014783,0.06285127213784907,-0.8868123554686089,-0.03868684228580903,0.007140125349652131,-0.031511117609344226,0.06027970106853252,0.8828125
-0.013917964887746723,0.010062171431161091,0.03569728088257592,0.040349785924119974,-0.033831810708007976,-0.019899288541883588,-0.021409270965530653,-1.5143272546542952,-0.11390501789599121,1.624414258629066,0.07064346648215405,-0.0110987965586813,0.05596387600619381,-0.11171704873663162,0.890625
-0.024363148248978946,0.017471397366928876,0.062004380932020924,0.07022896212225484,-0.05821889021141102,-0.03473894805868441,-0.03735385262888079,-2.649433941332145,-0.19969367414242642,2.8438777661724255,0.12367551337852223,-0.019977658818544693,0.0983279367199367,-0.1950072238551179,0.8984375
-0.01348951247541345,0.009773681087038319,0.03460535239167232,0.0389836175218952,-0.03288416886248722,-0.0192715289220657,-0.02078302488809682,-1.4687647727915798,-0.11048510850303765,1.578159386474777,0.06853459722712499,-0.010798879350073936,0.054177623189468484,-0.10820353423108155,0.90625
0.002164981528225071,-0.0013230334349702492,-0.004823387833456215,-0.005851397522402156,0.003614076583316548,0.0029753901325399994,0.0030880733632565162,0.23182605103170234,0.01808631807575508,-0.24739982452187914,-0.010894990746101764,0.002466821432572045,-0.009330824656772586,0.016649295285136166,0.9140625
0.007285732678067104,-0.004952453195410858,-0.01773482065958821,-0.020401882668975205,0.015551170545629907,0.010253625775581159,0.01091346886377351,0.7867896408398349,0.060072071217709536,-0.8460743753696665,-0.03686208228484751,0.006827387342245049,-0.030043714065447907,0.057288696443203495,0.921875
0.002359020048821468,-0.0014504848527641307,-0.005341844866460328,-0.006237004115043167,0.004067802769233893,0.0032588822508420796,0.003415519812642371,0.24931028008605402,0.019395873329524443,-0.2717068514120077,-0.01183698576489724,0.0026595712385565134,-0.010002145505145455,0.01781416210269604,0.9296875
-0.00718376469498108,0.00531543109050625,0.018727418844661788,0.02101107498138224,-0.01815983313702999,-0.010317162787881284,-0.011157614071203695,-0.786396384938969,-0.05897748232315156,0.8424386598158531,0.036553128014266835,-0.0054351724558271055,0.02869284409295042,-0.058100863273916344,0.9375
-0.013430471995988999,0.009728232657815796,0.03451230566239687,0.03881927935522574,-0.032702870320632814,-0.019219291279232182,-0.020725261254066447,-1.4606140294600873,-0.10994117586868866,1.5712135378040626,0.06817414592250585,-0.01073277492861882,0.053986912110745744,-0.10750283287711784,0.9453125
-0.0049211787867061854,0.0036922281660267155,0.013046703090014579,0.014477865362428635,-0.012870775077330148,-0.007107985425684546,-0.007752784974733488,-0.5350924293066758,-0.03993433874561513,0.5779308215232017,0.025002521549534057,-0.0035255848563661998,0.01947746205082458,-0.03957024032320389,0.953125
0.018118798598038627,-0.012611413901257659,-0.04510352142100511,-0.051438883351291244,0.04081425050994317,0.02569702501271822,0.027433804838832627,1.9619743315311917,0.148754714467885,-2.108239087880371,-0.09176091038895819,0.015979458379913106,-0.0739337071457499,0.1437220442699006,0.9609375
0.03569389585627666,-0.02503631637577493,-0.08945221044616998,-0.1017571521290275,0.08176043694089966,0.050710223112193926,0.054292568071596214,3.864390459676721,0.2924110119858174,-4.1546853833264095,-0.18078151180437985,0.030852048077806414,-0.14522140335413677,0.2833798109919604,0.96875
0.028388922825988136,-0.019863628589485496,-0.07100589887545039,-0.08084463447048144,0.06472047943941371,0.040295463911025925,0.043159792682605544,3.0712173934744165,0.2324538443467747,-3.3010260730502377,-0.14371453565784828,0.0246721494744778,-0.11564451543453201,0.2250735357740358,0.9765625
0.00027641677131907174,2.039016972517449e-05,-5.2191344207931e-05,-0.0003206296076331233,-0.0008123471308292896,0.00026679195427461544,0.00023320245790191477,0.025011926257070792,0.0023806174138461867,-0.024679192963238304,-0.0012280127304451565,0.0008833362735612959,-0.0016499205063990124,0.00132357147545694,0.984375
-0.024796522848906995,0.017757172767144367,0.06323027438861908,0.07147518326486794,-0.05925220956383595,-0.03542715166485165,-0.038079170801171264,-2.6912302549712046,-0.202842029280291,2.896715339630137,0.12584894388293513,-0.020354754796645124,0.10006148429480899,-0.19805605866127146,0.9921875
-0.026750730967780953,0.019147004563197848,0.06815246348642576,0.07699987764416173,-0.0637907827639023,-0.03820147003384332,-0.04108031372953747,-2.9028323170222796,-0.2190123107615185,3.125234915741274,0.13576538187786702,-0.02203903305941193,0.10798781619327462,-0.21339963974168497,1.0
-0.010465868666783363,0.007629662928875297,0.02701226258909199,0.030302019174864595,-0.02579671439999335,-0.014993165237418237,-0.016180839418370497,-1.1383826502802192,-0.08583125243261491,1.227272143980654,0.0532000959126765,-0.008249413394868085,0.041897786307527274,-0.08378134794711418,1.0078125
-0.0003539809886024601,0.0004675068333200968,0.0014554234629228792,0.0013934253606330091,-0.002192607258161129,-0.0005696151200120827,-0.0006858048410862001,-0.042849715467134786,-0.0028945228596444113,0.04548135806966841,0.0018653569976118144,0.0003635758451250721,0.0008779394196586437,-0.0035470025829860397,1.015625
-0.005236809113546906,0.00391314308299178,0.013793191575778317,0.015487777145938375,-0.013581632163890361,-0.007524049644061559,-0.008137571141459576,-0.5722916329523993,-0.042596119528969044,0.6115483966703984,0.02656377203495576,-0.0037307498052772605,0.020744654315330645,-0.04264245978939254,1.0234375
-0.0042575740321583455,0.0032234872544034034,0.01136097978574253,0.012680288387934679,-0.01134492755399527,-0.006160652450349514,-0.006696477814587389,-0.4661772373237816,-0.0345219394729078,0.49941637590323157,0.021647279488802015,-0.0029297362284729667,0.016814314723689827,-0.03475368547421449,1.03125
0.012332875356702659,-0.008504927146602571,-0.03051073972195688,-0.03498382712618809,0.027306181150441023,0.017447980288318288,0.018596396092440348,1.3325545279174136,0.10111651610355261,-1.4299633283218658,-0.06237465168775514,0.011059459193799368,-0.05052347466723701,0.09766012472819981,1.0390625
0.017271806999376336,-0.01199698529789928,-0.04301663736640429,-0.04921733060087808,0.03885559531599778,0.024509940460015294,0.02615885934609863,1.8684244869943096,0.1413710239787742,-2.0062943683720214,-0.0874163953905617,0.015234260006319729,-0.07060189055597531,0.13716033117090948,1.046875
-0.004407286249404851,0.0033354135793842023,0.01167594728618578,0.012991251543107435,-0.011639116513778976,-0.006325208710828778,-0.006902198165369493,-0.48210612324861785,-0.03609392063607371,0.5147044884851358,0.02240414330751422,-0.0030691379223895666,0.017383361576558173,-0.03566293934619751,1.0546875
-0.016817088319291976,0.012110024801225099,0.043024662473211926,0.048684075347042326,-0.04058084031550168,-0.024012981383329853,-0.025849866269957167,-1.8286187530598323,-0.13748632856110524,1.958508838246697,0.0852689444099972,-0.013536892759275703,0.06779421299122933,-0.1348174553529389,1.0625
0.007785036641530137,-0.00529645805301662,-0.019023635564305242,-0.02182729782445181,0.016725271352552695,0.010962592376649934,0.011676753030264782,0.8383453644631103,0.06411452151761694,-0.9039325675547003,-0.039407995010544546,0.007266434342343809,-0.032025646236351374,0.061063798946366675,1.0703125
0.03169784297141246,-0.022209538019905245,-0.07936939611846675,-0.09045736152524092,0.07244517554169487,0.04499081889977088,0.048160901757780976,3.4322002382231434,0.25981958316264747,-3.684668388422405,-0.16054451718335094,0.027448389415372094,-0.12910903229829962,0.25177731498898215,1.078125
0.011749055594556865,-0.008087504133179428,-0.029049337085011267,-0.033285619784570036,0.025937072936407613,0.016623810467523262,0.01771315183790686,1.2701881791736938,0.09623874537712952,-1.3596035694190516,-0.05935445133199986,0.010528302069727649,-0.04819714045375392,0.09302560173630592,1.0859375
-0.02498740814630306,0.017906576005526503,0.06367150740901567,0.07212283645467057,-0.059710155509197546,-0.035654448045231046,-0.03835043040965776,-2.7140171282287335,-0.20463331588693098,2.9173865308334617,0.1268690560545259,-0.02054152146227471,0.10089772623522145,-0.19983887346563464,1.09375
-0.027617985002031796,0.019761537563122496,0.07037305963608276,0.07973541464149617,-0.06584789564753817,-0.03942993067847965,-0.04236006800594958,-3.000594557280743,-0.2260159683456651,3.221980768414872,0.1401544273459531,-0.022718815903045832,0.1116149532272781,-0.22108099826974764,1.1015625
-0.003661514871314572,0.0028066499555310853,0.009952457956263863,0.011007945801895794,-0.0099909695364229,-0.005356984436700039,-0.005796846266288771,-0.40243137169824483,-0.029784599452958558,0.43260818906245185,0.018699336926360534,-0.002433615208193935,0.0144015603696548,-0.030125451601363325,1.109375
0.006827511702282561,-0.004610715020779977,-0.016565849085259696,-0.019159518245549567,0.014470317662111832,0.009596350019484886,0.01020900941291081,0.7365589791491017,0.05593174682954998,-0.7868729291839465,-0.03442453883984965,0.006404168367930844,-0.02820208459154766,0.05381651836528585,1.1171875
0.0016325104196039482,-0.0009313973313052893,-0.0035103819840851544,-0.004296269278049372,0.002358147709893594,0.0022322247421356083,0.00227778186928843,0.17383346767140748,0.013280699953728619,-0.18151187907824873,-0.008068524328075335,0.001981300630298486,-0.007142131353494108,0.012592569030317186,1.125
0.0028383102199290165,-0.0017928430667690587,-0.006526660510532446,-0.007711490019814146,0.0051817302229619205,0.003929815510944579,0.0041166372260486184,0.3042130574547105,0.023349130363124287,-0.3245296457232844,-0.014255791193587053,0.0030342081804763956,-0.012009918228506732,0.022042024211228164,1.1328125
0.008032677495821858,-0.00548065471149335,-0.019606716174083536,-0.022583304351962704,0.017338509130885006,0.011301158101086367,0.012057765021777833,0.8674149296223744,0.06614182356239809,-0.9331432802347287,-0.040699161634913425,0.007487356624329163,-0.033066687997921416,0.0632708836089759,1.140625
0.005102122337216943,-0.003407147056586091,-0.01229799363373819,-0.014252738810366324,0.010560444248161915,0.007176715548649524,0.007623604655397013,0.5496914980606001,0.04212184682743608,-0.5937766346281713,-0.025891206571263495,0.005025608964136463,-0.02121488826536276,0.03996213812815312,1.1484375
0.0037263432250520157,-0.0024222788605134317,-0.008941553953006928,-0.010419083323258535,0.007361931531364808,0.005285251564919837,0.0055523568160604385,0.40024460733009554,0.030647700823697867,-0.4321522538942184,-0.0188816229682108,0.0038261922945057062,-0.015704962242345553,0.029134862021199893,1.15625
0.011772785148573932,-0.008110316527617924,-0.02921765450222812,-0.03350297832035124,0.026075253308869565,0.016719624816062952,0.017805017762986288,1.2731505313888876,0.09647522641552458,-1.3659157364659429,-0.05960208475835598,0.01058871872702096,-0.04837447197434788,0.09334017537941457,1.1640625
0.012050301153599435,-0.0083128273753425,-0.029782695844369513,-0.034170300460345554,0.026668509919657985,0.01703214795789105,0.018171824550400624,1.3041093017555763,0.09883564038381285,-1.396553552039147,-0.060950674650543345,0.010809941789152277,-0.04944031276847244,0.09552683742239244,1.171875
-0.005332612732447655,0.0039850056366152065,0.014132582346587803,0.015803802679030185,-0.01387552626065666,-0.007738371147300199,-0.008368567445644685,-0.5818854072237665,-0.04355936553519902,0.6266925239076103,0.027196755943772015,-0.0038791544652600563,0.021164899423524456,-0.043174211898805506,1.1796875
-0.020611082480615293,0.01480823453205376,0.05262087349933814,0.05959705664298576,-0.049483726232468335,-0.029437692988528434,-0.03164866069793567,-2.2419020280555078,-0.16889322642773216,2.4050541811853874,0.10464319236255282,-0.01678921491157666,0.08317623258994061,-0.16516070580150535,1.1875
-0.019000751238063773,0.01368035599425968,0.04851745945870273,0.054857822145140546,-0.04571832565092805,-0.02711105253086614,-0.029178460486790885,-2.068833003026393,-0.15575807493239624,2.2187343620423188,0.09644814259746574,-0.015432293733622617,0.0766174114424187,-0.152351254730064,1.1953125
-0.012280396489276332,0.00891796274582643,0.031596640399729106,0.035531344903012525,-0.030052741843828248,-0.01756120062196592,-0.01895910030105583,-1.3375266860697441,-0.10044389972301805,1.4367378278436487,0.062340082044754185,-0.009756718998910311,0.04933671865326689,-0.09855399944879426,1.203125
-0.00781783582526091,0.005745204710983687,0.02036424480370343,0.0228235901400758,-0.019664459605591787,-0.011227588433437566,-0.012178898895241376,-0.850649662651972,-0.06363182217327241,0.9150694451125975,0.03971319593747757,-0.005976940940170253,0.03126463352602467,-0.06282478163859721,1.2109375
0.003921054148321253,-0.0025600031072015817,-0.009267006201726503,-0.010685888016428956,0.007671814609773079,0.005479034831390966,0.005746870258061188,0.4211399201545892,0.032384709334160794,-0.45344758695579807,-0.019724896500391314,0.003959480930137583,-0.01629386888860187,0.03052316588294244,1.21875
0.017012949111330077,-0.011809370341802983,-0.042289201123651574,-0.048139665150393654,0.03816195967551387,0.024099551470376693,0.025749674533553448,1.8373809048027252,0.13929027069029923,-1.9762318687681073,-0.08599738442282515,0.015028239500352217,-0.06936895102169757,0.13449457851673507,1.2265625
0.010918323123564203,-0.007496608568829568,-0.02687100821379347,-0.030706556912226308,0.02396086350040734,0.015405909903186195,0.01646212193030431,1.17638514242994,0.08936305743812653,-1.264207279418279,-0.055106815511900505,0.009873830829714212,-0.044697696678212176,0.08586376156869825,1.234375
-0.004846739605278123,0.003637862601025565,0.012906789443807038,0.014351882128152757,-0.012729245011531101,-0.007024304761306424,-0.007582452886116136,-0.5288115274376454,-0.039412757974753784,0.5710286533398301,0.024679817793829342,-0.0034422209080279755,0.01912267794411704,-0.039418794455629826,1.2421875
0.0021004734378694038,-0.001293346179110955,-0.004679908941360506,-0.005717657182930311,0.0035402669765661524,0.0028880805178125545,0.003030966336956921,0.22858898124093474,0.01772058018785597,-0.23972380933555887,-0.01065130339734159,0.0024397221144838803,-0.009178720636895715,0.016357453508240347,1.25
0.02577562568577062,-0.01803658917610973,-0.06446794229818795,-0.07364922222775452,0.058752437824413035,0.03659271862838336,0.0391559646832696,2.7954800592769344,0.2114545327884204,-2.9964010091269366,-0.13064031591809253,0.022437849557752326,-0.10523442075712708,0.20511341805788497,1.2578125
0.023966066660163293,-0.016738114535026744,-0.05990066673696007,-0.06839635293172623,0.05449349544868055,0.0340172577137108,0.036391339142255244,2.5955072875559146,0.19628944076589128,-2.784521001771826,-0.12137566036349418,0.02089105564573832,-0.09781716061727529,0.19044280194672017,1.265625
-0.009000080927220704,0.006591783073551366,0.02331699747838315,0.026207434647608756,-0.022397973657827655,-0.012892841793494328,-0.01390259553373879,-0.9821389435948871,-0.0738391014871493,1.053624188982316,0.04574846272948022,-0.006958806938894737,0.03599870955503208,-0.07252016573125018,1.2734375
-0.02969866503028617,0.02122920515466613,0.07557340429555795,0.08557295947242143,-0.07064964672315494,-0.04235408064547337,-0.0454942271512002,-3.2264789688149715,-0.24321288660321652,3.462226756638129,0.1506176825754498,-0.02442831638518857,0.12001379701114111,-0.23745338595149867,1.28125
-0.015936747917195404,0.01149022038405257,0.04083730483544525,0.04608863610561122,-0.038556530291665086,-0.022792575552068924,-0.024543471946221838,-1.7327914088035064,-0.13035231343192796,1.859636979609322,0.08086314232040145,-0.012812469264864722,0.06420888460387746,-0.12758714982687075,1.2890625
0.005715246341317893,-0.003820221228759007,-0.013841395331819564,-0.015998483202476002,0.011902364878887604,0.00801408922942805,0.008456803712364052,0.6151833770163073,0.04689234359838834,-0.6605546082333229,-0.028805333454153308,0.005441817506870504,-0.02362735013078257,0.045049966210394685,1.296875
0.009948752943493785,-0.006810298166881946,-0.024551360735910143,-0.028105861241471797,0.021754009259374818,0.014071263533283584,0.014948618436824206,1.0734678157834103,0.0813967685183593,-1.1539298714335071,-0.050227272986462686,0.009013391107864815,-0.040829778304506265,0.07866279035133351,1.3046875
0.0008812261896602701,-0.0004031913738541721,-0.0016477720256073225,-0.0020676112798355857,0.00063573114836249,0.001197486499906987,0.0011773658644480122,0.09045136305882889,0.007208457302336106,-0.0998814414462203,-0.0043469689810099145,0.0013968384036745546,-0.004068022430311225,0.0062275510086335,1.3125
-0.010500121994080847,0.00763927700328544,0.02711027600619431,0.03058162828372376,-0.02587014722494686,-0.01501446240495713,-0.016179089485924343,-1.1427457133483572,-0.08573133853677081,1.2255096291520582,0.053253561311453236,-0.008192564785181867,0.04211849949073523,-0.08451223826781004,1.3203125
-0.01721898284330446,0.012397389796386103,0.044070625241532005,0.049822241195302056,-0.04155755695112781,-0.024613613495327563,-0.02648197341512038,-1.8714819015448851,-0.14069313304226982,2.011474836056888,0.08735079300117601,-0.0139063970093621,0.06939772835271354,-0.13795866020968323,1.328125
-0.011635432175454437,0.008460976361677178,0.029967203645443544,0.03375995968114658,-0.02859492921517802,-0.016678732649458287,-0.017999277920792586,-1.2670504286524282,-0.09522702461664133,1.3651944947535108,0.059175007438496,-0.009242005164081255,0.04672691849482641,-0.0933471995854732,1.3359375
0.002638406530853472,-0.001634157880296872,-0.006045693099758758,-0.007199896049527256,0.004676575797293301,0.003652051699662506,0.0037984542611600547,0.28086947709596366,0.021493852698910028,-0.2971680699636328,-0.013138446906515316,0.0028182567165783087,-0.011221666386717372,0.020423068928638398,1.34375
0.010041383747115995,-0.00688509198497133,-0.024700525844953337,-0.028392774316493247,0.02199335869495294,0.014197793316537699,0.015134307318759407,1.084909779775029,0.08234106235612725,-1.1637030218102773,-0.05077184849616523,0.00912863940011473,-0.04125957512723535,0.07928961928697358,1.3515625
0.009614368556770753,-0.006598092055746601,-0.023603753357177064,-0.02708840441604868,0.021038782337464194,0.013577611097343664,0.014501847451401113,1.0390417470493425,0.0791796600994193,-1.1180750136910849,-0.04872237613291386,0.008824234644070292,-0.03949194184078208,0.07568218107333614,1.359375
0.014771291088708106,-0.010247320283042625,-0.03662074545633112,-0.041833461549413316,0.033028543506373055,0.020902797476772567,0.022362322761799017,1.5973068798335306,0.12140848784582389,-1.718291695690457,-0.07483805925285429,0.013189862999945751,-0.060394809613655245,0.1167111024438333,1.3671875
0.02036614282820614,-0.014194206612457431,-0.050765770501162946,-0.05792554579177153,0.046013410055138745,0.02887312122738148,0.030879384146026066,2.2033234929236087,0.1669048106333659,-2.366301244703013,-0.10308177398025953,0.017873302722260377,-0.08312071755098406,0.16149081287237335,1.375
0.00825887248556591,-0.005620283391683483,-0.020238618835910098,-0.023288296480488767,0.017776793661786826,0.011660492204761466,0.012388941679630934,0.8908985440223803,0.0675432465534671,-0.9542710544608051,-0.04166329723895251,0.007593006716441578,-0.03403483712225214,0.0652575130767232,1.3828125
-0.012267045789398526,0.008897162456243257,0.031571155610836774,0.035567932455458265,-0.03003712739434376,-0.017555240097819478,-0.01893443770419252,-1.3342442850375984,-0.10041842865854685,1.4343799884803172,0.0623129439211938,-0.00975095337486217,0.04925203108662547,-0.09831446053821168,1.390625
-0.012241155422845136,0.008869071560344326,0.03153948396175651,0.03556709455143901,-0.02993339909662662,-0.017540039930345603,-0.018882129511434375,-1.3314202623123998,-0.09997615131070552,1.4280956059593692,0.0621021077730087,-0.009679932229808917,0.049192877104053734,-0.09831408865900604,1.3984375
0.006993139660171355,-0.00473998662234253,-0.017018312883425504,-0.019568302631405902,0.014934259126508085,0.00983926772828806,0.010489058738741624,0.7540930036176678,0.05753356017692542,-0.8130834453053859,-0.035396460180071206,0.006605870028551079,-0.028828268721719893,0.05489339872080723,1.40625
0.01319767881907844,-0.0091195339457453,-0.032753856315719934,-0.03745384370183507,0.029403540734688722,0.018710401179062187,0.019965633372639596,1.4271235870845775,0.10814588991678313,-1.5335171963034815,-0.06679305459449038,0.011816905939676514,-0.054046955746561036,0.1045341775919301,1.4140625
-0.005449343480992239,0.004081339599887822,0.014274383261588487,0.015925375726465334,-0.014092802854414485,-0.007811248475632159,-0.008510855300033475,-0.5941324159235387,-0.044656082337421826,0.6417218965107186,0.02777132621570357,-0.004003888626820625,0.021554667531486646,-0.04382064267480761,1.421875
-0.0251876494377667,0.018043227303887507,0.06416106966768183,0.07255047545614556,-0.06014165978198261,-0.03594529927154131,-0.038667303181848266,-2.733808172349583,-0.20623666851956732,2.9424169639627356,0.12783462688050867,-0.020710297555866383,0.10164326342673385,-0.20104954135467698,1.4296875
-0.024788476666945093,0.017755169837469744,0.06322409720203438,0.07148556226052111,-0.05921252676344727,-0.0354189719611895,-0.03806293558947232,-2.6911132804219564,-0.20295641291358912,2.8947905716529654,0.1258004564272665,-0.020345807303136367,0.10006951601432883,-0.19800526990870795,1.4375
-0.009579236871155476,0.006997510622909379,0.0248012966461305,0.027879102143417975,-0.02373331711545684,-0.013748160310664947,-0.014814556808881496,-1.0439493316970236,-0.0784679380099159,1.1211072071484727,0.048681199282624765,-0.00745359996577006,0.03837119048640869,-0.07705728121384692,1.4453125
0.004606204617413957,-0.0030327315146386137,-0.011074249835906559,-0.012857108669999846,0.009331484278029857,0.006495747646080737,0.006864957312329872,0.4927074739436301,0.03777804442854962,-0.5317713955982811,-0.02325701558371408,0.004550268134654439,-0.019220969072965725,0.035783909399550465,1.453125
0.010484142028690085,-0.007194669669436225,-0.025888901410162986,-0.029715630507512768,0.02299378118861687,0.014864042625646848,0.015814816673805132,1.1309210094333193,0.08613237190359176,-1.2155295070951033,-0.05307052831131887,0.009515333758654203,-0.043073788143097154,0.08265921307283174,1.4609375
0.01040091207664355,-0.00714495180907865,-0.02558814766539754,-0.029372539062905278,0.02277023964643229,0.014694791658814172,0.01564335795195342,1.1236864731158076,0.08550219523638658,-1.2055997795667799,-0.052619455943798604,0.009442116629173575,-0.04265875662112597,0.08218455795098724,1.46875
0.010392300919547511,-0.007140451846436427,-0.02553468586327191,-0.029225826776352166,0.022757002567325935,0.014652028334552081,0.015626356453508333,1.1225793813433993,0.08521479308416927,-1.2055828621333913,-0.05251273818802849,0.009439150954998027,-0.04254269977692136,0.08212438228878101,1.4765625
0.012364799100644261,-0.008530502827789124,-0.03057035113766805,-0.03486466142550569,0.02738191303613425,0.017484312659831653,0.01868484219515951,1.3345533085973413,0.10119383397623155,-1.4363649661052795,-0.06249794200678385,0.011122157140218207,-0.050563757710094206,0.09759744985760814,1.484375
0.01009790345931451,-0.006926749538838814,-0.02490423275701269,-0.02846233003671122,0.022128003422398537,0.014294421717592562,0.015264229431561898,1.0881752878078854,0.08275147448322481,-1.1731416470831126,-0.051091801669254595,0.00922746111919562,-0.04145468857397431,0.07940364185456172,1.4921875
0.00024210804464988735,3.9356751057883706e-05,-2.5611694958488085e-05,-0.0003095471662934984,-0.0008215590680600822,0.00026616331016274464,0.0001964208392637647,0.02150040107712885,0.0023023010316332456,-0.025924042587328118,-0.0012261494576446255,0.0008934802989045919,-0.0015086711738153927,0.00111127378959426,1.5
-0.0074274025967414415,0.005464471737357918,0.01935618046880842,0.02165026749203224,-0.018697648363060468,-0.010677899715356945,-0.011574160961063732,-0.807666589103975,-0.06041785191027368,0.8682242389869075,0.03767815191158041,-0.005638396228134353,0.02963679251759038,-0.05963977410947286,1.5078125
-0.004769169771939995,0.0035932169530849536,0.012654112162883466,0.014059166937610045,-0.012529572700717225,-0.006909574663760253,-0.007543047762847424,-0.5190140633768167,-0.03883037572947319,0.561916305380726,0.024336578669419247,-0.0034510354129502667,0.018865325182019256,-0.038377212864086935,1.515625
-0.0018699730440216596,0.0015508273405620472,0.0053461177749726954,0.00579422529156925,-0.005808650809806795,-0.00277560355595833,-0.003077444875348962,-0.20639322453171013,-0.015345678956300887,0.22715901369441935,0.009733563328168972,-0.0010093548236945536,0.007075158130490984,-0.015522615173400938,1.5234375
-0.009234568312658856,0.006758290508555901,0.023963409337694384,0.02695452385377949,-0.022987449228734858,-0.013251639388195995,-0.014267561552733574,-1.0066531043986977,-0.0757128691655933,1.0841022186784453,0.047030333332679045,-0.007186447871853521,0.03694812949196993,-0.07447328714319491,1.53125
-0.013949628142280632,0.010082020540050368,0.035874772739337896,0.04047149860199912,-0.033943304626307555,-0.019967011219924082,-0.021458756210573804,-1.5172216449345337,-0.11410940829446081,1.629949576605386,0.0708224670061936,-0.011123431556593044,0.05609390552605193,-0.11202509466343424,1.5390625
0.0005647908067619149,-0.0001954372470361937,-0.0008066190639399888,-0.0012336483663130551,-4.843858852167533e-05,0.0006973063510063967,0.0006723399707187911,0.059084883494212315,0.00497757475751707,-0.062305270632867366,-0.0028269294832370365,0.0011498769775090156,-0.002824608051998356,0.003913146759160248,1.546875
0.02128699450175349,-0.014852125940111786,-0.05317701612565968,-0.06075220266314187,0.048278456454914416,0.03021533806576585,0.03229384920268815,2.306654131378102,0.17460534477404838,-2.474993272635204,-0.10785795489454988,0.01864273287700365,-0.08695829632662731,0.16922467562323393,1.5546875
0.02069470230900585,-0.014422160994045419,-0.051695940558260066,-0.05904468139228305,0.046849707541992185,0.02939053900572265,0.03140231212440906,2.239637286570676,0.16947955744557475,-2.405244576926884,-0.10480423382984197,0.018135940383278523,-0.08454512400515354,0.16435877064333865,1.5625
-0.0020995842937832363,0.0017075007460279719,0.005878616831734667,0.006417006597501335,-0.006339454822162593,-0.003057774444921912,-0.0033786573080637518,-0.23457746398248508,-0.01728577028647046,0.24878150834994106,0.01074455467798275,-0.0011086204987868335,0.008015950236643836,-0.01751833041251248,1.5703125
-0.02088072166178661,0.014988212322890042,0.05330970954086678,0.06032612607635449,-0.05011171720023652,-0.02980616160264755,-0.03205092382085108,-2.270097977870569,-0.17091475145923904,2.435691496128543,0.10590289485100499,-0.016969273487348682,0.08426241156968323,-0.16715363729401994,1.578125
-0.019242364695011033,0.013829245986043763,0.04916404537647088,0.05560062628438771,-0.046270155791924714,-0.027489843843126537,-0.02957911580473717,-2.0905502277445134,-0.15739847887377537,2.2466657597025534,0.09761938905340481,-0.015615888444516867,0.0776063230852623,-0.15391107276313476,1.5859375
-0.007186635739332779,0.005314405790852925,0.018740788448580563,0.02101672345248631,-0.018206954585326562,-0.010342339789870592,-0.01121685081893944,-0.7843504861850628,-0.058870139691450524,0.8451690272095228,0.03663238164591799,-0.005481617588992404,0.028701849879935647,-0.057840882516758264,1.59375
-0.0017015923573381734,0.0014435578274395954,0.004939606242797313,0.005335243561324844,-0.005471823648646828,-0.002535762054998136,-0.002854120921291687,-0.19165193304832,-0.0141480607723083,0.206141332729709,0.008903368942577303,-0.0008609993934965342,0.00648918793532197,-0.014312704599987163,1.6015625
-0.004442724875400682,0.003370425781037071,0.01188503346468733,0.013249958203460735,-0.01182442052376039,-0.006424017994117201,-0.00699996401952738,-0.48793807110852216,-0.03640408400931515,0.5216306549448565,0.02269815372396403,-0.003128628991288669,0.017625481141410198,-0.03626842242145602,1.609375
-0.0016772786065875145,0.0013936915390304948,0.004886660360063235,0.005338471092034897,-0.005293147851457338,-0.002482854001412023,-0.0027370048885530913,-0.18562398824465143,-0.013345189357706967,0.19637038404912208,0.008528209134521458,-0.000729266272918997,0.0063784085926331955,-0.014269404736859509,1.6171875
0.015134411114126164,-0.010502382234995562,-0.03756900192590556,-0.04289288614351935,0.03390679193998297,0.021427890998245006,0.022922145445166048,1.637093133896124,0.12442972881071873,-1.76006627921086,-0.07669250799668645,0.013491454454197962,-0.0618679884736261,0.11962713517331564,1.625
0.03206813203743185,-0.022469641633464578,-0.08031659617114761,-0.09152540088417867,0.07332581887864348,0.045517675447426596,0.04874412767675559,3.471623769425875,0.26280230869179855,-3.7278127529385734,-0.16241312647708395,0.02776602501188468,-0.13062293023354052,0.25462319496455965,1.6328125
0.027381669476485713,-0.01915197393125739,-0.06850655142467432,-0.07817783762298584,0.06239869071270818,0.03886731027065624,0.0415900714903229,2.9649582234528067,0.22424643304987527,-3.1805371136151823,-0.13862686242335295,0.02377364151802325,-0.11167607484243758,0.21758941246240568,1.640625
0.00336921314226415,-0.0021790794085962953,-0.007919905886768486,-0.009333639143662717,0.006487373607983477,0.0047138918092819535,0.004959762891179131,0.36494352268238217,0.027860603192331343,-0.38725314592201354,-0.01701349633100616,0.00348989649153876,-0.014276547655772326,0.026488058297559226,1.6484375
-0.014860783874694326,0.01070901540303088,0.038113555640417913,0.04302713430625603,-0.03598783883762469,-0.021243056983448964,-0.022857342602960788,-1.61144350984028,-0.12118481476796973,1.7326738955214176,0.07532455064188938,-0.011890018933004048,0.05974243477967008,-0.11892897821788725,1.65625
-0.015454666597460334,0.011142949841643936,0.039647295317027674,0.04479226339951391,-0.03743688875335299,-0.022108715222990197,-0.023774692804410337,-1.6797778010689997,-0.12631365408009604,1.803257820980743,0.07842059438916833,-0.012400242994711047,0.062217049389402285,-0.12394927999548655,1.6640625
-0.012343067345500842,0.008962094536393194,0.031769312478588156,0.03581825849119504,-0.03024697866935461,-0.017667579920685208,-0.01903862860733305,-1.3451211083380765,-0.10129318278483239,1.4447809731127383,0.06278005334263331,-0.009820195048739929,0.04958587444866263,-0.09912132908004352,1.671875
-0.01618648011193153,0.011683425037649374,0.0414142098205076,0.046759368473293615,-0.03920153194902494,-0.023113513191044086,-0.024919153755671705,-1.7603125478884616,-0.132778007337435,1.8935798688810443,0.08227573204438786,-0.013103587230487625,0.06513916663261268,-0.12946658311077436,1.6796875
-0.017305048909168324,0.012461141772601101,0.04424892111285317,0.049984229387555694,-0.04177269114330407,-0.02471790476231893,-0.0266408952535153,-1.8794193004574489,-0.141576761692235,2.021466036232778,0.08785194135103873,-0.01402486836143351,0.06969361429830827,-0.13830479654375907,1.6875
-0.005872595056365523,0.004366887635636988,0.015454195870684547,0.017284465498140077,-0.015106695264372324,-0.008473686687845169,-0.009182346587198532,-0.641003545908893,-0.04784498610872441,0.687672874120363,0.02983815979694883,-0.004306247173686236,0.023369761817483993,-0.04746734077048322,1.6953125
0.010685674871929772,-0.007338701389246926,-0.026352442839194995,-0.030185409702779283,0.0234980971998438,0.01511451656848251,0.01613245686530737,1.151557514512199,0.08752624510409907,-1.2409908271187797,-0.05408408285616287,0.00972035141789495,-0.04380317988317713,0.08419572664903265,1.703125
0.018461120089108617,-0.012832683382510583,-0.046064528754043856,-0.052569199453139384,0.04164292658233784,0.026234518400746972,0.028030464460424686,1.9944036877992473,0.15115802480845109,-2.146034225316919,-0.09349343261517795,0.01628444933917821,-0.07541192261015606,0.14614472717925223,1.7109375
0.01337436804477816,-0.009240319427861052,-0.03322620928172584,-0.03803313703615842,0.029793123965356317,0.018988686789796157,0.020235533284660923,1.4454996997565603,0.10976861198396416,-1.5531354640776316,-0.06773139348963816,0.01195939912977059,-0.054802039189606626,0.10583020399887325,1.71875
0.002971119842582383,-0.0018882136130106007,-0.006828184404887961,-0.008106508974386558,0.005503104334090182,0.004097243639311198,0.004288673890789817,0.3193745910386061,0.024654735254125912,-0.3399823813453067,-0.014956223291877669,0.0031395933916066768,-0.012522078510233691,0.023118078893385383,1.7265625
-0.002067578193909813,0.0016796781365976568,0.006001960951626653,0.006496940201490804,-0.006299459812189297,-0.003136786835482328,-0.003426641420072473,-0.22798667571208062,-0.01691469308372445,0.24886388357413353,0.01069671520385138,-0.0011328970140256822,0.008007711021198353,-0.01708386956627912,1.734375
3.8562859808346965e-05,0.00019669140863232134,0.0006277252342559347,0.0004940025866745844,-0.0013922526525773742,-0.00010375631125347568,-0.00016277339097928007,-0.0017280729664891704,0.00010018423485872082,0.00317136746951992,5.458527581853409e-05,0.000664326212733665,-0.0005496046259355707,-0.0005251870083822579,1.7421875
-0.0001728937468217738,0.0003447713489561772,0.0010287861586588223,0.0009828011536808334,-0.0018217730484070029,-0.0003313012765789117,-0.0004290448884410846,-0.02510971671449972,-0.0014489937201390714,0.02457795879654228,0.0010098911892941933,0.0005205398895751344,0.00022420120208282323,-0.0023244773908720055,1.75
-0.006445691135176212,0.004774550766065581,0.016824938484178924,0.018838438734073017,-0.016393000929564597,-0.009242944011981637,-0.010011261927569888,-0.7036591636741668,-0.05249459957953049,0.7528183223068597,0.0326864384956838,-0.004773315226271007,0.025626359947017053,-0.052144061444252134,1.7578125
-0.007002969457833877,0.0051638999697367375,0.018281118050372865,0.02040256264248799,-0.017712313677132555,-0.010066041013483625,-0.010909468603826227,-0.761997452545198,-0.05696960377918119,0.8189954204774857,0.03553448088661549,-0.005276088041660835,0.027886014504038395,-0.05630215234000399,1.765625
0.0040969192458180405,-0.0026884836581157075,-0.009727433428505367,-0.011395743772964427,0.008114654599361747,0.005729756529342814,0.006024424018577132,0.44249090696157833,0.033807713111108015,-0.4710164496203937,-0.020635739371211114,0.004078323017808455,-0.01717302110670331,0.0322535974981954,1.7734375
0.010928475342749776,-0.007519764009108587,-0.02701956283676561,-0.03095262356118587,0.02403768828330293,0.015481796944250925,0.01649648907138253,1.1824375409792784,0.08964724489481074,-1.2660952796639011,-0.05524807478436817,0.009865488996636695,-0.04492699973988012,0.08653153122485364,1.78125
0.0012618912423473158,-0.0006808779234451216,-0.0026300769876007406,-0.0031934820313640573,0.0015436085849219168,0.0017257959774930676,0.0017757657508471224,0.13287275297928475,0.010505557069095148,-0.1422129569717048,-0.00630909067012686,0.0017269843248901766,-0.005682965601068956,0.0092653519769158,1.7890625
-0.00965335034415869,0.007038751320268609,0.024965100411312367,0.02814570848713296,-0.023873789014335758,-0.013838254064182822,-0.014899548923073873,-1.0506523375580599,-0.07876482664963597,1.1272970097240047,0.04898166077232471,-0.007488693513520012,0.03866520193801669,-0.07776806438856383,1.796875
-0.004807350185484103,0.003609389274862909,0.012741118585124538,0.014225720623196774,-0.012581546716281504,-0.0069451977050446366,-0.007532103680896877,-0.5237629109483394,-0.039013772601024274,0.563454179751747,0.024435626676623516,-0.0034128789759492457,0.019009518730996832,-0.03896891125144431,1.8046875
0.00559792395705908,-0.0037433366775987977,-0.013566008727515417,-0.015686614242887344,0.011646904512970445,0.007892608562412579,0.0083414193650456,0.6041901903102802,0.046023913137408716,-0.6461725684857748,-0.028257648625282256,0.005353865687526447,-0.023241271644799506,0.04409952658553712,1.8125
0.0046638654863777095,-0.003066742471537533,-0.011198995737585779,-0.013008830563846399,0.009417753609443389,0.006566084656104625,0.00691451750994245,0.4992025033016446,0.03803321119839991,-0.5358491218841008,-0.02345867176423478,0.004556741898126752,-0.019415539845936837,0.03648415577225667,1.8203125
-0.0038777805556740328,0.0029818541079913267,0.010454231635112833,0.011596905603256595,-0.010545679791896313,-0.005632689590484233,-0.006133469993282102,-0.4303569079982985,-0.03204585151451665,0.4583935980406541,0.019872666865893285,-0.0026401419950278534,0.015337718195512417,-0.03193139833903053,1.828125
-0.008734850033532885,0.0064057847781371175,0.022767877489375473,0.02559780883123392,-0.02186190804532549,-0.012575838929421298,-0.01355314958544386,-0.9556071229676879,-0.07156762903132348,1.0226858079469232,0.04444787309992635,-0.006718831648710149,0.035064563616380606,-0.07068686638748724,1.8359375
-0.00806700414031172,0.0059200584087056515,0.021015894344717942,0.023593382142235584,-0.020237640295277536,-0.011606585459688968,-0.012528392316779404,-0.8788185571551346,-0.06581907851364381,0.9448052127785018,0.04098585323535776,-0.006161126767021825,0.0322573091878037,-0.0649990005785834,1.84375
-0.001111196537178206,0.001000860238525733,0.0033758748629468074,0.0035041517221481703,-0.00397095913027757,-0.0016755976339399288,-0.0019109304865376937,-0.12266261468821499,-0.008917970381401132,0.13546563614403087,0.005716934700206316,-0.00031214694152399236,0.003948968361158148,-0.009227246444318328,1.8515625
0.011341825495269225,-0.007803134999221305,-0.028038719971484206,-0.032217733035951136,0.025054281352095406,0.016050870199784587,0.017092030261893477,1.2264292262125136,0.0928622408789562,-1.3156488853038555,-0.05736962858407664,0.010210842152372585,-0.04655530881462077,0.08997900545361431,1.859375
0.015050832087655876,-0.010433351127555753,-0.03733691418230994,-0.042736821395309696,0.03368911934571262,0.021318238821560653,0.022765274545840063,1.628109160036526,0.1233199605004224,-1.7500257042441805,-0.07618952839045158,0.013381708422412803,-0.0615382000372005,0.11930543488063049,1.8671875
0.0005993116563949604,-0.00021876406578659295,-0.0008601551198223857,-0.0012066384773648025,8.730848526347633e-06,0.0007484579847290309,0.000730171697262386,0.06205132911001966,0.005257828357888839,-0.067567972151226,-0.002990084419370994,0.0011875175066033763,-0.0028881940021588002,0.003992678479791782,1.875
-0.012885397377181336,0.00932873244028125,0.03313512246950135,0.03743992745861687,-0.031448730874652754,-0.01844521445335763,-0.019853540910685318,-1.4009826919663504,-0.10517393750442153,1.5061823747500789,0.0654050951195888,-0.010241876008470853,0.051796811539793035,-0.10352616725339557,1.8828125
-0.005175312284405737,0.0038923326150628657,0.013668265455290561,0.015252604592212095,-0.013533079377805181,-0.007478470016756425,-0.008110394046109205,-0.5676131228437589,-0.04240779351074524,0.6122000415796354,0.026448039313972764,-0.0037710957335673214,0.020493196981150527,-0.04207795293150451,1.890625
0.009241706265518955,-0.006305788421996013,-0.022715381565918215,-0.026140169202153677,0.02007593334512421,0.013052446496884083,0.013893227577157602,0.9957052233299902,0.07545690709549127,-1.067428957187274,-0.04661649893099247,0.008415442295644747,-0.038018109999207995,0.07296225676789284,1.8984375
0.0072481832923346695,-0.004917542554481378,-0.017714623386733328,-0.020410248500349858,0.01552030234262612,0.010246205195864375,0.010887426511320516,0.7833204644737677,0.059483150906568444,-0.8406457037372407,-0.036675259917360876,0.006782039652577615,-0.029948631129227063,0.057246840258294,1.90625
-0.0026044543346295658,0.0020345517444079215,0.007131232624808712,0.007906435065415466,-0.007385371766488064,-0.0037692280109146692,-0.004125403811715176,-0.2828072982348532,-0.020732152908860376,0.3026572662201072,0.013132849411547682,-0.0015009194690391435,0.010036686054756338,-0.0213551213217093,1.9140625
-0.0015276245215390205,0.0012819452691313024,0.004444208942406871,0.004863846681783447,-0.004939992828028119,-0.0022684751777914394,-0.0025057964381776576,-0.16876866480958225,-0.011991683344381781,0.17955880319849085,0.007761389049481345,-0.000604935804821072,0.005705797973726112,-0.013024506418343641,1.921875
0.0032402257739458117,-0.002068388613685308,-0.007563160958044817,-0.008851267183269269,0.006069528278549387,0.004494193286163721,0.004731065174169549,0.344836396883627,0.02654730893436053,-0.3696272777976828,-0.016220614202151734,0.003367465339585779,-0.013635199770323408,0.024984620798651096,1.9296875
-0.001807603302465778,0.0015079620355368984,0.005156375381093309,0.005537206917919893,-0.00570586077909944,-0.0026725619944896317,-0.002984269864107059,-0.20146614475232122,-0.014961545402624453,0.2204317799054547,0.00939443862020572,-0.0009314875906422652,0.006802805340112988,-0.014928794639625608,1.9375
-0.007937895699079964,0.005830364798184949,0.020625044380570546,0.023123857494360838,-0.019932077836287584,-0.011379004034356762,-0.012331344715979154,-0.8631913978414492,-0.06479228427343853,0.9302925780001949,0.04033570764190549,-0.006085998044402955,0.031675677548277305,-0.06367896885763719,1.9453125
-0.004870398724751144,0.0036538028244247145,0.012929693441888037,0.014444742597226336,-0.012764483354120382,-0.007029217152177622,-0.007645195481441371,-0.5314449132272756,-0.039449587249347676,0.5688476879842604,0.02472509568802695,-0.0034512863707395927,0.019309076049497418,-0.03956775119434381,1.953125
-0.002061801871947591,0.001680719704622032,0.005851120768367829,0.0064386637977488755,-0.006251771007881732,-0.0030448148828676434,-0.003346906874614588,-0.23085338519840867,-0.016821688104149617,0.24291162112438153,0.01057866717253956,-0.0010745459526999863,0.007956954504513971,-0.017470022932621045,1.9609375
-0.006180967363528177,0.004607267352948576,0.01618526142744871,0.018126106289378673,-0.015845390455950733,-0.008883401341476693,-0.009608721405897662,-0.6782690384707887,-0.05096683122542058,0.7264872180293125,0.03152808437400574,-0.004583732026056278,0.02459419343615163,-0.05009171666361914,1.96875
-0.005215972289518449,0.003918104860384306,0.01373890274768979,0.015238033212068626,-0.013547461821359658,-0.007500433708750637,-0.008142266446247446,-0.569955043232856,-0.042902219858899686,0.6154752273244752,0.026589996124279335,-0.0037887414616957636,0.02060018929215749,-0.04202840512594889,1.9765625
0.0063747005191943954,-0.004292303969442626,-0.015401298698874629,-0.017919523977116977,0.013460300886901169,0.008941783796725552,0.009491466949277988,0.6890684271207712,0.05240182507985375,-0.7351255795755426,-0.03219184298675689,0.006001144567682143,-0.026373697450526788,0.050319799604608445,1.984375
0.014365558276412959,-0.009942869022330929,-0.03547919771697542,-0.0406658791191277,0.032022937067283715,0.020262641023657282,0.02165683740616757,1.5530991163374743,0.1178050810912354,-1.6659079908797738,-0.0726368811515177,0.012760601863596767,-0.058692739223645145,0.11365088370483616,1.9921875
0.01019970323640379,-0.006991293513700449,-0.02505141980059876,-0.028708704762868954,0.022318832650586286,0.014375608562146142,0.015358985433789763,1.0988160295208707,0.08343844542104757,-1.1817995561902104,-0.05152139209399681,0.009273001297961922,-0.041803804808238844,0.08027721030127982,2.0
0.0038802261153024157,-0.00253043785634622,-0.009264710637018673,-0.010717600755631104,0.007684748122433312,0.005474125865449681,0.005793935293938276,0.4152308133849704,0.03184929106190503,-0.44966961911209163,-0.01963186137272042,0.003979336425019894,-0.016263038657375176,0.03006430989456978,2.0078125
0.002590871468704842,-0.0016313935961175228,-0.006043863071896733,-0.007079348281481856,0.004721317232226264,0.003657917589677501,0.0038109790464275995,0.2786959819593438,0.02174244252628998,-0.3021757059938329,-0.013196268020440242,0.0028920813203825303,-0.011063059542066184,0.01998340411602567,2.015625
0.00016517612467729654,8.837453793850359e-05,0.00017175988093742154,-6.918690232934812e-05,-0.0010215935917460386,0.00014030763892459232,1.989669030615128e-05,0.01603646760329741,0.0019291074011791947,-0.016487678087647048,-0.000795524154049871,0.0007794375473200105,-0.0011741877070798954,0.0007380134598422306,2.0234375
-0.005929017920660293,0.004414935293323246,0.01559423909407639,0.017431343014463755,-0.015326224543720188,-0.008570585156333676,-0.009317507182011651,-0.646875885025702,-0.0484076744602161,0.6988989368973693,0.03026552326497162,-0.004428940531226464,0.02355948542476161,-0.04778504167338661,2.03125
-0.008918230036773774,0.00653443286744889,0.023073896466388605,0.025967194897780706,-0.02227559221886776,-0.01278656251817904,-0.013821541310076586,-0.9721742814620958,-0.07316843530178119,1.0476902623612319,0.04542849665295424,-0.006937653377635204,0.03563877224713688,-0.07162845069071333,2.0390625
-0.007850154923406726,0.005767966426560015,0.020343381750700093,0.02291137044262059,-0.019693836731105977,-0.011231374949298921,-0.012128176064387193,-0.8554527512155786,-0.06424389907467662,0.9187343130838319,0.03988868644564679,-0.0059702911044288,0.03129666934320795,-0.06323307032465697,2.046875
-0.008366216880991468,0.0061225327937136755,0.021721952991004337,0.024446343754422166,-0.020852760390676052,-0.01199363032119653,-0.012925313339290196,-0.9097349668483586,-0.06820868733594687,0.9760316227471417,0.042432931235908085,-0.006379604961552872,0.03344691732922953,-0.06736822571611936,2.0546875
-0.007534476499558866,0.005537132022547091,0.019704701486231466,0.02206343309430928,-0.018948227069813636,-0.010849261945438586,-0.011708459096513062,-0.8187347322622321,-0.061422167006318876,0.8816608746553873,0.03826922169461543,-0.005712350477544912,0.030114797971961923,-0.06056356926175214,2.0625
0.002374525176138111,-0.0014603447820029187,-0.005326687220996889,-0.00640952387998341,0.004097998763063199,0.003263597868965154,0.0033930268089918058,0.25442095483590665,0.019505049194282382,-0.2687079636281081,-0.011879977611287885,0.002622561913657059,-0.010103305280736509,0.018485984002117557,2.0703125
0.015449577961926404,-0.01070148757452037,-0.038394963144701345,-0.043927347239572444,0.03456006352095248,0.021903857362312342,0.023377439770244802,1.669156066691339,0.12642785949345015,-1.7913290403685236,-0.07814398233698543,0.013683906454878686,-0.06318406436512436,0.12241380491147025,2.078125
0.016444501618001626,-0.011408413455920577,-0.04090571617286058,-0.046740025355817935,0.03689894964410476,0.023316376321608333,0.024931799683106135,1.7752086101742963,0.13461019032281565,-1.909654406094296,-0.08323167697330174,0.014567093993516524,-0.06723017260655068,0.12999555337594,2.0859375
0.004184209916301169,-0.002743972232165259,-0.009915233223117749,-0.011541824503199006,0.008340262714881185,0.005840671720575516,0.006216827492000134,0.44727622018322644,0.034387620473142054,-0.483100933852004,-0.021120972761976317,0.004218348917325858,-0.017480181470401,0.03229430776432146,2.09375
-0.006090914045490788,0.004523445706031662,0.016004764086234316,0.017913960679617442,-0.01561999562253433,-0.008782268017040708,-0.009502799725423628,-0.6643857840294449,-0.04961280468969791,0.7143826467703347,0.030981382757650187,-0.004502880256993041,0.024213976370937626,-0.049305195584058666,2.1015625
-0.004817078322451019,0.0036315819010953035,0.012727019312343033,0.014222077673121673,-0.012678859949864998,-0.006943542391797672,-0.007590071011685225,-0.5263814262825218,-0.03926203329320721,0.5668963292691347,0.024580631864375015,-0.0034716170734021452,0.01905266642068809,-0.038992489460586,2.109375
-0.0002805363547230292,0.0004300923661988717,0.0012828708392118465,0.0012039003651791065,-0.002116138689580964,-0.00048581518899256315,-0.0006692746170614594,-0.03661741260167627,-0.0023294119131081386,0.037849599868431255,0.0016137168636246025,0.00035732603093754835,0.000672534495782729,-0.0029330959369480323,2.1171875
-0.005538180771860911,0.004144679258993047,0.014636023243877026,0.016330573378080675,-0.014352368200827852,-0.00799974661361334,-0.008679570948519028,-0.6073068480349167,-0.045418002001704164,0.6485941017905008,0.02822385061612588,-0.004053527298708402,0.022044720564433466,-0.04495895481003512,2.125
-0.017762695217324313,0.012781762931107473,0.04551917649568536,0.05143332489209864,-0.042815134876048426,-0.02541186428507064,-0.027318737191278475,-1.931091559259387,-0.14530703480836887,2.0717531099903344,0.09012096072507342,-0.014354513998831323,0.07165299366763968,-0.14236820136179457,2.1328125
-0.016946332520355607,0.012201250232167662,0.04338775101372242,0.04904897105538084,-0.040891030855397206,-0.0242238261384698,-0.02605344955374103,-1.8410729533690693,-0.1384819701573256,1.9781227875896918,0.08596748602165828,-0.01366051073741661,0.06828459567147231,-0.13576438193350254,2.140625
0.0073026101728921175,-0.0049491494120713206,-0.01786739429718034,-0.020592324450402853,0.01563521706962928,0.010314905236686012,0.010966356068825104,0.7884885806178187,0.05996488270464669,-0.8438544541305442,-0.036903410445220615,0.006823565734612818,-0.030183628145273828,0.05758678702391953,2.1484375
0.032910446568289696,-0.023068465981943533,-0.08246296637059006,-0.09406107505556818,0.07532566154187129,0.04675878886124668,0.0500457704668046,3.5660665273098964,0.26956203191138395,-3.826077313230495,-0.16669381766700161,0.02846816793505728,-0.13411813082319127,0.26178002211715806,2.15625
0.029465178682912346,-0.020645653140156577,-0.07373059962217604,-0.08410506787557746,0.06730793399454556,0.04184655851171116,0.04478623680205234,3.194603497948965,0.2415489534153958,-3.427336956449767,-0.14930711269874478,0.02557716787013177,-0.12011459983300492,0.23440994324112016,2.1640625
0.0035143028466012916,-0.0022938561205227206,-0.008262306422100216,-0.009599950254694558,0.006821364773467816,0.004912787460815238,0.005187716070210859,0.38084953284631484,0.029280289825493074,-0.40687348311500876,-0.01783230889640917,0.00365941759595524,-0.014780078198568415,0.027501645440454237,2.171875
-0.010937229268534526,0.007946815127662554,0.02818480738054125,0.03184758121670258,-0.02691278317053333,-0.015665908703623325,-0.016876961019861813,-1.1901043991970555,-0.08923787495604812,1.278529407058056,0.05550451708076316,-0.008578042609436358,0.043888250649032914,-0.0879430436641714,2.1796875
-0.007134665177561255,0.005282809881460045,0.0186098477962606,0.020873307912303518,-0.018121568142446923,-0.010274296845754172,-0.01110600882676564,-0.7819224755048177,-0.05858387398389009,0.8403322623396745,0.03640130878603871,-0.005419187655940554,0.028467817401164427,-0.05775033039022523,2.1875
-0.00969147232824755,0.007095188303995201,0.025072769237803407,0.028129625895521607,-0.02408499616343878,-0.013906144542922919,-0.015022483861934341,-1.058109167950203,-0.07969285812195298,1.1391520200477876,0.04939307426422458,-0.007610820373344938,0.0388107846740506,-0.07785301782822963,2.1953125
-0.022204484806692574,0.015926013805506047,0.05662719136915986,0.06402192861743751,-0.05317803827978892,-0.031683991685437354,-0.03409417065066075,-2.4106178763525663,-0.18179405463877354,2.591813945351242,0.11266623410074711,-0.0181560984499255,0.08956002836575658,-0.17732117655882199,2.203125
-0.019937489009005795,0.014309272785356377,0.0509098342812737,0.057641414608336466,-0.04785352737070241,-0.028453723813423898,-0.030612245475278174,-2.1645476539017547,-0.16288842250190136,2.3226132662624055,0.10107154412227819,-0.01618855861064699,0.08042737293761924,-0.15953390917121174,2.2109375
-0.0009269417507596187,0.0008749709938135695,0.002969250367179811,0.0032236663073987944,-0.003587722407172142,-0.0014245404455386348,-0.0016120282272535501,-0.10790223851330903,-0.007398101517346968,0.10855608763694287,0.004803530188403156,-0.00011341365690350604,0.003389423407509993,-0.008537876874532084,2.21875
0.007285392512808373,-0.004917942836887354,-0.017765623067227045,-0.020400492890295316,0.015514915220332612,0.010260299099195347,0.010906036440841671,0.7805862176879649,0.059503825154052954,-0.8438291037565062,-0.03670795898285087,0.0067940255412027185,-0.029958749623937304,0.05693553075783369,2.2265625
0.00033564197425342915,-1.015719768864837e-05,-0.0002692373437186194,-0.0006212248814866688,-0.0006468504713268544,0.0003950710943174017,0.000307963596984739,0.031456492835069384,0.0027077101268229006,-0.03191123147678569,-0.0015321429849066688,0.0009035957328158907,-0.0018947794227603743,0.0020656296686931593,2.234375
0.004502389665713222,-0.0029776973091661736,-0.01075606408402837,-0.012567047221233025,0.00911051127859315,0.00632024820208914,0.00667085114263831,0.487436958473718,0.037235616170001956,-0.5185180759582555,-0.02276378902661644,0.004448528095650367,-0.018842094420534396,0.03545550673663169,2.2421875
0.02371471032424288,-0.016570485009548337,-0.0591588902124842,-0.06752443945807853,0.053877006965840225,0.03362466232441986,0.03598291089931517,2.5686005003984516,0.19460036066470135,-2.758140126664783,-0.12013822715049251,0.02071597279141402,-0.09669874185075662,0.18817258222327204,2.25
0.029265326295845707,-0.020484354971132306,-0.07317181803356108,-0.08341467032104313,0.06679062550669611,0.04152540723805099,0.04447419536908368,3.166592739752948,0.23971893999024366,-3.4042055676841874,-0.14820729852170567,0.025414626809631354,-0.11918866698678687,0.23211461698124403,2.2578125
0.010881527243928213,-0.007477089321299059,-0.026876905148137516,-0.03082464311747474,0.023961033557606197,0.015412912736850077,0.016460171575300078,1.1741767410560549,0.08909773787920747,-1.2611725536007363,-0.05505070495745084,0.009865678203514102,-0.04471221066065599,0.08583933965995187,2.265625
-0.006566653657418459,0.0048571173116613246,0.01712872457230106,0.01914483660640552,-0.0166937844466612,-0.009407668200560892,-0.0101843534721897,-0.7139743229786822,-0.05347194574710559,0.7719296590630902,0.033329378498618376,-0.004905928475260674,0.02602216963523711,-0.05285392203052696,2.2734375
-0.007189915731932012,0.005298186984821969,0.018796459556240295,0.021014285372609423,-0.0181900085081495,-0.010357219363268996,-0.011224955414594649,-0.7810868425750466,-0.058456632735505,0.8442947894046212,0.036540032905949114,-0.005468274652016541,0.028668081543584224,-0.057733313407888946,2.28125
-0.006539179142568997,0.00484974849534827,0.017206096574445977,0.019208596444850783,-0.016720690300820386,-0.009473438801543293,-0.010283313989130594,-0.7134352255307098,-0.053487148482631516,0.7683199312934155,0.03335477455651226,-0.00493977796041525,0.026144192732800865,-0.05257994695835137,2.2890625
-0.01850391414706477,0.013319054866388154,0.047311771988211675,0.053465780322708524,-0.04458615190886954,-0.02645420343209447,-0.028478902006686707,-2.0124568291333302,-0.1518303186142663,2.161272155913393,0.09400611753110556,-0.015030471698117142,0.0746396688195128,-0.14791177147965617,2.296875
-0.03015126838234377,0.0215491071252826,0.0766105204498229,0.08682852770499012,-0.07166686164057946,-0.04296552565663491,-0.04615832657628324,-3.2743441812526624,-0.24711214104865914,3.515683458105336,0.15293150768205857,-0.02482512135809427,0.12179752294711887,-0.2407943933397968,2.3046875
-0.023052204644037882,0.016515464820614122,0.058725968439066766,0.0665341902685387,-0.055091118113471234,-0.03287092193666848,-0.03531961213450103,-2.503127102183248,-0.18859668752353143,2.686563949969217,0.11687262449982141,-0.01879972021380163,0.09301095635332988,-0.18438520197212754,2.3125
-0.0004529711292383488,0.0005275122086985166,0.001770350580494505,0.0017874377514183735,-0.0024517244627784533,-0.0007563581789893353,-0.0009006429439176745,-0.052316599649906606,-0.0033372472505637544,0.0550925083524775,0.002364826328295466,0.00027938281038464616,0.0013904678235002682,-0.004338869656168501,2.3203125
0.01994009445233568,-0.013891315335116271,-0.04970267752799887,-0.056723377208878885,0.045034573296092034,0.02826717815862018,0.030192838832559174,2.158476019036181,0.1635411682743991,-2.316810868285457,-0.10092643056582157,0.017485352479143915,-0.08136727566828013,0.15824521045718354,2.328125
0.028295010364991942,-0.019797540142129075,-0.07084753399645252,-0.08073050383646056,0.06450970566715981,0.0402030392452703,0.04299698973571133,3.0635662590961226,0.2318011099490436,-3.288373098692134,-0.14327776226358924,0.024558567541037676,-0.1153467528849886,0.22474871310157024,2.3359375
0.025380310414262672,-0.017740419514759742,-0.063490941052912,-0.07235503547787692,0.057757795904995614,0.03606920944884177,0.03860540840084211,2.7467570215397523,0.20798594291920497,-2.951116288821354,-0.12858179887810814,0.022140660070813892,-0.1035405019814258,0.20127785796738235,2.34375
0.012943809156355304,-0.008947783654464211,-0.03204220710049946,-0.03665430227589051,0.02878949194680278,0.018332258688959175,0.019608590229650735,1.3982428140650403,0.10630835381546534,-1.5048124949885338,-0.06558809727648411,0.01164543396499778,-0.05302183294777189,0.10209451120672047,2.3515625
-0.004249874991640354,0.003221805201566264,0.011385182161477974,0.01263223177320956,-0.011328255138856776,-0.006173070528843664,-0.006700408777239736,-0.4656799900930774,-0.0344992578250534,0.49948848702304477,0.021633016739937002,-0.0029376314346134225,0.016786659558440227,-0.03470231276771291,2.359375
-0.013929561968925417,0.010084595468664765,0.03579460685564155,0.040337613137114856,-0.033951906532901734,-0.019947513041347956,-0.021518608504146705,-1.5155791028274594,-0.11400104916799174,1.6305306736051979,0.07082461965759493,-0.011192500280720209,0.056049543017862156,-0.11163222919987008,2.3671875
-0.010138336711674203,0.007409961891403453,0.026213179089463624,0.029453343519898628,-0.025124748925339547,-0.014540031065848565,-0.015721990343918586,-1.1054064196033095,-0.08315820853925696,1.189795555098486,0.05165835820805405,-0.008008721247179806,0.04064274040176709,-0.08147238538139014,2.375
-0.005346548430506259,0.0040112598063055446,0.014151450330923082,0.015749152727227107,-0.013903680541376731,-0.007728230961507849,-0.008373102448562533,-0.5857050131967783,-0.04388460505687651,0.6291520624441572,0.027296616560288683,-0.0039126878575380004,0.021207844871714596,-0.04340994785382332,2.3828125
-0.010986480460987583,0.007986342544671553,0.028411605479973758,0.0319504886132682,-0.02699584384540191,-0.015764149053028354,-0.01695868985858688,-1.195486105697133,-0.0898902173088744,1.2836319456918575,0.05577538606492271,-0.008624788442789556,0.04410602542208252,-0.08827234024173303,2.390625
-0.01567850936460877,0.011299820360018711,0.040210120287091,0.045383577382818806,-0.037926313802280204,-0.02242160209050132,-0.024118283705880168,-1.7025531236647526,-0.12820904685431084,1.8301313260173562,0.07951890899630723,-0.012579598498853628,0.06312076090911695,-0.1254482782391661,2.3984375
-0.004186942218687692,0.003175232196657627,0.011128211738709676,0.012377978665056858,-0.011168688066773964,-0.006032786281370454,-0.006587716013083814,-0.45662481390726883,-0.03415520451245863,0.4930495832601308,0.021306625583491,-0.0028923818829485457,0.01644734979914253,-0.033779644437551146,2.40625
0.012952658615516576,-0.008945464388644667,-0.03214566190538325,-0.03679919824442015,0.02876817689984512,0.01836437475450214,0.019562370331573015,1.400665772622691,0.10613429878577951,-1.5029207963254914,-0.06553934498898385,0.011578330383084812,-0.05310794452478233,0.10272273111916554,2.4140625
0.01430311227264517,-0.009905625413276732,-0.03549392017511453,-0.04063369774668928,0.031938491561364024,0.020257968376885323,0.021622725576579706,1.546791122015175,0.11729418805357555,-1.6620324632181556,-0.0724183023594956,0.012741258369890105,-0.05854280378936309,0.11334343912021315,2.421875
0.003287909506876096,-0.002120625106801349,-0.007658714056628504,-0.00896331406950677,0.006290595754585791,0.00456426022852523,0.004824161108213458,0.35276943431655533,0.027298942162706473,-0.38119392192257207,-0.016637733075627027,0.003467166928336023,-0.01379357170630934,0.02541463933355052,2.4296875
0.00130760371554108,-0.00071595015596632,-0.00270654437199386,-0.0032398608720948237,0.0016597703347399318,0.0017616329158453299,0.0018159663521199907,0.1372106608732144,0.011086489844098886,-0.14967236775197845,-0.006573407319925203,0.0017967888390909184,-0.005745582193644232,0.009509609920497878,2.4375
0.010655599109117684,-0.0073151558669765524,-0.02634196513112583,-0.030093813083140276,0.02339848872007042,0.015084800411371524,0.016076331576856697,1.1493038960223285,0.08735016158934905,-1.2346963919047533,-0.05385322854649824,0.009658512223381602,-0.04370390724611844,0.08404423327060835,2.4453125
0.011626493735681148,-0.00799681609041538,-0.028751894343405016,-0.032948707077526916,0.025637755798433467,0.01646250353325433,0.017533299852986548,1.2553462792656793,0.09510937737464756,-1.3459153708270213,-0.058723599549790985,0.010441872709538164,-0.04767148286967317,0.09202371093223428,2.453125
-0.003205201372280227,0.0024842455884016156,0.008750483533707845,0.00960287721422544,-0.008905191771448594,-0.004662210052587265,-0.005115227811105711,-0.3499090884582759,-0.026166827649271435,0.37894960398446814,0.016393511049497517,-0.0020906748712710118,0.012509440174807183,-0.025994735186803994,2.4609375
-0.015776170383999866,0.011367734635789613,0.0404875186825622,0.04573952060482666,-0.03818274624848009,-0.02256325259606721,-0.024283382064684226,-1.712309896229376,-0.1289117599100753,1.8404869110378108,0.08005203861546137,-0.012691069147476529,0.06352907808747998,-0.1263203704422634,2.46875
-0.010383603992071782,0.007560750625673892,0.026836567308420076,0.030281147255207454,-0.02563683217203099,-0.014889483532418509,-0.016026125046621018,-1.1309014258651693,-0.08493160027312815,1.2145050236302977,0.05275325646163631,-0.008127532721401239,0.04163205235599773,-0.08362783653994026,2.4765625
0.002242406166195468,-0.0013589016296873598,-0.005064821332062857,-0.006048127295617073,0.003767291718407565,0.0030887072702439336,0.0032492578426260646,0.23563996468610107,0.018206476007414346,-0.2521559465165744,-0.011196766015813561,0.0025282079630010476,-0.009649358648591615,0.016979500185994072,2.484375
0.0015241837295144512,-0.0008528661032190632,-0.003271076346767666,-0.004088528669549141,0.002117215559417533,0.002082436792820413,0.002134006312244559,0.1597511217393719,0.012476543398087545,-0.16874422079469248,-0.007593205098656346,0.001909477020662603,-0.00676581090539904,0.011510960726693853,2.4921875
-0.011426731823045589,0.008299812034380606,0.029404763097957837,0.03310011253038294,-0.028030833098005126,-0.01634330330762157,-0.017651196912678593,-1.2419539993634467,-0.09325075863692098,1.3355721001779826,0.057994852222766936,-0.00903278446349343,0.04582633525034677,-0.09160270105695484,2.5
-0.014818888990433394,0.010701053017356956,0.03797884642895659,0.04294499133866268,-0.03593677987339103,-0.021182908870422016,-0.02282641131420337,-1.611428170303643,-0.12107576338955474,1.727911535557321,0.07520656792166315,-0.011884901475891071,0.0596754587251001,-0.11888311261180996,2.5078125
0.0008063028962420835,-0.0003452739964297395,-0.0014215988148116583,-0.0018319804973748754,0.00046829924616288823,0.0010441589015758414,0.001040564303057502,0.07982148153275895,0.006578769612150119,-0.09129768790573964,-0.003953463537157597,0.0013427322896881375,-0.003693206117968211,0.0054015114648888665,2.515625
0.01718802242396345,-0.01193847347001898,-0.04273473106785831,-0.04886955909109541,0.03866203691895132,0.02436045150523513,0.02605318243795317,1.8575417145107886,0.14073455577283697,-1.9973731843729834,-0.08701119540420019,0.015202521346896088,-0.07021869081003086,0.13608626717534716,2.5234375
0.015386045288597041,-0.010676791919383503,-0.038165096628784555,-0.043746150878248895,0.03447275412575488,0.021790795567363477,0.023281072072144575,1.6667837227874234,0.12629694955670387,-1.786089278458894,-0.07791751799848298,0.013666078318914936,-0.06296559764230426,0.1220958953576234,2.53125
0.0032958097158446655,-0.002126482406179961,-0.007638639679403797,-0.009061296713116722,0.00626533780615551,0.004565282982996491,0.004787348132323858,0.3573728986205492,0.02740044757273328,-0.3771637261832752,-0.016610107898166915,0.0034132605376735927,-0.013886527344788345,0.025954254126940468,2.5390625
0.0005523505688757947,-0.00017478397337671923,-0.0007379416181394752,-0.0011626186754117157,-0.00016659064253447527,0.0006609751370041429,0.0005884062025800967,0.056783532901591216,0.004671286725199474,-0.057847100718168364,-0.0026484936217402596,0.0010799008828767304,-0.00269246489174808,0.003977209581048306,2.546875
0.007057906973357485,-0.004769192360342309,-0.017218989849148332,-0.019786614862774204,0.014995801212660028,0.00995394757868101,0.010562320157381327,0.7588424976890018,0.05769289351155471,-0.8170120195231737,-0.03561994818192205,0.006607364080879642,-0.029079670658728428,0.05553100037404025,2.5546875
0.005999158704696081,-0.0040242055612189085,-0.014580586072586839,-0.01670380757339905,0.01255243048882221,0.008472226305183102,0.009001242612339533,0.6436453999575893,0.049076850692551514,-0.6953949476906813,-0.030294328882534333,0.005752821598763799,-0.02481917559350811,0.04684798168204704,2.5625
-0.006675551927533114,0.004936746029278586,0.017448556781266316,0.0196749875377129,-0.016982215306394693,-0.009591178717989094,-0.010353604594590015,-0.729314421266358,-0.054492302806082825,0.7804178333889639,0.033937284237125505,-0.00496222962240799,0.02661031388494814,-0.05419486432232835,2.5703125
-0.015872387055034753,0.011446003610795558,0.04071014201077667,0.04600803330293621,-0.03843192653239714,-0.02272324129942314,-0.0244593811630975,-1.7253995704719294,-0.12970814612130252,1.85303964864031,0.08059282266591551,-0.012786119758243708,0.06395988023214196,-0.12727374320929144,2.578125
-0.011217474783463455,0.008159176030537294,0.028938226542954082,0.032555863635244986,-0.027582811627763434,-0.016095721393855775,-0.017384789068991033,-1.2200437232800219,-0.09171735112460229,1.313068472400636,0.057035236133063126,-0.008892590870924321,0.04504302198097786,-0.08989772189013262,2.5859375
-0.0007015691252994673,0.0007171563052898644,0.0023256513943476715,0.0023206916329596367,-0.0030349723140739157,-0.001076409048067292,-0.001267954380291442,-0.07926333073252076,-0.005750098345376498,0.08873733750732024,0.003694023756630574,1.8862386402283647e-05,0.002269251145358585,-0.006025162489658534,2.59375
0.003765609678159171,-0.002455100258865131,-0.008975311821283723,-0.010481093241842829,0.0074285820757799955,0.005320980971633706,0.005638739405263545,0.40559723055203667,0.030931741781770092,-0.4335173166222627,-0.019059914459231435,0.0038591901129547824,-0.015925364294901975,0.029391677263280982,2.6015625
0.002772436038298952,-0.0017600053786416795,-0.006421812168130841,-0.007568820790969395,0.005118156374897078,0.003886591270471175,0.004122751786138504,0.297918205185998,0.02306057987706653,-0.3190339390438647,-0.014091339286011346,0.003047772857827964,-0.011852586631280674,0.021302626773394506,2.609375
0.003275464539147757,-0.002107039809856723,-0.007635692288715163,-0.00896763353628467,0.006222852999338822,0.004551394928812133,0.0048060112227023945,0.35141903162971283,0.02719390039880288,-0.3752494775071393,-0.01655404799491529,0.003429212856728297,-0.013797133156924754,0.025345903928886696,2.6171875
0.003403629621604687,-0.0021787797098787014,-0.007957068335363367,-0.009336010193031754,0.0064448258479194555,0.004715907945124536,0.004935500547575203,0.3633966143822349,0.027887085820316543,-0.38719889068727004,-0.01703439404792569,0.0034731366572780037,-0.014255464052370213,0.02649219035501297,2.625
-0.00406274470524353,0.003113143518449342,0.010854508045383956,0.01207183090065928,-0.010961478609212354,-0.005886771084419879,-0.006451078120855364,-0.4475884951164245,-0.03355338213114718,0.48102414881126304,0.02087580212354338,-0.002852112511075055,0.01605740116930926,-0.033017309188459326,2.6328125
-0.013804048315095817,0.009995702092671678,0.035444960792905045,0.04003363994744104,-0.03360590128564576,-0.019737547715101056,-0.02127724185218359,-1.5035483141511847,-0.11319426136738492,1.6108562119297054,0.07015464781516037,-0.011040557353611757,0.05558945549095451,-0.1107960976940249,2.640625
-0.008990370440869916,0.006573114797365438,0.023353465611902473,0.026255953925869106,-0.022338524532930424,-0.012907940819085376,-0.01391197735646377,-0.9800189643656892,-0.07341978691208148,1.0477122098207956,0.045629148591978,-0.006915764841935094,0.03605065126977495,-0.07253355342348955,2.6484375
0.012063530087400465,-0.008330135773072527,-0.029754401145360924,-0.03414188060321915,0.026731968445470083,0.01704311500515094,0.018216104417338487,1.3044493036880154,0.099156332231043,-1.4027321561150743,-0.061114674789168905,0.0108958125302619,-0.04941890312082541,0.09532519864485138,2.65625
0.026586529411193067,-0.018600007624868124,-0.06646070071159356,-0.07584237602097446,0.06055140821002683,0.03773695732911775,0.0403743186626113,2.879799750808082,0.217991451557417,-3.09130350524048,-0.13467047920264952,0.0231370648947999,-0.10840589867521726,0.2112203391622972,2.6640625
0.018151252990399498,-0.012623958804544389,-0.045224696907474084,-0.05166442880631869,0.04085427710544727,0.025751586095085856,0.027493268452602714,1.9644426043867218,0.14878335803382334,-2.107328995372252,-0.0918586392673105,0.015962856986965618,-0.0741988437639878,0.1440340029709335,2.671875
-0.0008355240919240872,0.0008103337454954136,0.002727827317067538,0.0028355785839569198,-0.0034173545393240126,-0.0012943640418546826,-0.0014908600455959865,-0.09560825464080058,-0.006707910549643427,0.1037497426333105,0.004378693076113183,-8.761270945658308e-05,0.0028822908726263,-0.007410990467445531,2.6796875
-0.01236370042474069,0.008961676797144559,0.031870031787637164,0.0359365636248285,-0.03025884583723406,-0.017727324096741392,-0.0190780326913515,-1.3459240736385794,-0.10103588937543427,1.4448996435804808,0.06276361757316455,-0.009795052504603368,0.04970579467083936,-0.09937791697078127,2.6875
-0.016974806602968684,0.012223853201855341,0.043454788819929216,0.04912341608667639,-0.04095922348385536,-0.024265576873079807,-0.026098424147634313,-1.844937470650309,-0.1388040442023482,1.9812655239907995,0.08611571394046533,-0.013682620709675224,0.06840748444599641,-0.13599253355445381,2.6953125
-0.017419263830103126,0.01254746853724204,0.04448642200655282,0.05032645020080522,-0.041993272822007044,-0.024855067401655755,-0.026775722733113926,-1.8923568894403202,-0.14261532876704128,2.0349574702355926,0.08842934626820395,-0.014103606641276181,0.07016773298486087,-0.13930092866236807,2.703125
-0.005389077904939182,0.004041608063650605,0.014143366510122884,0.015816783636853394,-0.013985280111623744,-0.007735329846509133,-0.008433735833247672,-0.5877697727906496,-0.04422719783660292,0.6357743738874498,0.02751450315563097,-0.0039679328883865045,0.02134317705953406,-0.04336101923688439,2.7109375
0.014059916826941325,-0.009729660108346225,-0.034842659375460064,-0.03989344772182982,0.031357233415430744,0.019906941287654325,0.021244227885970267,1.521698853169533,0.11519742209302669,-1.6314282379214189,-0.0711174731844651,0.01251288523034848,-0.05754488756660258,0.1114968492481608,2.71875
0.015951153697877828,-0.011082038180870816,-0.03959401175247091,-0.04526106390504482,0.03581074938713096,0.022581975937429565,0.024154069799428433,1.7270483658656905,0.13093169601143934,-1.8554454228442054,-0.08080487689357888,0.014172815189594418,-0.06520638562073129,0.12637932035213334,2.7265625
-0.0044798712860237054,0.0033791491098592173,0.011892676896343268,0.013307829545732308,-0.011821200128139546,-0.006479438905107177,-0.007008165276637812,-0.49035932408345845,-0.03644942844423003,0.5247010683516449,0.022769249362981733,-0.003106717599846307,0.017668745333909292,-0.03657281915470171,2.734375
-0.018151212652566674,0.013070699422330644,0.04635417547094409,0.05243425363524196,-0.043753481605088795,-0.02592186661280077,-0.027885266838668654,-1.9753102645426108,-0.1487064584406178,2.121358289043379,0.09217220164354065,-0.014723074135411818,0.07311116917534288,-0.1455071052670861,2.7421875
-0.008580549181706393,0.006299561399650452,0.022249333849177783,0.024936559278482897,-0.0214657152305175,-0.012302243556166489,-0.013300272073344388,-0.9364328852202806,-0.07035668212814639,1.0078633731918107,0.04366812708806712,-0.006646478971558068,0.0342739243000502,-0.06902573678351608,2.75
0.005447988198516608,-0.0036468606876404316,-0.01310074507223128,-0.01525184353122838,0.011278968359569753,0.007659328927680105,0.008111257358738445,0.5881402204034102,0.04484759886041355,-0.630126566342935,-0.027552025124277034,0.0052627639915308905,-0.02261904499691475,0.04293585814190828,2.7578125
0.010367260920535923,-0.007136327309410755,-0.025521716297866384,-0.02926104390783052,0.022768922187194916,0.014660388796075839,0.015637765150024213,1.1213376159609547,0.08530005949893665,-1.2066740674425969,-0.05253802584927077,0.009461045764659996,-0.042531378386467804,0.08192574452470056,2.765625
0.01714502281362747,-0.011915388033192021,-0.04265884886695216,-0.04866425234114447,0.03854531839034073,0.024305765936946794,0.02599193296714461,1.8521463317996085,0.14058830116047308,-1.9950022562062864,-0.0868285276867475,0.015181104002515626,-0.07000676863842632,0.13554153341453548,2.7734375
0.024591554927346115,-0.017169852459838257,-0.06145960566328572,-0.07010347470541006,0.05590228140143648,0.03490210535690716,0.03734827994059096,2.6582718696869554,0.2013615321118516,-2.8590516962689247,-0.12453556475267903,0.021452856756348972,-0.1002538413263123,0.19490122981232963,2.78125
0.011545395504547288,-0.00794622265088762,-0.028516624082081964,-0.03278986177665563,0.025517098577223098,0.01633261551898521,0.017414068312160278,1.247603749641763,0.09463142225792254,-1.3376510365947136,-0.05844033975366413,0.010407460641615006,-0.04737133761264544,0.09143463410475702,2.7890625
-0.018286267195651976,0.013152475008718667,0.04679069716543136,0.052772689364837935,-0.04404111541466756,-0.026129756872604076,-0.028146771237936123,-1.9838005150535885,-0.14950149450871167,2.13746256341681,0.09279741596383806,-0.01484504296018048,0.07367642432973288,-0.1459600194505857,2.796875
-0.03078487351117786,0.022005153252579124,0.07833648271391,0.088722248553382,-0.0732391811469861,-0.04392399731803427,-0.04724245986169957,-3.340833648040167,-0.2519582740997661,3.593381662435492,0.15627456978894055,-0.025454867059166757,0.12445172347064744,-0.24578133891133636,2.8046875
-0.016052987094335024,0.011593400750517987,0.041138920202372004,0.04656223932658592,-0.038918800689397466,-0.02295678151805248,-0.024741851217100895,-1.7468948795999235,-0.13154336251087753,1.876704540507844,0.08167424907939635,-0.013001874642741804,0.06471509531609847,-0.12879004782872885,2.8125
-0.0035787068235254254,0.0027599685495513487,0.009641215991915048,0.010808099282028817,-0.009794942336088259,-0.005199929305909963,-0.005660708014115335,-0.3946856883774475,-0.029392838634343995,0.4217880478503257,0.0183709317994888,-0.002401562199514603,0.0140801114923337,-0.02950809935595258,2.8203125
-0.008086867208288925,0.00593086475358459,0.021026709372131417,0.02370585236355154,-0.02025670156102115,-0.011620811398577015,-0.012520246097782824,-0.8812038713350517,-0.06605791268376388,0.945314086577224,0.04109010341908396,-0.006160809273772894,0.03233277267179606,-0.06527124846785326,2.828125
-0.005372264315387253,0.004000933921370402,0.014186353667502538,0.01584425154194859,-0.01391163609889608,-0.0077654075434996,-0.008395741598193639,-0.5847411430532604,-0.04361061897642359,0.6294510958929386,0.02725740809770345,-0.0038642742835811902,0.02127976163109496,-0.043407517052039005,2.8359375
0.0189176132452779,-0.013180245156923141,-0.04713744560303568,-0.05391388623355325,0.04272303408324878,0.02681328602377506,0.028663833428184713,2.049515532814153,0.155253914742939,-2.1982724427037197,-0.09586394223995813,0.01664829432669341,-0.07732794056296238,0.15029497892473032,2.84375
0.03645497840703683,-0.025580213255542123,-0.0914343381604121,-0.10423989606927406,0.08361273108651952,0.051802422245829094,0.05546257197517745,3.949816396514568,0.298643817103599,-4.240470301374516,-0.18473187264810692,0.03147811932207387,-0.14851632737055911,0.28996581242138236,2.8515625
0.01924422853029541,-0.013399601251516124,-0.04799748142990998,-0.05480252769159775,0.04347275787487117,0.02732888311208302,0.02923477781658191,2.081538586112986,0.15758631565448583,-2.237133644313021,-0.09747737086497334,0.016954196242839715,-0.07863867821856327,0.1525538549798118,2.859375
-0.012122190133581043,0.008791339345917932,0.031203697828346283,0.03523954928272588,-0.029674435482634945,-0.017327114134804898,-0.018652521108746708,-1.3202347508602428,-0.09915375565327154,1.4149898334981725,0.0615136161479792,-0.009557910963651073,0.048714872600029095,-0.09752255982780053,2.8671875
-0.017457505637802864,0.01256567730777292,0.04469185549069349,0.05051807554854302,-0.04211549320550655,-0.024953425670466562,-0.02685499352948822,-1.8973879935436027,-0.14270517953989806,2.0373811621424864,0.08857206174278168,-0.01410177581372215,0.07039322741018332,-0.13983168859053943,2.875
0.0003055250074510241,5.8381229144576764e-06,-0.00015630058373582566,-0.0005117289216235322,-0.0007081970245717163,0.00031916225090734585,0.00021766212249179866,0.029329113627211387,0.00262976814388916,-0.02901171774329225,-0.001405631740051388,0.0008700422117252997,-0.0017095545309667665,0.0019622851956297375,2.8828125
0.0031301383133505423,-0.001980884681802482,-0.007308489354788159,-0.008633379502964719,0.005851859193909964,0.0043637747781961195,0.004542719836918065,0.333700746484321,0.02549052029423489,-0.3572725566074357,-0.015666561606725676,0.0032397650843075175,-0.013183595420299767,0.02438617430605757,2.890625
-0.013893525629457061,0.010062508332191076,0.035660139369801586,0.040249891325866115,-0.033841606356648374,-0.019844694617806857,-0.02140185288621237,-1.5138940370677405,-0.11389819618622334,1.6229680482911208,0.07058080601099123,-0.01112414229942734,0.05590708567867398,-0.11156557957260992,2.8984375
-0.01349054072064338,0.00975935859104162,0.03466307030871758,0.0391383998499637,-0.03286170139840109,-0.019281501638192797,-0.020761131280223038,-1.4686181159546896,-0.11022519060057548,1.5734863927724094,0.0684185908393213,-0.010730214719245916,0.05425988757775975,-0.10845995964142,2.90625
0.012206331573908795,-0.008434554714606057,-0.030185713073792985,-0.034577855794686876,0.02707221758857235,0.01726933010270669,0.018456437161996513,1.3206831957192051,0.10043388709739894,-1.4179288687141618,-0.0618646640244363,0.011011599423336314,-0.050054505378268305,0.09650392910605064,2.9140625
0.020340437716043505,-0.014179766671339841,-0.05073247234671384,-0.05793749881257465,0.04599371283573365,0.02884028499760703,0.030842242399692802,2.203301957204645,0.16678733415009428,-2.3608102138284393,-0.10295912650955305,0.017833586441497084,-0.0830823870807033,0.1615753568554005,2.921875
-0.006378357811419701,0.004740679581479641,0.016688554309781313,0.018699206251371506,-0.016347410787575675,-0.009183676411062632,-0.009967941531762312,-0.6952726840659904,-0.05237296966718278,0.7531975910782299,0.03261298075496143,-0.00482171618884134,0.025358406613563426,-0.0512663734512296,2.9296875
-0.02613629516570962,0.01871773646256999,0.06658581616138243,0.0754080657734182,-0.06239097144530279,-0.037316039514167655,-0.04012443378779067,-2.838449175194723,-0.21411638350066636,3.051515932435605,0.1327249275652069,-0.02151161080566724,0.10557189196171758,-0.20886788877947757,2.9375
-0.012853185525428504,0.009305664993031008,0.0331190435452933,0.03735224969159802,-0.031369455550556195,-0.018431393197008542,-0.019827432687776068,-1.3981033112632617,-0.10502287688532623,1.500287272320166,0.06525559408669539,-0.010204648489497262,0.051703401482852934,-0.10326201558245854,2.9453125
0.00364064797568476,-0.0023651935646026136,-0.008506119160147877,-0.009957282030483995,0.007092218735678247,0.005051916040098222,0.0053611469582475315,0.3898869481389967,0.030108582883371888,-0.4216184738097297,-0.01838992809834205,0.003769517298746004,-0.01522046781462168,0.028077036569925683,2.953125
0.005007933744218483,-0.003320913918308141,-0.0120264769203544,-0.013923897159755835,0.010248554613514694,0.007039484104717499,0.00744464828908737,0.5377739220163432,0.041096994729726194,-0.5788924427011728,-0.025253872830310966,0.004879510286216092,-0.02079496650650776,0.03910182586716337,2.9609375
0.016129059031130495,-0.011187616141559966,-0.04012619329203427,-0.04583021444073997,0.03616004774491269,0.022886753454296055,0.024412161929110013,1.7445663696633742,0.13213286974874586,-1.872916475403228,-0.08160694996508505,0.01425293162115424,-0.0659417064112707,0.1278581298443765,2.96875
0.03684848389594539,-0.02585969898645529,-0.09234895970910095,-0.10518810943533503,0.08447138100834678,0.052338555295563804,0.05603106650049511,3.9922314147799938,0.3020304022761249,-4.286929471417458,-0.18669651884788016,0.03180834263714093,-0.1499909688939397,0.29289773880743575,2.9765625
0.025335257312368697,-0.017720010104410586,-0.0632443003210296,-0.07212145601246638,0.057640412648624184,0.03591831002848659,0.03846082707483664,2.7431165795941497,0.20782133084922683,-2.9471553439991145,-0.12837367187377022,0.022111990553859876,-0.10324198653601122,0.2010174627609279,2.984375
-0.01800676146296811,0.012955701109511568,0.04604771279654667,0.05208871598636776,-0.04338397564314466,-0.025730033560110326,-0.027667653889006705,-1.9581719111517693,-0.1473604166833388,2.101071895074373,0.09134938635501856,-0.014551150796357548,0.07259006870157797,-0.14429605833916262,2.9921875
-0.0356591038690452,0.025455178076427838,0.090469741070321,0.10253497478460326,-0.08450721477897861,-0.05078701362223042,-0.05458230709583945,-3.872243636005311,-0.2921151989623286,4.158375073985858,0.18083701531818147,-0.02951275811853988,0.1441223313845945,-0.2847073282757686,3.0
-0.010659572633437604,0.007762010470412459,0.027387874739766456,0.030764482010317458,-0.026217648125290035,-0.015207734294042869,-0.016437142843585405,-1.1593026045731132,-0.08724615050987611,1.2476757422292595,0.054093872702018146,-0.008385148774139223,0.042626028340069996,-0.08530104383148089,3.0078125
0.006750542149535713,-0.004567691893913445,-0.016442559623438376,-0.019058889983788005,0.014347068883274932,0.009510225194919446,0.010096386877250455,0.7303667374425277,0.05554341792852245,-0.7805925019749255,-0.03413922118802387,0.006341619650359,-0.02798248556726372,0.053408351500738326,3.015625
-0.006682321161769952,0.004936207016227561,0.01749997910966389,0.01960923068115548,-0.01699005163191193,-0.00963515668360905,-0.01041067752596804,-0.7272268535251987,-0.05454099963442127,0.7826078887231308,0.03400930061092511,-0.005011153114294162,0.026599373935855212,-0.05383531434537522,3.0234375
-0.014411324597609021,0.010416181235184292,0.03697495291256768,0.04179021574305343,-0.03501201758884012,-0.02060882622393189,-0.022172794098746382,-1.5683897734209942,-0.1180834523299283,1.6828556007481295,0.07320456628965634,-0.011536073634774208,0.058000595345240324,-0.11564201029239961,3.03125
-0.00010401990319911581,0.0003014729894088661,0.0008778951125046929,0.0006650971075424895,-0.0016658333207213705,-0.0002331862630151388,-0.00032956722744989324,-0.01855482826643121,-0.0009496872632856259,0.018529747907705754,0.0006428067149663934,0.0005695961416794662,-6.359823506245925e-05,-0.0016742112276087878,3.0390625
0.006818617179668656,-0.004600342095806816,-0.01654228781907828,-0.019233771985989787,0.014454881468010026,0.009596951319110768,0.010192679452124901,0.733877388544469,0.05596797627163427,-0.7863026363993885,-0.03447254354947096,0.006412213776557348,-0.028165385915158457,0.053661877982644594,3.046875
-0.0001617253021750277,0.0003306790534781567,0.0010728527210073866,0.0008767227928681001,-0.0018248545366513793,-0.000348977741544172,-0.0004967563503052129,-0.020530743293694184,-0.0010237535559943869,0.02525132112617118,0.0009374924751798339,0.0004920498813601946,0.00019443184141113143,-0.001819641369590493,3.0546875
0.006111874932745482,-0.004107337789477541,-0.014802606467642842,-0.0169547325958164,0.01279920127720885,0.008591642248777726,0.00908655974536908,0.6593158456254976,0.05027092940378945,-0.7078870924070567,-0.03080651521566801,0.005793816772126007,-0.025185267573015802,0.048015463105775,3.0625
0.020610941224090608,-0.014357025562655133,-0.05139480729600268,-0.05844301534527806,0.04658051334448444,0.02922681628491449,0.03123937416111349,2.2286546568582115,0.1688096647367335,-2.396639747476693,-0.10424671979000145,0.018058979721678557,-0.08397464802625866,0.16320344501029702,3.0703125
0.010300788098741163,-0.007059483889442017,-0.025340193727389947,-0.02891533022859997,0.0225287564264999,0.014538546687670514,0.015518245865263213,1.1095220007955606,0.08433967977691521,-1.1939485751366856,-0.05197826075582312,0.009342061169877293,-0.04219323192421992,0.08089842416765503,3.078125
-0.01336421119265555,0.00967188381913729,0.034383097261187434,0.03882370814123831,-0.03260583283505863,-0.01914071581310849,-0.020588860511029497,-1.453867840285408,-0.10922033820817603,1.5627438374814588,0.06789269675354591,-0.010661748816311533,0.05371255915104401,-0.10745109832614522,3.0859375
-0.007329139104364488,0.005386441670495024,0.019114986645070192,0.02139155865785819,-0.018471129917134555,-0.010536018650890426,-0.011374617883558386,-0.795763905826441,-0.059512432010680724,0.8584828381941252,0.037183638118043365,-0.005546295177817351,0.029136751238810515,-0.05900679177757349,3.09375
0.01969211179270047,-0.013730646947541442,-0.049103014626075935,-0.05615992019371383,0.04454415245715223,0.02792826114158089,0.02985458268079327,2.1346412570549735,0.16171234773537552,-2.2889973012910803,-0.09979901675014714,0.017298168575795057,-0.08050992516706484,0.15646961190297057,3.1015625
