AF3,AF4,F3,F4,F7,F8,FC5,FC6,O1,O2,P7,P8,T7,T8,time
-0.021071865557599417,0.015140633227772368,0.053752443283244626,0.06079936859945245,-0.05060075806298444,-0.030095881599054745,-0.032381530239286686,-2.29067390296217,-0.17260287257364118,2.4649834399804513,0.10704486548720282,-0.017228894371932448,0.08495884128373112,-0.16859491036110555,0.0
-0.0012608583708210175,0.0011241389812948787,0.0037376279969349208,0.0039253638297510355,-0.004379228926193109,-0.0018813538995236891,-0.0021304750726888347,-0.14234638239508796,-0.010586940926983757,0.15542871371434275,0.006603998783719452,-0.0004710949619269937,0.004546796605426151,-0.010584478319520401,0.0078125
0.023183305877641242,-0.016195153257042686,-0.05793470938688153,-0.06609055041371183,0.05269175460408698,0.032922513506104124,0.03521463015495391,2.5116597440890294,0.19000287824028422,-2.697766846671315,-0.11746293320345437,0.020270065202733924,-0.09461364871393006,0.18419701637564906,0.015625
0.019266376335589388,-0.013440908501329753,-0.04802396848453819,-0.054758810343608647,0.04358492173288528,0.027339481764524835,0.02925243462661357,2.088436665906351,0.15840898548600135,-2.2441780717796465,-0.09771467492935129,0.01700836511162089,-0.07867763823369134,0.15280661564783732,0.0234375
-0.004343409623836279,0.0032782819836801418,0.011585360030468823,0.012936609710657935,-0.011533953206849643,-0.006289151825630142,-0.006810481773289796,-0.47498176060696434,-0.03511245416093921,0.5094604860519583,0.02206323853812929,-0.0029887256478209577,0.017147189090552697,-0.03549328154088257,0.03125
-0.018833925022942285,0.013555783842618623,0.04815376095159431,0.054386200789280525,-0.04539816699104651,-0.026918437672486775,-0.028959361559028802,-2.0497011332717796,-0.15435772375397291,2.2023519376417644,0.09568255608120288,-0.015311384403195051,0.07592111016561116,-0.15086587309110647,0.0390625
-0.02098154093996411,0.015077180542130883,0.05354334555475272,0.06047066602588322,-0.05040082877947405,-0.029951298583856156,-0.03223889254108682,-2.2813165812594445,-0.17210071103977992,2.453398613433327,0.106578482962181,-0.017152104590503373,0.08458674983138034,-0.16768842564183545,0.046875
-0.018846222278334032,0.013548528513510847,0.04815505987771663,0.05440684164278219,-0.04536612801490237,-0.026905148396951392,-0.028972983660276463,-2.046429526683654,-0.15421849941065519,2.2012046429189422,0.0956304953757733,-0.015313453514364814,0.07593621001009007,-0.15057953241240613,0.0546875
-0.005927125485392767,0.004399318681090076,0.015600331823782313,0.017493785986355093,-0.01521259577425288,-0.008546204795910395,-0.009257564766370133,-0.6455323010918063,-0.04815512074282939,0.6926038485137763,0.03007771629653339,-0.004345391063601159,0.023606504672060033,-0.04790430435614079,0.0625
0.015149160520249637,-0.010503464994976341,-0.037579523168616485,-0.04292185181228009,0.033933261987162185,0.021440128333882827,0.022924604917307228,1.6370069220459296,0.12421566222680541,-1.7630681339333416,-0.07671970773577513,0.01349446766294982,-0.06187163666097202,0.11977782805692225,0.0703125
0.02106571840717482,-0.014680258525636557,-0.052577887319857554,-0.06002653250494297,0.047737098526828024,0.029896457587052783,0.03198316646778702,2.2776098957536477,0.17240714420696962,-2.4501678961361684,-0.10668416313131576,0.018485722454126153,-0.08596009973489294,0.16702660916066284,0.078125
0.006543970019774833,-0.004406710272107838,-0.015956835204305988,-0.018480786731172472,0.01386841698091297,0.00924626392629801,0.009803537159003275,0.7049260317798596,0.053624205490623,-0.7563810072361681,-0.03308241467753621,0.006173375495953829,-0.027109619777886385,0.051557308762064616,0.0859375
-0.0047076330497577,0.003552443061743963,0.012533591236821844,0.013895401611082148,-0.012426855784619285,-0.00681846523961203,-0.00743581131173235,-0.5140399593774335,-0.03829490368154267,0.555440574543036,0.02401130385527102,-0.003377856737915488,0.018608387316825115,-0.03813760987307337,0.09375
-0.0011727307292044033,0.0010551744058478303,0.0037028085455977893,0.003935470715881659,-0.0042440791665542404,-0.0018395595681035346,-0.002067233801964993,-0.13237491151417985,-0.0094763148168222,0.14391972119199514,0.0062054060733203655,-0.00039693173889913757,0.0043650506901882595,-0.010240096802955933,0.1015625
0.0038972483168524504,-0.0025327486954933513,-0.009158460179498179,-0.010594534048916528,0.007608561614749338,0.005411947927063075,0.00573730605330564,0.41606387455245025,0.031832314852942634,-0.4482006869571905,-0.01950796147398766,0.003931413901376954,-0.016229011049067776,0.030044859309075297,0.109375
0.003309039553854285,-0.0021280920156791063,-0.007813753286664154,-0.009038133866196637,0.00633813253710779,0.004656524899600795,0.004913808020138779,0.35405364502175884,0.027221333589404834,-0.38297886742994897,-0.016707161810297376,0.0034900954794930797,-0.01393849311974975,0.025520760606731814,0.1171875
0.002612782109928664,-0.0016457203314654716,-0.006076531013533263,-0.007118512237505286,0.004759141936440351,0.0036799765239377935,0.0038325333770869064,0.28156807454746186,0.02191817688864337,-0.30314910544596263,-0.013302930377058686,0.0029065544454952392,-0.011140724424171463,0.020224722736567724,0.125
0.0016296887986215409,-0.0009462935675607883,-0.0035035502260937516,-0.004295837407049461,0.0024048824340815117,0.002224723998985695,0.0022620360978219773,0.17573047209160425,0.01382236627592686,-0.18481641710231997,-0.008229947439620305,0.0020198689108189487,-0.007126293138407271,0.012586193540359603,0.1328125
-0.0019099331536510987,0.0015702021699650927,0.0054575011483910035,0.005831696625864286,-0.005915605971118707,-0.0028371700748217638,-0.003147458432943938,-0.20996924935185665,-0.015642558320861744,0.23250067127739632,0.009864430872359905,-0.0010186786001706596,0.0072108085631982935,-0.015552152889170178,0.140625
-0.003579820955963998,0.00275684949843241,0.009602409684477951,0.0105897827565437,-0.009791943945807291,-0.005177373518412137,-0.005635001794292046,-0.3932353627733866,-0.029586102827284848,0.4266934442717814,0.01833702903461395,-0.0024103090009972164,0.013940515473652706,-0.029018771736143364,0.1484375
-0.004099998106350649,0.0031189621069038333,0.010894932416622049,0.012142545931768434,-0.010952574248585829,-0.005902330211091117,-0.0063998947679295036,-0.4502580104327757,-0.033619529421943635,0.48220808387541636,0.02088315237922848,-0.0028010452308266523,0.016082193071208076,-0.033472633874837565,0.15625
-0.008673678177345573,0.006346909888634502,0.02251286484142529,0.025353795970366338,-0.021611575511009513,-0.012450759780939426,-0.013421854857080924,-0.9451302250081808,-0.07073190936255043,1.011847677882803,0.04403438902301919,-0.006660470100255274,0.03471067177503186,-0.07004834112068418,0.1640625
-0.010197708483645438,0.0074250905796972005,0.026399940761134263,0.029706706019856303,-0.02519534744225476,-0.014643159732919676,-0.015790515951672874,-1.1091346738694636,-0.08316045142688995,1.1912498166013734,0.05179622923695071,-0.007984815805444283,0.040897111592182914,-0.08201023269680395,0.171875
1.1387837712146871e-05,0.00021163332729118154,0.0005881765050552598,0.00032782520360605645,-0.0014123816103741185,-8.710921381423606e-05,-0.00020447286418377364,-0.002865901502716426,0.0002071057500872544,0.005310430708299882,8.013710971964696e-05,0.0006218809971890623,-0.0005670069382150054,-0.0004839169386020279,0.1796875
0.010229676532708495,-0.007007629558308311,-0.025216538690355353,-0.0289888857564443,0.022397532809203393,0.014468529176814472,0.015406808677224127,1.102349430778284,0.08363611838437966,-1.1843226947050955,-0.05169679215839464,0.009274431298392472,-0.04200361565949753,0.08080438309265132,0.1875
0.005853284903871117,-0.003912911609181693,-0.014102802361344145,-0.016323578850555277,0.01218091418986686,0.008204905428581514,0.00872016252515447,0.6263608483799484,0.047821534634386535,-0.6763133218615855,-0.02950946827221575,0.005603651939614151,-0.024167395927675684,0.04567006529145773,0.1953125
-0.003670219916182645,0.0028121888141128524,0.00996717018807973,0.011081237108575191,-0.01000500912786879,-0.005372510743725167,-0.005824581038364447,-0.4038678120514126,-0.02984515711160738,0.43161520154070127,0.018728253013132908,-0.0024344001519794236,0.01449736437500564,-0.03022372940891752,0.203125
-0.0021973302000748,0.001763304025432203,0.006174819594674737,0.006813578332449133,-0.006528327235790078,-0.0032438417939063364,-0.003569456558986647,-0.24063233278525703,-0.01755051487396403,0.2605809490874065,0.0112259437004244,-0.0012032360192299593,0.008460585146704233,-0.01821972453821976,0.2109375
0.007003252295185817,-0.004737853985035016,-0.017127855227817623,-0.01969479317990129,0.014942699761958278,0.009897446556536158,0.010484647958221934,0.7574065604270037,0.057592370841651,-0.8101073740654842,-0.035390035106386095,0.006550480971234851,-0.028934339912918782,0.055331773384180334,0.21875
0.013094648869267974,-0.009040404206515524,-0.03248843993814327,-0.037225382770079994,0.029143161366236438,0.018580192194205807,0.01979440237234734,1.416172297893321,0.10713924361905454,-1.5206721859464591,-0.06625102421446555,0.01170275120837828,-0.05365974162679056,0.10389093905733729,0.2265625
0.013013949310190797,-0.008993210719657392,-0.03222792600159454,-0.036930614372822856,0.0289675704523735,0.018453024515749834,0.019691000596925627,1.4073788108448826,0.10657072888265878,-1.5138841415633273,-0.06591227484774206,0.01167486967677635,-0.05330322261027276,0.10311381859771922,0.234375
0.0034449816242524377,-0.0022354381256953475,-0.008067531284276298,-0.009383140887813179,0.00666136499281708,0.0048181074951379336,0.005092648650306061,0.37087218966003516,0.028598778230932185,-0.39979118305284317,-0.017468808966282542,0.0036118148424842387,-0.01444528940401947,0.02670266091236578,0.2421875
-0.015654267980970117,0.011286665530710336,0.04010323477273194,0.045389566069016674,-0.0379157074162478,-0.022379055982454845,-0.024084276779786046,-1.7014320932328129,-0.12780714634652524,1.8281967341696845,0.07943375987147842,-0.012574376057715893,0.06304859543346335,-0.1255724478161125,0.25
-0.02651129146643238,0.018990483679942213,0.06747925594739684,0.07639490060434548,-0.06328525047706263,-0.03783524554597815,-0.0406849595774899,-2.8815002285109217,-0.21718870407567653,3.096781038082882,0.13462581534532278,-0.021824266015804568,0.10704542030395006,-0.21201675455187105,0.2578125
-0.012804171524043237,0.009296632198155148,0.032885237878108375,0.036991337683306966,-0.031323023393890224,-0.018318189586595226,-0.01976055318040589,-1.3951437483662568,-0.10515718940099418,1.500954923597569,0.06516257700423811,-0.01025267942862413,0.051366204313532025,-0.10264629472825089,0.265625
0.00986207802820482,-0.00676030445320357,-0.024288541275713747,-0.02792340915542612,0.0215650048888855,0.013937258903710842,0.014854101572246663,1.065514015490621,0.080853830289464,-1.1415324989621647,-0.049866446921358144,0.0089647704976774,-0.040585035594379947,0.07797218900611419,0.2734375
0.013947438505173233,-0.0096672817132372,-0.034541984906536836,-0.039471314592925175,0.031099753782494605,0.01972391243507245,0.021090467428611252,1.509744242432263,0.11471045924421679,-1.6198553727206217,-0.07066266100200604,0.012470534005026963,-0.05707160859079043,0.11034411941585996,0.28125
0.0015523933017969102,-0.0008911081663090458,-0.003231848921997254,-0.0038992061761682116,0.0021809788992225515,0.0020714439493991475,0.0021659291220579415,0.16405759600824438,0.013027886957205284,-0.17645880373359824,-0.007771225236095298,0.001982332867180546,-0.0067347857168946436,0.011479709000574467,0.2890625
-0.005033708319374962,0.0037833628162607944,0.013342766172937575,0.014846996428832753,-0.013175650894377994,-0.007267578649188942,-0.007876863964973023,-0.5511444868892792,-0.04131963726624735,0.5920460397950669,0.025699268436786635,-0.003626549039437265,0.019929971073140096,-0.04081589729339548,0.296875
-0.0013083059733721837,0.0011486212522913626,0.0038829136112060528,0.004058795634734766,-0.0044726308886854005,-0.0019326678151653167,-0.0021891915785248453,-0.14586142697032084,-0.010801698708831834,0.15897696253926571,0.006791244375875501,-0.0004913027132562211,0.0047543559766800355,-0.010888330481526154,0.3046875
0.00142828238929776,-0.0007978230739413882,-0.0029953046060577555,-0.0037256088986888235,0.0019148922670202731,0.0019358010565677273,0.001959152466309287,0.15211793509395125,0.011963037389124694,-0.16095183758679604,-0.007163827761681087,0.0018436941223060155,-0.006309225593540928,0.010895289094191652,0.3125
0.0027470908582849945,-0.0017352961177895486,-0.006257141999227197,-0.007390388374703444,0.004997357044900028,0.0037675525496290805,0.003957547646930998,0.29422982893849575,0.02286044596860254,-0.31674754116524456,-0.013870769820577722,0.0029882005876217753,-0.011579734230966223,0.02116980282172592,0.3203125
0.00936830335171639,-0.0064139458235074704,-0.023003460516367,-0.026379474983125335,0.020464476063035943,0.013214107954000706,0.014109010825903417,1.0104567497134496,0.07682003620518069,-1.0891894758198302,-0.04740732833499077,0.008607992663804999,-0.03844756000217752,0.07378359081979008,0.328125
0.015097818225167118,-0.010462081169298374,-0.037587605405527316,-0.04291668067411625,0.03384751224449897,0.021444660829426407,0.02290906591690822,1.6312641636762373,0.1236165673046432,-1.7563818484479743,-0.07647015195402908,0.013459717447453303,-0.06177156985778638,0.11949108414696424,0.3359375
0.008304030256651832,-0.005655773241869622,-0.02046814959975381,-0.023487192751222293,0.017981095702242846,0.011793502373248506,0.01251650047860304,0.8955513248069588,0.0681873618373048,-0.9638255984034264,-0.04206664783873099,0.007691738663891997,-0.034233299507753154,0.06548176293431818,0.34375
-0.007072715365010168,0.005224773603648673,0.018475262837930266,0.02068527238249546,-0.017939148581630524,-0.010164504928740804,-0.011035990189010832,-0.7709611436275761,-0.05764604279075305,0.8297641040317547,0.03595569409739456,-0.005364399204959287,0.028226037041076613,-0.05697729447650281,0.3515625
-0.015416089538237159,0.011135811074222573,0.039649455608838015,0.044721272297057746,-0.03743821562772232,-0.02210059375928296,-0.02380231317003913,-1.6763070498577428,-0.12626994642496206,1.804249768547568,0.07840424686351875,-0.012457306330385625,0.062148649688148226,-0.12351488628684142,0.359375
-0.011542246009195331,0.008399747759048183,0.029818845347461185,0.03362891044269633,-0.028384053542284803,-0.016558815845780273,-0.017832003142223746,-1.25778903089536,-0.09480239361502851,1.352753007636564,0.05880024015569962,-0.009157565044927374,0.046407965449652214,-0.09281082636742614,0.3671875
-0.006285984808691597,0.004671122074320895,0.016429581704309425,0.018478053362481463,-0.016067619005471576,-0.009019793270963559,-0.009749560931255273,-0.6878199886147285,-0.051528471651469135,0.7370495258275808,0.032007341949765,-0.004654073214612075,0.02499433237142242,-0.05101464274112375,0.375
-0.007636727436256662,0.005609505045872815,0.01981275475860545,0.0222718847753725,-0.01918374890558482,-0.010938273777434419,-0.011823719423476653,-0.831504824457774,-0.0621456557914426,0.8922383871673782,0.03871843549310424,-0.005775942476743447,0.03041153030998724,-0.06157664344907544,0.3828125
-0.00739562040797832,0.005432656584711462,0.019254230068089434,0.02155284821877182,-0.018640205770634563,-0.010623763488851063,-0.011501406403077724,-0.802408380121009,-0.060068389893891586,0.8663118132244187,0.037524755570080885,-0.005609505441400961,0.02942484301892636,-0.05930216737247463,0.390625
0.0028256789575323007,-0.0017885606638969977,-0.006529741689033139,-0.007747191227918686,0.005156081749298469,0.003921839872391922,0.0040912119345899315,0.3052272836928333,0.023356402718345458,-0.32107652560590655,-0.01418669114383944,0.0029954847562268473,-0.012021732909881849,0.022211942656092887,0.3984375
0.011821188256585506,-0.008139780495935523,-0.02924355882954561,-0.03350309499265059,0.026112424769711123,0.016734275083178592,0.017845146491642604,1.2765551481779522,0.09677265550867446,-1.3691506556672777,-0.05975489972038353,0.010611786003777865,-0.04847110542907487,0.09352578790659588,0.40625
0.005641795191247353,-0.003767217864225161,-0.013604902073531197,-0.015711215992804256,0.011708572206590868,0.00791682034815909,0.008420646822602275,0.6037579441423405,0.04620464829393423,-0.6524061887009492,-0.0284655681655883,0.005425736028177708,-0.023335620258013005,0.043903244519813873,0.4140625
-0.0022430620972512107,0.0018000005699516967,0.006350116033287123,0.006953618764113441,-0.006653891625759792,-0.003335836194721936,-0.0036293085248989354,-0.24938596875680674,-0.01814487294059969,0.26406827978488556,0.011467141827026827,-0.0012174911741991582,0.008683284746511788,-0.018890371071559327,0.421875
0.010928639604871058,-0.0075282045747017984,-0.02692012497351242,-0.030859340490272127,0.024088763091708428,0.015424310032496962,0.016470623078808092,1.1826035296063,0.08987122312017505,-1.2696366966337684,-0.055328601309046335,0.009914737377306047,-0.04481278982162407,0.08640479963314213,0.4296875
0.03214317509485999,-0.02253352076161657,-0.08053568486174781,-0.09181314427865572,0.07356379446566391,0.04566090982147578,0.04886671174047515,3.4836677266018636,0.26349278506396634,-3.7391911255120585,-0.16287478531638058,0.02783328984279969,-0.13097611379381185,0.25564740811156306,0.4375
0.024754014244788927,-0.017293782604959344,-0.06189691284745195,-0.07068512844071655,0.056310053492471784,0.03516077714841382,0.03760176238700031,2.67975401135302,0.2026984079495212,-2.877732261731418,-0.12538507156735204,0.021571277641639713,-0.10101649800308679,0.19666863217057054,0.4453125
-0.012363669856868025,0.008972142018743575,0.03183082479735134,0.035832730151010725,-0.030259683276562026,-0.017684796957147746,-0.01905511231796485,-1.3469374490653396,-0.10138835153980832,1.4451716296520003,0.06280496703641192,-0.009811372974185089,0.04965684421479327,-0.09926521131027367,0.453125
-0.03878738298059821,0.027662745555430548,0.09853120429478007,0.11172540825251036,-0.09186358202392092,-0.055306236462098445,-0.05939969775715208,-4.211241155874054,-0.31760708450436104,4.522104797606185,0.19674484382688506,-0.032146249852992956,0.1569487821509176,-0.30984613779200826,0.4609375
-0.03117764915963488,0.022278733078311255,0.07928250229459807,0.08990502556336152,-0.07411082347833071,-0.04447011430578447,-0.0478011687925113,-3.3849702229351553,-0.2551546476938308,3.6364175083608976,0.15817073712341362,-0.02572458505019147,0.1260747315011988,-0.2491237717221106,0.46875
-0.009561428282065328,0.006994528785150457,0.024700683174345622,0.027803069258056368,-0.023725057008098033,-0.013696132998723954,-0.01482012072044498,-1.0416521238275738,-0.07830197832375435,1.1207502678795374,0.04864767394419631,-0.007478558205048171,0.03830786037214103,-0.0767802588888955,0.4765625
0.0011657797266888543,-0.0005914072119608017,-0.00235708468983247,-0.003024009509341827,0.0012802885827842777,0.0015754260751666325,0.001558748889354555,0.12110378057970696,0.009378738758946402,-0.12826225760901167,-0.00570419892674934,0.00158471270825286,-0.005254968986914948,0.008739075119213837,0.484375
0.002002264652313975,-0.001196636619075362,-0.004448174489936326,-0.005341679161988145,0.0032608375900038105,0.0027671788535989293,0.002859914791832069,0.2130565927024368,0.01646116118323597,-0.22860550521799022,-0.010025771152651394,0.002333970365432582,-0.008621761470489417,0.015312721026713232,0.4921875
0.0051484135660661975,-0.0034391747368182524,-0.01237853562945271,-0.014245199886056574,0.010619963827341143,0.007235544004441142,0.00768012318501138,0.5552102467629015,0.04264174026135738,-0.597942491319811,-0.02607822801709017,0.005043356771672655,-0.02134332792607542,0.04017827392776383,0.5
0.013063936809515104,-0.009039826835873878,-0.03234828183564714,-0.03694896725896925,0.029051823339636414,0.018483498507534505,0.0197563968766867,1.4126278240116399,0.10752085586394543,-1.5186258897380183,-0.06619509449009413,0.011735551645657904,-0.05347103453724615,0.10315200811873045,0.5078125
0.018511296976814695,-0.012881047761950683,-0.04610424590431043,-0.052685573276038455,0.04171525717766036,0.026232312902605644,0.028056773487349643,2.0020860696976865,0.15178464169908448,-2.1490070217183486,-0.09371172314845014,0.016296251605949243,-0.07563447101570055,0.14671319250201564,0.515625
0.014471844437485094,-0.010015640286544825,-0.035923273801907324,-0.04116374336166108,0.03229028982090518,0.020492546187411073,0.021884009663075653,1.5642023926628088,0.11844892917125659,-1.6766436912476748,-0.07318446460312958,0.012848204750830504,-0.05927462481919457,0.11472726168192825,0.5234375
0.002704917524583227,-0.0016958514661532568,-0.006198696812226302,-0.007343834476315742,0.0048686310518829415,0.0037378723943686074,0.003918103689791896,0.2888927985300663,0.022202362631661112,-0.3084087459587505,-0.013576804397502744,0.0029133110412201176,-0.011483171685012596,0.02091635167283868,0.53125
-0.006511560844646788,0.004816620954445793,0.017113001577194756,0.019192367954672527,-0.016606463117949534,-0.009399575791926877,-0.010149355081320203,-0.7104197278463501,-0.0530708271838992,0.7616813407949793,0.033091774244446925,-0.004842489797066363,0.025973022520794063,-0.05272686508686207,0.5390625
-0.007080454766716824,0.005219834024368804,0.018532982230218775,0.020813244804547056,-0.017916180443393288,-0.010195509786015576,-0.01099789879745191,-0.7720093397564847,-0.057789733197817744,0.8273252633432485,0.03598706943643801,-0.0053127890616951525,0.028264034209751036,-0.057268343464981435,0.546875
-0.004317911463107138,0.0032741555861218207,0.011478366626159064,0.012777535828276447,-0.011467932572863151,-0.006218775498211481,-0.006764912719275535,-0.4718492208468913,-0.035376655933762935,0.5080151170508702,0.022036136828519678,-0.0030090311777294845,0.016980869298194614,-0.035017238676972255,0.5546875
-0.004177685047308804,0.003180183605259719,0.01110283611395713,0.012304871590794268,-0.011163167719146555,-0.00601339147487084,-0.006579369070168215,-0.45619636022654647,-0.034241836480971496,0.493968912680829,0.021351237685884875,-0.0029289860599408827,0.016389337300931443,-0.03371552148051906,0.5625
-0.005197549742373355,0.0038969055838109327,0.013756069475855328,0.015274197886604543,-0.013563590879307025,-0.007516546601379133,-0.008184806034370632,-0.5670303828897731,-0.04241565901369714,0.6120179269211214,0.02649686692778302,-0.003790638203246147,0.020589315752526805,-0.04189582742382818,0.5703125
-0.005319079811655096,0.003977118893775646,0.014102324456712995,0.015689531927690074,-0.013825584691715872,-0.007715752715482097,-0.008364478110391847,-0.5811128746566294,-0.04336535728141802,0.6235040158572176,0.027075341290851308,-0.00385694990867776,0.021136347333126724,-0.043039672066542876,0.578125
-0.004614106726432515,0.0034825213837826638,0.012231985651274545,0.013643524003463851,-0.012140269039211867,-0.006658777742698857,-0.007222995760668858,-0.5060196312585055,-0.03773237797185933,0.5402898019204568,0.023475000245789517,-0.003231535906537103,0.01824570104835819,-0.0375603019116156,0.5859375
-0.0006392516483547511,0.0006776124825393033,0.0021022623490549452,0.0021612101702711303,-0.002869689700937925,-0.0009354875558182112,-0.0011127650711717316,-0.07577566743980453,-0.005196431089650582,0.07876968851849468,0.003291038627760968,0.00013150029310299497,0.002050896173666213,-0.005925495980632609,0.59375
0.006394102669821565,-0.004302408966644881,-0.015610906203934143,-0.018021472104619338,0.01349583352336638,0.00906655800571411,0.009598329477933248,0.6880673706722422,0.05259133432108386,-0.7388591304289924,-0.032393095752976,0.006069906934307517,-0.026499185091702494,0.05021401744287501,0.6015625
0.008973922576878483,-0.006138670850053661,-0.022009044071981468,-0.025315693310074393,0.01949084508304076,0.01267507640553588,0.013492623319743149,0.9700722803466921,0.07377111193768696,-1.0392848114688766,-0.0454319456275687,0.008242261457764265,-0.03691261297490061,0.07093204789876759,0.609375
0.004739677888093891,-0.0031435099364754727,-0.011283124216410523,-0.013048906247653676,0.009623483610379327,0.0066116033813641084,0.007023398767961388,0.5112617888924627,0.038853535048558416,-0.5465845358290166,-0.0238604911778876,0.004649763479874513,-0.0196724385066272,0.03719315742270383,0.6171875
0.001689893337851051,-0.0009749955611461692,-0.0036291636625093923,-0.004273366969056866,0.0025191187774865928,0.002284577903008158,0.0023910107737482853,0.17821818014387553,0.013688358462947015,-0.19163928934678087,-0.008343502026966902,0.0020682543477905553,-0.007280237781235713,0.012643587215829245,0.625
0.001348374187613921,-0.0007292821589478248,-0.0027915833889544015,-0.0033637862842532513,0.0017260401201208103,0.001817869942143355,0.0018777166005245185,0.13958745209300177,0.011064400626561907,-0.15254769316192698,-0.0066770457134041235,0.0017952751698342964,-0.005917256280134195,0.009723823203161768,0.6328125
-0.003335700737786186,0.00257574380377925,0.00905379327951522,0.009983021231614706,-0.009190399043401427,-0.004857490349047679,-0.005300744306303124,-0.36648855948258763,-0.026963794813737944,0.39246849910463005,0.016981811749986468,-0.0021614988941065175,0.013051117050849005,-0.027430719484126065,0.640625
-0.007988834525785657,0.00586188001698643,0.020808140324199594,0.023290358714815,-0.020051523848794592,-0.011498405688663806,-0.012447776052772697,-0.8682630527286963,-0.06498064988714694,0.9356938520125135,0.04059191373124649,-0.006132739128090778,0.03190452469464676,-0.06415623624801366,0.6484375
-0.0017543285007871386,0.0014593447715887551,0.005051641349645763,0.005425727305187401,-0.005553276639906869,-0.0026227426934511827,-0.002945759501322354,-0.19272473308059346,-0.014144023522805136,0.21189843346478834,0.009084889001546081,-0.0009031385179441856,0.0066065778018443416,-0.01442555745891728,0.65625
0.006006187590996771,-0.004020470859715393,-0.014538213411315174,-0.016792935752236008,0.012514212272766813,0.008440354258849418,0.008936105165099772,0.6454351480196477,0.04916176043658913,-0.6916311835687539,-0.030218027365767453,0.00567005249680764,-0.024861433483340554,0.0470878063796364,0.6640625
-0.0025369104442317294,0.0020208840543647346,0.007051738242765559,0.00773080576648964,-0.007379987271200399,-0.0037107711760238212,-0.004053492706885131,-0.28264107152902934,-0.02082163497654089,0.3010644858127889,0.01301970984122824,-0.0014968371669905017,0.009819892068999024,-0.02124038050158637,0.671875
-0.015931332273560774,0.011484880927460863,0.04085904946489074,0.04611679915334016,-0.03855198512798993,-0.02277716581670761,-0.024481355730902116,-1.7332087964221226,-0.13034394461371968,1.8592168738940258,0.08082167151278422,-0.012783408080699131,0.06415380830749313,-0.12782695577377762,0.6796875
-0.006905034336648794,0.005092865624816206,0.018020895774960004,0.020153318186575377,-0.017470850816255563,-0.00992174852461128,-0.010717668734665384,-0.7519876755933067,-0.05631736824642796,0.8086032690040551,0.035026396939637355,-0.0051605199232753205,0.027481091252066818,-0.05556764679234416,0.6875
0.018352412842580355,-0.012771822158185677,-0.04578426256710793,-0.05233893713079509,0.04141235100910691,0.02604801890135441,0.027825953251403274,1.9871446813129061,0.15042326421899976,-2.131776506240123,-0.09297870320086676,0.01616773826451383,-0.07504789624549829,0.1458425105359898,0.6953125
0.025751998716328443,-0.018003143004817975,-0.06445721415933385,-0.0735263083449716,0.05865580274070542,0.03659235093472327,0.03913225240721424,2.7890141275852827,0.21087568756353936,-2.994408370812784,-0.1304505790917325,0.022418029378419364,-0.1050732792244765,0.20472161514576617,0.703125
0.006803067031566878,-0.004602202317230127,-0.01658986623301141,-0.0190891490625372,0.014497332928649312,0.009616793149077886,0.010224881646736702,0.7348786066849109,0.05575999161144524,-0.7899339047648907,-0.03441534080319606,0.006418531904480253,-0.02813881278234631,0.05361403432390352,0.7109375
-0.011875105471471603,0.008606555899679269,0.030575871020386478,0.03453432265117538,-0.029032759424017965,-0.016983957640720377,-0.018291576143723846,-1.289967505232677,-0.0969776972755629,1.3844945353542513,0.06021420370808969,-0.009353817203805749,0.04771146343354331,-0.09527088546114099,0.71875
-0.012541052188958738,0.009084609353600557,0.03225895111100466,0.03642985038326123,-0.03063023054310143,-0.017952446540308538,-0.019348187111433473,-1.3636748714323217,-0.10237852167470826,1.4644688354770954,0.06361972724072631,-0.009938273281560883,0.05045067946123263,-0.10061446059938331,0.7265625
-0.005098007489683242,0.0038361487787681387,0.013486727758389829,0.015051693710441344,-0.013366527074870295,-0.007374411573495408,-0.008032121766032097,-0.5589655761985064,-0.041683244563944316,0.6015987115180721,0.02603579265818169,-0.0037039214257659253,0.02024655035132779,-0.041351608802451395,0.734375
-0.00070041008812555,0.0007342773876979759,0.0024110465358495757,0.002439407987292482,-0.0031522066819437127,-0.001111115092033276,-0.0013191518426536617,-0.08271672350815953,-0.005913335105946543,0.0910741990223417,0.0038505448487510707,-1.7298836136536222e-05,0.002376729672305695,-0.006357200771941131,0.7421875
0.002305571290008258,-0.0014026184532625991,-0.00516532651004034,-0.006145781730957556,0.0039061086165373565,0.003181888001806667,0.0033150603120174604,0.2444659535301452,0.018850686307690614,-0.261426690039473,-0.011463440976176766,0.002565555036276381,-0.009832259541454988,0.017500295424132988,0.75
0.003091097064080219,-0.0019755839789659733,-0.00715163066187768,-0.00835431929240527,0.0057943381163988806,0.004295819472743074,0.004543537096383229,0.33049313084944776,0.025657039145662284,-0.35633958844815783,-0.015599113232578917,0.0032929586615760616,-0.013004217887740362,0.023638910971517053,0.7578125
-0.0039740646483415855,0.0030200362817495927,0.010666415113608314,0.011903592892385444,-0.010688025897227709,-0.005777234729431298,-0.006260183857669438,-0.43596513559607464,-0.03213435052798693,0.46643255802137135,0.020197446386595663,-0.0026808209648441226,0.01566895166195107,-0.03262033664555537,0.765625
-0.01140903985564047,0.00829224394484411,0.02940646756381853,0.033141482748794956,-0.028059130963100858,-0.016355412800638257,-0.017637709376688755,-1.2423479035337808,-0.09335363272797557,1.3354663497721402,0.057999942084661436,-0.009025496253874181,0.045801173603550877,-0.09159357370742968,0.7734375
-0.004381897708588064,0.0033272181857649835,0.01166455260451526,0.012903601978102815,-0.011670241738164892,-0.0063383145156042054,-0.0069166159888277845,-0.47951135521985166,-0.036012630625383145,0.5187652618782804,0.022427240228556328,-0.003114568039951123,0.017251971912641703,-0.03536280933896255,0.78125
0.009410203621961892,-0.006439744417465108,-0.02310299209570969,-0.026621975300633156,0.02052164585164907,0.01327689322025139,0.01413692167814029,1.0169119605889354,0.07715970991229701,-1.0897664509064768,-0.047568027171403654,0.008581170107695414,-0.0386877608493982,0.0744664174327001,0.7890625
0.006579040021384178,-0.0044473106378454886,-0.015926002433938463,-0.018406134864436156,0.013945247558526011,0.00922302567806864,0.009820274786967694,0.7097473906897146,0.05422526547702969,-0.7634166372344529,-0.03329440546753687,0.0062333292328817114,-0.027152961217514676,0.05167360462061738,0.796875
-0.007674547104022097,0.005639842339136639,0.019985011732098913,0.022472530874102316,-0.0192711953983596,-0.011032572626638003,-0.011900329249530573,-0.8366362612777746,-0.06262767597408778,0.8958130136614072,0.03896422509440405,-0.0058107036308756915,0.03066217930682098,-0.06197096053207739,0.8046875
-0.0021085010091173645,0.0017102516206154476,0.005833628523256639,0.0063937806004079395,-0.0062772194707591215,-0.0030415954046962056,-0.0033567510825493222,-0.2332129901359311,-0.017277940263485336,0.24908293254795946,0.010762931525760683,-0.0011201232513898857,0.00799148015014627,-0.017485220184280524,0.8125
0.02222674507593886,-0.015509191597222237,-0.05558901494574669,-0.063467798603561,0.050458073441548144,0.031607566515466055,0.03378526365160886,2.4067259527739417,0.1820871696519362,-2.584033081135314,-0.11262605760156967,0.019448767683788844,-0.09079896075213982,0.17656960283693382,0.8203125
0.02553095577016049,-0.017857143943533594,-0.06383516946545491,-0.07287329255232611,0.05813539495028263,0.03625275510774351,0.03877845960097804,2.766337892613751,0.2093551904465358,-2.9691844838181343,-0.12938659773297997,0.022243226299098216,-0.10416055817716895,0.2029519284946123,0.828125
-0.002366904239715909,0.0018808998824447897,0.006621969712822948,0.007250780898246054,-0.0069358814922571965,-0.003493252109369139,-0.003828348855809027,-0.25939896581591104,-0.01918343717171395,0.2799096002215994,0.012090673675240252,-0.001350471974313716,0.00911599545380908,-0.019417391007573608,0.8359375
-0.022728887709226007,0.01630298103707812,0.05796928474752324,0.06567822283715585,-0.05443291223666738,-0.03245115244453174,-0.03488603744958442,-2.470204381274065,-0.18620650182788312,2.6530945749412367,0.11538364900806691,-0.01857834911799213,0.09176862986016214,-0.18187342220024974,0.84375
-0.014493118337115815,0.010488719591877686,0.03715457810810147,0.04199864285034518,-0.0352530357674978,-0.020701983498702965,-0.022306056607131492,-1.5789935240967259,-0.11879900994274528,1.6960228874523582,0.07364585832066363,-0.011623846712116363,0.05832855801149419,-0.11639053576175293,0.8515625
-0.0015239647347688402,0.0013049812014709135,0.004459595436175771,0.004745222126407574,-0.0050126837651941975,-0.002256903400532815,-0.0025406792474657017,-0.17061666484296953,-0.012319413483266994,0.1853596197599806,0.007848064898501199,-0.0006578730715133444,0.005676410573205025,-0.012880147431763418,0.859375
0.0001793985750276181,8.280515815484988e-05,0.00019518213949795514,-0.00011199985160693998,-0.0010112342465943781,0.00014429384184906483,3.6766393237383614e-05,0.017485045380922416,0.0018252743026227678,-0.01543037119087682,-0.0008255103690068027,0.000792822426590109,-0.0012181165054907805,0.0009773714288360434,0.8671875
0.0024042295811367857,-0.001491996829389526,-0.005427447802390309,-0.006388295586524981,0.004182641174101438,0.0033093194347429723,0.003446828126782713,0.25828706049867195,0.019901963743854764,-0.275865409192413,-0.012057781905375266,0.0026820543536610355,-0.010180150199034375,0.01863433943906136,0.875
0.004377945583406471,-0.0028721791603471365,-0.01041344759478227,-0.011977150351922324,0.008750558709982386,0.006118494404052465,0.006477609123484642,0.46827043411973723,0.03580965793870669,-0.5045867293286226,-0.021976271664968374,0.004343015791330526,-0.01813916419456158,0.03394252416893515,0.8828125
-0.008530511792071569,0.006268294077943379,0.022186514598090228,0.025000327697118692,-0.021357189934701686,-0.01226956143657538,-0.013230831235834942,-0.9333102917053775,-0.06988693840000632,0.9996240473362948,0.04347161576764981,-0.006586469268034043,0.03420992931331409,-0.06914547575150301,0.890625
-0.024024204435506746,0.017218183397824792,0.06129753338845992,0.06932480536922664,-0.05743789004525411,-0.034330796940601344,-0.0368937195629677,-2.6106111330531205,-0.19649041414771454,2.8027260591694247,0.12192795618575383,-0.019691750139330732,0.09699678496741486,-0.1923779058819818,0.8984375
-0.013869057445649839,0.010021277390541858,0.03563408124607597,0.04011637958246818,-0.0337234586984746,-0.01985911281250695,-0.021394026347837214,-1.5063436401455184,-0.11317651353476639,1.6188973259434736,0.07037637532662734,-0.011102817787278313,0.055729556635489785,-0.11110287499595466,0.90625
0.01762667339210475,-0.012258898421854462,-0.04390573810680223,-0.0502463718599741,0.039701945736101654,0.025000785444293686,0.02669962689490404,1.9085997816991054,0.14456329119641959,-2.0481429071622204,-0.08927706269482308,0.015533307859227198,-0.07209633940546319,0.1399822344794591,0.9140625
0.03755464204557998,-0.026352576157072927,-0.0942234160759265,-0.10739294854379842,0.08616074665297406,0.053384538848197376,0.05715597739649792,4.067805352760823,0.30751758720776057,-4.368250934231656,-0.1902848022304086,0.03240862009338716,-0.15297408680779398,0.29866149836393713,0.921875
0.028552582195393146,-0.019990448450932563,-0.07148144682051337,-0.08151624570958503,0.06520264331188583,0.040567703500990336,0.04344774815165213,3.091803405272231,0.23384416618885742,-3.3215336789140495,-0.14469777457044614,0.02484025213752721,-0.11643521419912671,0.22679754464157553,0.9296875
0.00307413322772196,-0.001972012914113422,-0.007138490511254554,-0.008366297622157296,0.005807231870529571,0.004281134807062471,0.004540117724361463,0.33015009283262414,0.025405641590585226,-0.3555795809596172,-0.015573652275589687,0.0033075914606347694,-0.01299083515190824,0.023765910220573224,0.9375
-0.015429449667902793,0.011128570789382423,0.03957275347156936,0.044713760550098854,-0.037391049964023475,-0.022076580668849613,-0.023767035853568364,-1.6768772981221525,-0.1261456856988768,1.8017331710929974,0.07830053059204382,-0.012390737451115826,0.06215177677421261,-0.12357743196834438,0.9453125
-0.014211868262445224,0.01028556956132801,0.03647573984157911,0.04116495548009451,-0.034618617103486266,-0.02034029498519164,-0.021946326481451086,-1.5467670432774743,-0.1164739587059554,1.6637500178787161,0.07225317099272206,-0.011423459039043082,0.05721025480459857,-0.11379224671740447,0.953125
-0.003697243191116444,0.002850440476855005,0.009912331953200374,0.010985770396890115,-0.010099581427920938,-0.0053447579739105576,-0.005862107581919503,-0.4069898532888892,-0.030527843880135422,0.43950513320804874,0.018972525292598418,-0.002530845758369497,0.014504855785591601,-0.030039574741408132,0.9609375
-0.004121962473179669,0.00313531461247182,0.010978374390509218,0.01225828195084359,-0.011022023086574462,-0.005923111395778857,-0.006452601462613678,-0.45111022904018483,-0.0337417287309027,0.4851655366336589,0.02100478800391577,-0.0028322508264361987,0.016218989449859108,-0.03352147401392987,0.96875
-0.014103426522459647,0.010182542676792474,0.036184075315833376,0.040937741884890924,-0.034248621442751245,-0.020140503325567292,-0.021685146338277898,-1.5318938547077043,-0.11508962017536097,1.6444279439796474,0.07149225406052717,-0.011234622414479511,0.05675725348699438,-0.11311731288817616,0.9765625
-0.013071923766500938,0.009456593804239443,0.03360733163304561,0.03795760544268759,-0.03187469760107433,-0.018709534829490015,-0.020160728358361874,-1.4208759109356528,-0.10660755896456015,1.525469070618341,0.066306192627145,-0.010387710726296483,0.05259798604555498,-0.10488848008428452,0.984375
0.0015823403060000521,-0.0008973155929402898,-0.0033610923215841035,-0.004136700128608508,0.0022343860494805946,0.0021295208691655613,0.002171540611087941,0.16674733980750017,0.013108900132266519,-0.17763683919180553,-0.007849236434112852,0.0019505838025812342,-0.006895132343515518,0.011941162229295733,0.9921875
0.01038060147891559,-0.007118157561436795,-0.025573465398535677,-0.029398555162548006,0.022742291455909093,0.014663799236305558,0.015610712073373724,1.1211942187425075,0.08502912002492058,-1.2010348140788467,-0.052408381408850735,0.00937097229534644,-0.0426475768483619,0.0820935124962804,1.0
0.005910233237857915,-0.003964503800622832,-0.014283950415735934,-0.016527818475317615,0.012355953607397545,0.008300870585061636,0.00880798323674121,0.637448741568216,0.048617583684170095,-0.682313466740092,-0.02981861849971591,0.005622178783284539,-0.024499557267956544,0.04639081113969901,1.0078125
-0.0003022650700336729,0.00042454489693199206,0.0014398040749666456,0.0013678428197214305,-0.0021201950597124607,-0.000568531640397757,-0.0006695661769948305,-0.03716050487803397,-0.002126638351316054,0.03948158984406671,0.001628286109917872,0.0004108204524619676,0.0007779737500856325,-0.0033090760196932186,1.015625
-0.0019781147940172495,0.0016167033227758117,0.005678039456280544,0.006176779910106225,-0.006051934211683605,-0.0029536680862941654,-0.0032185716835641436,-0.22103694997865295,-0.01607961821262618,0.23497038307981047,0.010163514975293234,-0.0010000599001642714,0.007600246768428566,-0.016757779042856063,1.0234375
-0.0007723260494300891,0.000774081886645987,0.0025530446851522105,0.0026211961057290203,-0.003243004985060498,-0.001183598018572884,-0.0013568205831933394,-0.0908834953853815,-0.006518477756338639,0.09506285557674364,0.004086190451360247,-1.0245703169907478e-05,0.0026335767657902995,-0.007010351593272985,1.03125
0.0055472184698152575,-0.003696644546116944,-0.013464715591651527,-0.015578965068560319,0.011516779016573227,0.007846801387880652,0.008287851814731684,0.5958552261143432,0.045256634314687565,-0.6417054423389849,-0.02798057735531146,0.005309451848503004,-0.02307220791980238,0.04354440589762131,1.0390625
0.014068740317728796,-0.009737693791663378,-0.034917917992265665,-0.039966172218886625,0.03140023539152836,0.019934955678990104,0.02126225233586316,1.5218222995460426,0.11537933527485089,-1.6351889861962792,-0.07123074106896586,0.012529574399512338,-0.057610427734644094,0.11148847670851884,1.046875
0.011492707257059127,-0.007927303294820007,-0.028340880248917427,-0.03248268352158195,0.025400600683113308,0.016219275009211075,0.01732088601033894,1.2435679928484153,0.09453704274177237,-1.3352389884541163,-0.0581994290871031,0.010388486635151867,-0.04709763677852552,0.09089136177862839,1.0546875
-0.0034683037776999577,0.002660135026022569,0.009367661199590477,0.010405152172709462,-0.009467808194421367,-0.005046851323040231,-0.005474857573721864,-0.3791197129737503,-0.02809227885809072,0.40843263776649485,0.017644253381547844,-0.0022501179991649984,0.01357990133930824,-0.028333563371997692,1.0625
-0.011513757737778702,0.008366911760355644,0.02957497508759418,0.03336127325399387,-0.028231657583902437,-0.01643895736971683,-0.017726349693184734,-1.2528317520900047,-0.094287644354574,1.3479013049045783,0.058460185249499697,-0.00908481797976769,0.046154038634667396,-0.09233815884163377,1.0703125
-0.002353576716551701,0.0018912160737085382,0.006481802244958836,0.007045352365111137,-0.006908314184675833,-0.003407884775792988,-0.0037747191067802268,-0.25955488257386133,-0.019364947862014176,0.2828975478348387,0.012054567073571984,-0.0013731060624488597,0.008979329858454916,-0.019203850573541875,1.078125
0.007460069366153429,-0.005065631186845688,-0.01817646865738379,-0.021002121332148863,0.01595840407444675,0.010505792946706956,0.011167081185825737,0.8064563838746812,0.06123111331204761,-0.8614488533889901,-0.03771190124220096,0.0069347429394834206,-0.03078288975678893,0.059029562562720905,1.0859375
0.001380411726484911,-0.000773908760064306,-0.002803103616002821,-0.0034501471712326125,0.0018017407503525846,0.001837613706852328,0.0018992317355077267,0.1474949676251001,0.011595746860288015,-0.15665865267533577,-0.006921041172912919,0.00182585790377799,-0.006061133725227205,0.010395554274661099,1.09375
-0.011625419766710202,0.008442280147593156,0.029968226658621047,0.033847155342648934,-0.028525065905256074,-0.016648777805355976,-0.01793087597791478,-1.2661346328968484,-0.09511830534919355,1.357582722805822,0.0590516535370754,-0.009173283615182513,0.04673058138411224,-0.09352548185000625,1.1015625
-0.014009070225146213,0.01014694073390953,0.035965795437768636,0.04058429682340383,-0.034114121256543915,-0.02003851657598866,-0.021593222424510717,-1.527121235908849,-0.11484497819211709,1.6378176532815079,0.07120362438086636,-0.011221558040988762,0.05638631650418218,-0.11256383240686922,1.109375
-0.006390130969860185,0.004748827785597728,0.016755926504752425,0.01866980787981958,-0.016348629324129695,-0.009209358932676659,-0.009999468253642278,-0.6982635026095597,-0.05224132549200348,0.7511408662980339,0.03255683721511909,-0.004787970824859175,0.025429697138204685,-0.051570836282395685,1.1171875
-0.0003159656264026133,0.0004310819346906658,0.001402905650293278,0.0012933404065317326,-0.0021493287569793523,-0.0005470697623352719,-0.0007165749122173413,-0.035713860255369254,-0.0021734826396677285,0.04070216716650151,0.0016811784275498935,0.00037589018906955833,0.0007702738517248617,-0.002949337973002408,1.125
0.0032946672408425215,-0.0021222686422446213,-0.007751856140156933,-0.00896685273007731,0.006272712086189919,0.004625782575998109,0.004835467511086221,0.3543297999547606,0.02729006645809262,-0.3820644078970783,-0.01662257547072828,0.003450846966958327,-0.013823532720814834,0.02562176624775553,1.1328125
0.00881912174046375,-0.006012891922052361,-0.021672758142066085,-0.02476004906695029,0.01911706107257844,0.012481966495228107,0.013286637692090942,0.9485192231104754,0.07217429902587848,-1.0242941378254524,-0.04454850484252073,0.008120616975277701,-0.036180972433369256,0.06922302007462547,1.140625
0.009754646111464366,-0.006673178945426173,-0.02396475635187646,-0.027461151689484802,0.021289001076302435,0.013769323886575006,0.014706620867289803,1.0492374111390617,0.07983719266764426,-1.1312860312062034,-0.04927067077932972,0.008907392697203786,-0.04001053937848459,0.07653079080709807,1.1484375
0.0002758691120366202,1.6192205475051867e-05,-1.6075659013028404e-05,-0.0003308171187533955,-0.0007825430501098489,0.00025192850110023114,0.00022363161097142367,0.025695491768494567,0.0025630110131922355,-0.026477733782004898,-0.0012775638450224695,0.0008838737958119819,-0.0016469983648223366,0.0012680582727515584,1.15625
-0.0068901480194329115,0.005080867673950732,0.018027661375461593,0.020148745091971954,-0.01747900760046024,-0.009935666536184091,-0.0107322327079157,-0.7485143439413443,-0.05602386446591497,0.8094355076204222,0.03502922187321743,-0.00520637680201185,0.02737084216600931,-0.055466445790745895,1.1640625
0.0010767231257833743,-0.0005418184153598851,-0.002133893683744928,-0.002776205809648457,0.0010875827868851995,0.001428916417462295,0.0014213640500442956,0.11376837915021372,0.008889198493488066,-0.11670712141031095,-0.00531818120586796,0.0015037797341880574,-0.0049514900783843305,0.008170582747686206,1.171875
0.01132137182225191,-0.00778303952575029,-0.0280064465308855,-0.03218520459419402,0.02500179578032826,0.016030788041972277,0.017087629776329806,1.2228642589735936,0.09253370921572153,-1.3108444876390615,-0.05726147307459781,0.010191592922389438,-0.0464990446879971,0.08975344988375258,1.1796875
0.005373321447994996,-0.003587812580362045,-0.012968270550850147,-0.015064719946388035,0.011194386782728499,0.007574136246726316,0.008049682441128029,0.5793043845802185,0.044000906452780764,-0.6221353993481699,-0.027196820321898157,0.005220333817718186,-0.022335382995135142,0.04227506501092427,1.1875
-0.007105037916334545,0.005229035044169915,0.01856660504250571,0.02082515344744428,-0.017894503364581687,-0.010200572180138076,-0.01100723007530216,-0.7721106894226016,-0.05788617571712763,0.8287190764854109,0.036016497725393656,-0.005312158191410822,0.028350372257324823,-0.057213583682360354,1.1953125
-0.005109119786916027,0.0038262276595903174,0.013544086900139371,0.015149122131151405,-0.013331667665071989,-0.007389524303279493,-0.008022878001872631,-0.5575373956183952,-0.04156153651636221,0.5987062604278599,0.025986534870518475,-0.0036669618354556325,0.02029737822778985,-0.04139632788055394,1.203125
0.006610753431043163,-0.0044480436067233725,-0.016068343791221882,-0.018494623038043657,0.01389687363531755,0.009286128971289893,0.009834756871440932,0.7097742200666707,0.05412573964539157,-0.7620967172184245,-0.033301626556314946,0.006199808320668807,-0.027271215653581378,0.05189088683219116,1.2109375
0.008346276514388318,-0.005674994669490345,-0.02049973846221485,-0.02351893407654533,0.017952242778688968,0.011791174200216126,0.01253018986018576,0.8974544841579173,0.06821439813051408,-0.9638732648070675,-0.04210065299608537,0.007681144574820757,-0.03437009005502772,0.06570096246947944,1.21875
-0.0003101561863618421,0.000432196332464539,0.0013348657249613307,0.0013065548726849965,-0.002133987152981721,-0.0004993691373743044,-0.000621589613678351,-0.038201964615747444,-0.002432051007495527,0.040503100556045495,0.0016526197182577863,0.0004135268508903577,0.0007263137143694967,-0.0032091772370659547,1.2265625
-0.005649527071303364,0.004197026311594297,0.014849823952466687,0.016646935807807225,-0.014522527064361648,-0.00811375418076257,-0.008774027339489603,-0.6147847679540063,-0.04585253117377507,0.6594200627231663,0.02862863192376506,-0.00407584421148162,0.022420270464404545,-0.04570230290245106,1.234375
-0.006304356134318206,0.004668706677382692,0.016544547805167273,0.018515395012631747,-0.016086457748921732,-0.009075500724448233,-0.009824298668376497,-0.686739088626324,-0.051257840497471306,0.7369610424302709,0.03200845620270095,-0.00466254785853831,0.02511476673720433,-0.050920627177173265,1.2421875
-0.009370430808151324,0.006858500344952802,0.024284862074155138,0.02725538015188883,-0.02330615051364401,-0.013438265779465502,-0.014537245754257116,-1.0217347537832575,-0.07672022523763199,1.0974192472048085,0.04768583878516333,-0.007316347540521346,0.03755728196045194,-0.07535557981848034,1.25
-0.011992967436901729,0.008724420840788536,0.03089814554623756,0.03476907727396212,-0.02945282177772802,-0.017163058972710674,-0.018544797952426587,-1.3071635728694522,-0.0984140134385499,1.4047516176878718,0.06105270330383232,-0.0095688828663264,0.04819342549484361,-0.09626251335060072,1.2578125
-0.007244476918086642,0.005355497436777976,0.018953417993568387,0.02124989951789141,-0.018375595589007285,-0.010438525183571619,-0.01130459363092261,-0.7911038294250192,-0.059343941913962146,0.8515442004045174,0.03696202871472345,-0.005535302485427618,0.028956694340688555,-0.058485558296995525,1.265625
0.0017778045443297892,-0.0010452891064769588,-0.0037734976844839485,-0.004524517081154214,0.002688332004906222,0.0023605470244052996,0.002467502277430369,0.18911598872410912,0.014862397794011358,-0.2003258482429258,-0.008840332556280956,0.002146228963988161,-0.0076295720020566,0.013351148798375801,1.2734375
0.007155906047521575,-0.004857232847385133,-0.01739732045937164,-0.020013573301366293,0.015284307503645537,0.010043460974378554,0.010721573204390983,0.7730375625322284,0.05894585806208477,-0.8281545440313501,-0.03618734987006986,0.006733146780997146,-0.029516956213126846,0.05625498122012027,1.28125
0.007334740045647373,-0.004975927178725693,-0.01797292243152067,-0.02073027555158092,0.015760747177168154,0.010381267562135343,0.011052859913660448,0.7915484448444803,0.06017597960748911,-0.8504069721973907,-0.03716630917484724,0.00687845621370261,-0.03036101822034986,0.05780673192240239,1.2890625
0.006191828631903781,-0.004160400981657978,-0.01513624049394699,-0.01755940813376191,0.013105362485234386,0.008786275858927575,0.009307571295519382,0.6668758614257829,0.05071110559273801,-0.7180998140715046,-0.03138945392100121,0.005880659623327532,-0.025761102015323,0.048783722820499954,1.296875
0.006362472713040137,-0.0042889800426002544,-0.015485519205701617,-0.017925174460132774,0.01346746428137272,0.008975002886228177,0.009515341323287706,0.6865101231182986,0.052330449841185483,-0.7384708546607119,-0.03221935805717088,0.006017558427070154,-0.026368277059647834,0.05012340340144818,1.3046875
0.006897813579934055,-0.0046788068207595295,-0.01676526356869433,-0.019267454360319076,0.01468785843092448,0.009687166179280483,0.010311083167016425,0.7457582521450922,0.05692308222204785,-0.8011424280058825,-0.034889505869440965,0.006495707610634935,-0.028444998660469286,0.05427030735097221,1.3125
0.005468776026307519,-0.0036598334903229957,-0.01320177112937222,-0.015139690008579464,0.01134177873639562,0.007674456931749353,0.008162634504315808,0.5888953766339817,0.04502296372154965,-0.6333611906472126,-0.027598738008372474,0.005298366637365599,-0.022640570507247076,0.04272687549226526,1.3203125
0.0021082454437141075,-0.0012610707303916551,-0.004778673593900913,-0.005627188752990298,0.0034720395031854266,0.0029302430698225153,0.003050969278207524,0.22113001252063955,0.017094854165807343,-0.23853516263659577,-0.010506598656030573,0.0024270236453355033,-0.009054593230115891,0.015919005999506085,1.328125
-0.0010903820199377498,0.0010056561169623983,0.003340864359385484,0.003475484728695269,-0.004026009096482828,-0.0016334329494214605,-0.0018634235753258771,-0.12536553786391022,-0.009173464974298329,0.1363948483234818,0.005726985821245108,-0.0003064206427568937,0.003901023234421134,-0.00937052942563212,1.3359375
-0.004340917952867032,0.0032855519987081312,0.0116320520891549,0.012883582181763066,-0.011605872988586891,-0.006293278706172483,-0.006850568584601944,-0.4738468432628512,-0.03548203924779904,0.5137082035049295,0.022157604429872097,-0.0030419939350218523,0.01711375515142163,-0.035058624559998065,1.34375
-0.008066171904102644,0.005909632063515929,0.021039742135238324,0.02367938997354457,-0.020261919047935083,-0.011594803880913523,-0.012514260053319657,-0.8763665103973096,-0.06581685138679615,0.9450101456098896,0.041000503806790614,-0.006164061528124308,0.03226568703850819,-0.0648273941642566,1.3515625
-0.008078632443348758,0.005932764028415918,0.021022237931350142,0.02369257630109701,-0.020271556463204166,-0.011593412730598007,-0.012507850300383764,-0.8809592916445921,-0.06610618939393273,0.9462005886758037,0.04108394013623027,-0.006175372784707118,0.03232937228491939,-0.06521005004938758,1.359375
-0.002521676855038735,0.002015373060546513,0.006993299094831583,0.007622777147775879,-0.007304258225930474,-0.0036918106119714356,-0.004048379151630049,-0.2804678199007986,-0.020699784748138047,0.30009582522515194,0.012927681661313993,-0.0014966914774492744,0.009757304964111821,-0.020977722419169627,1.3671875
0.0016553308948184173,-0.0009491078849550836,-0.003519705243279866,-0.004447430551267256,0.0024564927156678243,0.0022318551339221434,0.002281653791497902,0.17536218411978297,0.013802763492087894,-0.1870123596528141,-0.00829907634977361,0.002026559552345259,-0.007227569012635415,0.0125929106239283,1.375
0.0007230179560719929,-0.000302983431030355,-0.0011829226757018368,-0.0017497936703544104,0.00029282334127048604,0.000912303065444857,0.0008447571184675656,0.07727654875637698,0.006451897675322711,-0.08027248215000668,-0.0036103320496681827,0.0012382490718345369,-0.003445530741002454,0.005358205361640962,1.3828125
0.0022296418072471156,-0.0013617526611929612,-0.005037980941642126,-0.005996805668325084,0.003781853174822632,0.0030864878974516405,0.003171902617478761,0.23846915207484595,0.01861103792866873,-0.2562915241515692,-0.011195154241891178,0.002511231715243201,-0.009518111829468386,0.017150172246500613,1.390625
0.007759546010180101,-0.00526044763202339,-0.019012976799858958,-0.021809475313968308,0.01665927197544103,0.010968601628648525,0.011652926284423467,0.8338729750063921,0.06353283555750067,-0.900126073618366,-0.03917343511628844,0.007202853125105281,-0.03192584620875856,0.060853070873745016,1.3984375
0.004580777060932573,-0.003017838880949708,-0.010967589779517596,-0.012678558031117407,0.00928502282426446,0.006429458022933144,0.006828613472955897,0.48929571515511644,0.03749463372729927,-0.5308842933705504,-0.02310818965915868,0.004549945906034854,-0.019047432149187346,0.035459741165147246,1.40625
-0.01048685637917101,0.007624885533222616,0.027077247318700624,0.03053472556362336,-0.02580218858989872,-0.015033552128593437,-0.016172301297929202,-1.1406167493927004,-0.0856355243484868,1.2233756796527553,0.05320195611646985,-0.00818099643005438,0.04204669244516738,-0.08433586704043741,1.4140625
-0.019683881228240323,0.014132562056292841,0.05028375820038692,0.05689082760164407,-0.04727719333414411,-0.028131115272134383,-0.03024469681583673,-2.1363655871295495,-0.1609684060981659,2.297150281309612,0.09987248187294233,-0.01600060480171332,0.07934539408499026,-0.1573637043222365,1.421875
-0.010828601434454058,0.007886464245835471,0.027915418421681534,0.03145466897602124,-0.026708672272168686,-0.015521251350998579,-0.016756015454181625,-1.1789711805155552,-0.0888209620976251,1.269599295847228,0.05509997264972639,-0.008558514964742275,0.04342138713409188,-0.08678751318014595,1.4296875
0.005108299598652597,-0.0033827480746601744,-0.012340992434003804,-0.014275099140777441,0.010446509858837686,0.007188890366161771,0.007598865179424634,0.5472095478230008,0.04152253836566814,-0.5867507238880176,-0.025690797393178873,0.004934447574869209,-0.021256010528457228,0.040077618695712226,1.4375
0.012647515452102165,-0.008735627453663021,-0.031385808947062326,-0.03587315206322277,0.028113183737232764,0.017946988929383737,0.0191686529540169,1.3675153533686644,0.10362083776298905,-1.4687245947663374,-0.06405025311677257,0.011369177507542476,-0.0518885152315907,0.10008311143612886,1.4453125
0.009433070489929005,-0.0064782633551447285,-0.023212848649582354,-0.026597472936702598,0.02065059167929249,0.013354347627344401,0.01426465860454126,1.0225793386271862,0.07773876718561389,-1.0954206577462335,-0.0478290691356664,0.00866861341158471,-0.03885382607818651,0.07448683744942583,1.453125
0.0024290425638409073,-0.001512588589850213,-0.005429264108700643,-0.006474391722533561,0.0042131699134554815,0.003331083549098402,0.0034936661320327652,0.2620241215937976,0.02033846278679147,-0.27544559095211907,-0.012213168298105976,0.002694379390855687,-0.010366090695439699,0.018697366930838767,1.4609375
0.0019626670411002013,-0.001159555258239999,-0.004226118238105479,-0.005159155290075308,0.0030177049085438495,0.0026496298690425616,0.002721169043736264,0.20710176470526928,0.01612182483697785,-0.21772653141451828,-0.009716433035389055,0.0022511315320601676,-0.00839457618090039,0.014955402793741688,1.46875
0.014052946446303623,-0.009708517002683015,-0.03482412381740463,-0.039882836386220546,0.0312511517296643,0.01989988159858567,0.02121250269060093,1.5160658772637592,0.11497117936762034,-1.628742792489964,-0.07104259363867327,0.012497811800404842,-0.05744600538654431,0.11121027014682205,1.4765625
0.026438240460130442,-0.018487007225932512,-0.06614372011935797,-0.07541690774837313,0.06025547722458668,0.03755558970577217,0.04018512200101957,2.860548417025989,0.2166434572301601,-3.0769330417463316,-0.13396929887529074,0.023038676037457496,-0.10773845848163557,0.20978734113028838,1.484375
0.016964554329885074,-0.011797092425936358,-0.042196336394965214,-0.048232098582173054,0.03821406643343596,0.024042727959432526,0.025727369745798256,1.8351127351033856,0.13929957073497112,-1.9754558059044212,-0.08599668442670876,0.015058222810060393,-0.06930963709500126,0.1342919842697057,1.4921875
-0.012992590233842569,0.009402048432655354,0.03343831134357186,0.03765565561220955,-0.03167498367460136,-0.018614778967830183,-0.02003948520515398,-1.4125721857370739,-0.10611987954236535,1.516016793078268,0.06593960013187089,-0.010314621745459092,0.05223488960114145,-0.1042128133562826,1.5
-0.03346715255614055,0.023900557219588753,0.08505541332245463,0.09631268961403988,-0.07944938000738011,-0.04772226936327765,-0.05130599473281098,-3.632448229431483,-0.27405276951432095,3.903399094608457,0.16982105115536683,-0.0276981506127633,0.13526577835305492,-0.2671280809813518,1.5078125
-0.02548135371037982,0.01825766123145291,0.06487285861548342,0.07342304459470797,-0.06084462191529764,-0.03634041940729215,-0.03911487839220859,-2.7669852373577415,-0.2087588331157081,2.9743539200555826,0.12937477638537997,-0.02097867376777736,0.10285008125098385,-0.20353940705165366,1.515625
-0.005698609838040525,0.004257669158132666,0.015031392597511432,0.016805615826570915,-0.014739928097583493,-0.008237921390792729,-0.008937114463231893,-0.6232158572574382,-0.04660926448451827,0.6699640817849397,0.029076955717683418,-0.00421949605726112,0.022659309886742886,-0.0461986982618342,1.5234375
0.0001925391594377831,8.09140841947012e-05,0.00022811551772763624,-7.771138551587398e-06,-0.0009984884873134308,0.000106136485780919,5.105627795676034e-05,0.01498956118367062,0.001833397538073418,-0.017564209470105403,-0.0008382427593115464,0.0008212554722284771,-0.0011740787723326588,0.0005574436036277687,1.53125
-0.008525753314008937,0.006247264934065906,0.022138236119035204,0.024922623100446656,-0.0212739976790603,-0.012247871794947426,-0.013209703429968899,-0.9297159812636588,-0.06958645760108195,0.9964706107855543,0.04330357115561277,-0.00652636172863012,0.034152998776966446,-0.06879773460279247,1.5390625
-0.012450893170992251,0.009031678888335838,0.03190631346435843,0.0360329516373854,-0.030384243978569994,-0.017751537574666618,-0.019153353594012736,-1.3548016743761,-0.10200029061031562,1.4539451923991018,0.0631911547238984,-0.009870642558592711,0.049979761211016493,-0.09980054464246271,1.546875
-0.0010087976961986103,0.0009363554211070827,0.0030311453176120663,0.0031724748338036015,-0.003711742105976445,-0.001463245348707869,-0.0016961608407149722,-0.11316957415390046,-0.008436942162906576,0.1225449378621676,0.005194813281006424,-0.0002186785027644386,0.003520900233540625,-0.008394324367519843,1.5546875
0.01489028044419377,-0.010329619950443134,-0.03698378432743259,-0.042315595120627346,0.03333501951430043,0.02110603348579619,0.022539924028413365,1.6133146385342296,0.12204745994222861,-1.7292697636774315,-0.07542773912784764,0.01324268879196733,-0.060962670718415636,0.11833791077326997,1.5625
0.019581799874880366,-0.0136614899713578,-0.048769622654524586,-0.05562301058348478,0.044241672362026786,0.02775079830707231,0.02969721689984928,2.1229822923949273,0.16081727929174877,-2.276281391354785,-0.09921528471249334,0.017234529556224534,-0.07997406418452654,0.1554619976009196,1.5703125
0.013803304471921773,-0.009557446478379437,-0.03422184497726,-0.039020538362962286,0.030711628644673982,0.01953760356413512,0.020887213820538608,1.492369823279121,0.11336985991103196,-1.6016807605608425,-0.069838342698771,0.012335017291700633,-0.05650995343552891,0.10900306237437488,1.578125
0.010228388220388742,-0.00700312265942538,-0.025226050561787658,-0.02887954940254835,0.022336770841305326,0.014458097146445437,0.015419663405741909,1.1000211629833356,0.08369172911607135,-1.1824803640862802,-0.051630314497998,0.009278987737462411,-0.04199500758851461,0.08038568466718757,1.5859375
0.011950953570844448,-0.00822372533868906,-0.029540654517389606,-0.033923987208713605,0.026382981441389182,0.01690125855155299,0.01802892359238325,1.2883130923796517,0.09779753522285724,-1.382926965945353,-0.06040355786597488,0.010729776432533205,-0.04900428430676203,0.09440651734433099,1.59375
0.009210917116877541,-0.006307926705174052,-0.02257925266638948,-0.026025482025965177,0.0200513111190758,0.012997158134810761,0.013845273684457489,0.9964627304268915,0.07575546413244164,-1.0668743939209662,-0.046621053923350204,0.008434770312373925,-0.03789759014752216,0.07284644824703344,1.6015625
-0.0017332389678947617,0.001429466261289789,0.00505310228130657,0.005469131141309812,-0.005451769743970386,-0.0025738785215453377,-0.0028460263947795643,-0.1895972140142159,-0.013770244035286563,0.20509603326862283,0.008843467844582087,-0.0008067298574814244,0.006557807882873321,-0.014483308757298578,1.609375
-0.011147455360864172,0.00810828235376414,0.028792163294082303,0.0324648427575324,-0.02741183077532209,-0.01596932901165897,-0.017207061119617714,-1.2145815186173987,-0.09123083538928924,1.3017066915527375,0.05664337607168263,-0.008777981889086413,0.04480609120752399,-0.08974864233966968,1.6171875
-0.011180631793024483,0.008142356177236815,0.0288563554940442,0.03244487671672773,-0.02747402540879848,-0.01601913595084479,-0.01726415664997865,-1.2194679251835796,-0.09169224963057389,1.3071011790759246,0.05684346501783567,-0.00882315836058749,0.04490454649922596,-0.08995750505376422,1.625
-0.00695876772223943,0.005144919784906435,0.018205116580434107,0.02026721204203097,-0.017609872322353746,-0.010015374329893509,-0.010842088371750167,-0.7580845618126896,-0.056839479147478174,0.8160100655844962,0.03539680016181701,-0.005263578065451016,0.027706709394839282,-0.056023873600400384,1.6328125
-0.0071516537405724575,0.005273428925307256,0.01869708257561161,0.020845035327699137,-0.01807268283210638,-0.010291483574793108,-0.011161638998260864,-0.7770130404754815,-0.05822446399857509,0.8380094538629903,0.03635246536713199,-0.005432129831834942,0.02850243628725278,-0.05739719593833313,1.640625
-0.010752926298419447,0.007831115534238169,0.027750488097868425,0.031205951859879018,-0.026493994988275878,-0.015407674143383223,-0.016659371709573427,-1.1705508067008885,-0.08799648325599259,1.2568444467993125,0.05464999133608692,-0.008474831723512564,0.04318348958577409,-0.08618779652981191,1.6484375
-0.009977181142768585,0.007290179970717037,0.025727918287699162,0.029003009309341115,-0.024676802545732183,-0.014285274064842039,-0.01543853376446981,-1.0895736834517074,-0.08193549267692349,1.1656845535990445,0.05073629777128243,-0.007795065086072108,0.040050700285193586,-0.08020799010985848,1.65625
-0.0036428566847084543,0.002795062672290876,0.009712121460709313,0.010898643629096401,-0.009869610855703786,-0.005258129075628852,-0.00572366396158683,-0.4010792235576945,-0.029844656390257747,0.4264562762036836,0.01855445072542666,-0.002397338219446445,0.014299093189011488,-0.02984493029407785,1.6640625
0.0011420938448894894,-0.0006102451479801763,-0.0023307708816528334,-0.0027603375744144803,0.0013033060266080412,0.0015454262256383944,0.0015886633093860755,0.12181055012714864,0.009777401606099976,-0.13135436580680365,-0.005783862117753387,0.0016686498371545283,-0.005152563613362719,0.008363520114932238,1.671875
0.0022847924140714975,-0.0014170714588130605,-0.005166540675691748,-0.006054238359215652,0.003919242865763254,0.0031537446085058403,0.003294191893317737,0.24665980069062018,0.019160373056147515,-0.2614990187371648,-0.01153728500439241,0.0025991598817780522,-0.009785282837261801,0.017640365050489513,1.6796875
0.0065870024747262555,-0.004439906406180797,-0.01601538638400346,-0.018461783628508605,0.013871071635244134,0.009269311783503473,0.00982690085710534,0.7102563632235814,0.05399504779214815,-0.7578267424857913,-0.033210671258928966,0.006179261941515181,-0.0272407332563832,0.051949557078368576,1.6875
0.014123904291416077,-0.009761450716844474,-0.03506123338967846,-0.0401121989941367,0.03143291611060389,0.02001243228096557,0.021357145664654763,1.5251433932510166,0.11546654610248383,-1.6345749362353523,-0.0713689597223096,0.012546612180842355,-0.0578493218706688,0.11183821989624744,1.6953125
0.013005914166220796,-0.00898229060981344,-0.032242069609294696,-0.03689698974155538,0.02890677714203786,0.018439548584918627,0.01970953408563458,1.4049340828762513,0.10649942517616524,-1.5081664520673959,-0.06581314283621754,0.01165420637454585,-0.05333603142425338,0.10278411213686893,1.703125
-0.0002193497426345743,0.0003619195072483364,0.0011902453707680343,0.0010492897502674598,-0.0018769888569818204,-0.00040103381161305527,-0.00047541412787128584,-0.027213754688469257,-0.0015147590127013986,0.02945030445235416,0.0011313028083384802,0.0005013365450103678,0.00035280849954434976,-0.0025737258306172774,1.7109375
-0.010402392161227694,0.007573353178946162,0.026953529419958603,0.030264736000881566,-0.025683188150904906,-0.014937274355038674,-0.01609185608859673,-1.131936592805488,-0.08492027091596521,1.2177080108462777,0.05282116328640757,-0.008150649083786382,0.0417349081464958,-0.08361571253862887,1.71875
-0.00512805774963706,0.0038565346530013505,0.013631570972565479,0.01513312155001834,-0.013464196492249803,-0.007438804978412603,-0.008093390276364087,-0.5619258740815103,-0.04196569609184884,0.6059915042667642,0.026206408919434713,-0.0037441766070342997,0.020364275592964894,-0.04154187764625419,1.7265625
0.007842820156318982,-0.005320828636886531,-0.01917419394488302,-0.02207975656695911,0.016813172669928773,0.01106185335728242,0.011740736741409914,0.844464083119149,0.06417901496040801,-0.9071837911467506,-0.0395598083189721,0.007234842642174056,-0.03229597027893561,0.061776603606036394,1.734375
0.013155450352736714,-0.0090944662597515,-0.03260469854676233,-0.037293618806265534,0.029296306760714545,0.018645430555223066,0.01990835874472429,1.4222508770201683,0.10790015771583406,-1.530905760647922,-0.06660641846743225,0.011787452730767409,-0.05387524168958946,0.10400784067780515,1.7421875
0.0061803055172914975,-0.004168774859980226,-0.014956661451004868,-0.01724727887134818,0.013064563419938698,0.008691732087068211,0.009259253200534565,0.6669974814356204,0.05101479638205009,-0.720068366704804,-0.03129914663629211,0.005924585898792597,-0.02554554330422322,0.04837047258904885,1.75
-0.005283018065257652,0.0039482440301087445,0.013980072014436146,0.01559828684324196,-0.01369955590384312,-0.007639146995584154,-0.008277466296001016,-0.5762901848503266,-0.04289479867414731,0.6175823285122058,0.026863275615086012,-0.003793748660141826,0.02098030457840902,-0.04285384314874379,1.7578125
-0.009080455084308662,0.00664793217929913,0.02350199648062496,0.026394611037527816,-0.022586590378091204,-0.013014000547092798,-0.014086880961868675,-0.9885849492004746,-0.0742477415564722,1.0628561212394185,0.046182538091195005,-0.007058289238973642,0.036341619956549276,-0.07290295488466642,1.765625
-0.0013209243901511844,0.001162171802875585,0.003898372867529038,0.0041238255334448614,-0.0045106396210586154,-0.001952646869945669,-0.0022356359939461035,-0.1472825254817297,-0.010867946691201289,0.16043144656425318,0.006869861373042265,-0.0005221056849475138,0.004827392980205576,-0.01099737989823257,1.7734375
0.005225368904665489,-0.003478264502590585,-0.012562674371258636,-0.014557111441955687,0.010742259013241752,0.00733152572859649,0.007753070438202431,0.5627925674041764,0.042854975119404684,-0.602101849687987,-0.02635245731120087,0.005043291349077756,-0.021688507146765443,0.04108742686673849,1.78125
-0.0036926617955249028,0.0028217862669918437,0.009972317762900142,0.0110717631731328,-0.010039239780121065,-0.005388001066162074,-0.005856495408099335,-0.4043968138049845,-0.029976601209726925,0.43582070774112547,0.018784836690191157,-0.0024476147284623975,0.01454109235756562,-0.030068034234877406,1.7890625
-0.019933163608789203,0.014317949434671927,0.050895163077867664,0.05757460144681356,-0.0478819496656539,-0.02847608920493858,-0.03061796042346325,-2.167071602840572,-0.16304716553250417,2.327040700558718,0.10108986772223993,-0.016174290795402096,0.0804029190156859,-0.15957018148619448,1.796875
-0.022349662753949888,0.01604409345904433,0.05693338549983759,0.06440941145406673,-0.05351684579403428,-0.031877577777073236,-0.03428313803877463,-2.431081300621582,-0.18318511162634957,2.6094938666938963,0.11340755331451757,-0.01826446027956712,0.09014055177732663,-0.17888411164987916,1.8046875
-0.00817933096322105,0.00602050116767984,0.021196693009666444,0.023771436523299473,-0.020489090899123,-0.01171054676691674,-0.012660458857100865,-0.8932578204068946,-0.06729302074082215,0.9602027839854148,0.041639385088528956,-0.006316899475760686,0.03261776856099657,-0.06583675827162244,1.8125
0.006985571179873216,-0.004729234028553906,-0.01700921450697254,-0.019616828701359845,0.014876507293545406,0.009847814350076627,0.010471962930383025,0.7555898059669308,0.057231898063907806,-0.8069121497438622,-0.03526553777748534,0.006530708050834147,-0.02889095452205824,0.0552040261734693,1.8203125
0.014993278970592647,-0.010410875424234309,-0.03718533613487082,-0.04244630474799481,0.03354358587346493,0.02122957373130566,0.02269557823637003,1.6254469553012716,0.12320943108485595,-1.741948935275809,-0.07590870965343789,0.013347801284824823,-0.06132459715165451,0.11886452906103452,1.828125
0.01758199444250543,-0.012231670837087144,-0.043733853169157996,-0.049812191997686835,0.03953867434133939,0.024915297968778425,0.02665322045007356,1.9018006951223887,0.1443175436698843,-2.0445081940873138,-0.08899430799899874,0.015543921278551028,-0.07176586058904759,0.13905733140387638,1.8359375
0.013863022340947566,-0.009581710761934063,-0.03438839491956008,-0.03924019945598334,0.030844774771340792,0.019634573723119796,0.020971246520540908,1.494714803373472,0.11350764043851201,-1.6102047572868279,-0.07008746797734156,0.01237126342045992,-0.05667731532406394,0.10934420013664195,1.84375
0.007533833912224541,-0.0051075389911737585,-0.01843500076181519,-0.021238161083052168,0.016128949177275833,0.010637945929850678,0.011294611612899356,0.8112519361032197,0.06173124881828236,-0.8722483693686932,-0.038059665823583576,0.0070058722578192345,-0.031072430178121637,0.05935371213258675,1.8515625
0.009433524373319464,-0.00647048002784234,-0.023192727455966636,-0.026715216807282276,0.020610820674501915,0.013333099560166138,0.014181013946409811,1.0221352034625593,0.07770317053870027,-1.0948707360465444,-0.047801703875179825,0.00863120142342937,-0.038825609446350724,0.07479467800485198,1.859375
0.014193245484581412,-0.009840340782107626,-0.03515534032386245,-0.04028830986919696,0.03171248557273479,0.02008759988655109,0.02145243613897264,1.537501996378849,0.11673610702503641,-1.6506861152218169,-0.07194145793442952,0.012676341837119394,-0.05809437044469414,0.1124936881462399,1.8671875
0.0006527372458000856,-0.00024228079771798614,-0.0010007072167873,-0.0014438544284167355,0.00012318379548068183,0.0008215771499030223,0.0008127797963263779,0.06479788437415131,0.005417230401124368,-0.072471188758501,-0.0032117854912273665,0.001217873399864291,-0.003118832698816687,0.0042981240065489935,1.875
-0.027304740736278442,0.01954990805737346,0.0694985835064939,0.07866326380013894,-0.06506380874430043,-0.03894400582268556,-0.0418466613587425,-2.967539850359364,-0.2237486191693334,3.1865408896618588,0.13856977320085456,-0.022455607919815945,0.11027604544419624,-0.21841349288765258,1.8828125
-0.03555731104643394,0.025384176824400626,0.0903425855827363,0.10232120797626801,-0.08431641311997695,-0.050701321246613196,-0.05448530816965632,-3.8593933749447347,-0.2910438898190096,4.149444111147828,0.18039956811564178,-0.02946777301594597,0.14373999611406396,-0.2839617139693615,1.890625
-0.013392506722785455,0.009698755114238495,0.034494361030681896,0.03882282658196804,-0.03268321012087006,-0.019208192285234876,-0.020724157414248687,-1.4551487361642281,-0.10936203216092646,1.5682529946030066,0.06806148451353587,-0.010744496612914626,0.05387820757148533,-0.10728121862938406,1.8984375
0.008126041835179811,-0.00552055700002665,-0.019794218853113797,-0.02287659554718986,0.01745604542908173,0.011403335020520725,0.012112972707633373,0.8757238496317042,0.06652870409415604,-0.9380836280288641,-0.04097245578855903,0.0074600603834860295,-0.03338541209447698,0.06417546011660585,1.90625
0.008835857359160346,-0.00602504663764535,-0.021692359520729686,-0.024960789108289267,0.019150407877836145,0.012476004682600843,0.013284227826453157,0.9516445597336913,0.07206139272568428,-1.0223708588478866,-0.044608446905550374,0.008108813911152781,-0.036341750466162524,0.06981823424373597,1.9140625
0.006346957053889879,-0.00428163662563088,-0.01550443321792417,-0.017806958926242164,0.013429397355616969,0.008995430838384964,0.009577917552071519,0.6838263226340564,0.05195385590230569,-0.7365180415854874,-0.032132782040643716,0.006071211468006356,-0.02633181452801241,0.0498664630981008,1.921875
0.013290330398203714,-0.009207042001736207,-0.03299437916323058,-0.037631747601365194,0.029645426628659304,0.01885979533893488,0.02016727954473014,1.4383852210393147,0.10924639039005384,-1.5481397893451245,-0.06741390875963914,0.011965723945537384,-0.054469229603627274,0.1050481053651651,1.9296875
0.01315406678769259,-0.009101590976245003,-0.032578632557635864,-0.03720808196485242,0.02926307257174275,0.0186107868872249,0.019873288154444543,1.422759053332334,0.1081012631196492,-1.5298959718554184,-0.06663396711503271,0.011798138663587428,-0.05382616105215795,0.10403212772066844,1.9375
-0.0018940299341796145,0.0015639256130999882,0.00537720999551766,0.005893003685906411,-0.005894566457939836,-0.0028101721195824894,-0.0031393694904486742,-0.21035834555164895,-0.015508517102576653,0.22803814245162024,0.009800744324279815,-0.0009967897188424186,0.0072352351350753056,-0.015664755743191032,1.9453125
-0.011179157489904312,0.008138712629673715,0.02873819235910539,0.032479564349115884,-0.027528043207333958,-0.015984709489519897,-0.017268478077129557,-1.2173303639830997,-0.0917039873141315,1.3107821153833663,0.05690066416441895,-0.008853132922642388,0.044849972868170725,-0.08964713360416587,1.953125
-0.0028985374938572646,0.002268106295246504,0.00785048822960997,0.008747679119336785,-0.008144831804061722,-0.004190789458852906,-0.004577886330460088,-0.3188196559439035,-0.023645966384259035,0.3421045033958864,0.014814313273986027,-0.001791576370419748,0.011240251035631501,-0.02388603668202907,1.9609375
0.004715962805061295,-0.0031334670190874842,-0.011278655516673654,-0.013089052955816596,0.0096453015484778,0.006612293374045443,0.007033891774494679,0.5077597600372891,0.039029160110820346,-0.5484483142880755,-0.023900411226671508,0.004689907218992729,-0.0196254896433532,0.036732200097147005,1.96875
-0.0034636513946955188,0.0026533655526175945,0.009406896285789279,0.010309644319254073,-0.009461366822162358,-0.005044695168727799,-0.005493266399636384,-0.3782183138425354,-0.027926804736231055,0.40598372486578566,0.017562621973114503,-0.0022554665536676285,0.013553303031283733,-0.0282016121840492,1.9765625
-0.014149067080691342,0.010230560137550937,0.03634864404236556,0.04090662855777992,-0.034430968480890875,-0.020233812762260512,-0.021822504671938144,-1.5375255121332094,-0.11572810480422603,1.6551404671095946,0.07184515449511943,-0.011359642479847089,0.05688312827158064,-0.11321015090564442,1.984375
-0.008977954976070972,0.006591878620857011,0.023306205205522124,0.0261244030680095,-0.022410144587906446,-0.012876146083988578,-0.013931612738567717,-0.9798269210017945,-0.07369825167157844,1.0549114653167524,0.0457613129600542,-0.007022560340723176,0.03594397240972603,-0.07228168035978,1.9921875
0.007449007417151552,-0.005030205832958013,-0.018087280237432272,-0.02088267162953548,0.015884203943080127,0.010463746785050076,0.011137263275773794,0.7992729143429601,0.060852906455749756,-0.8600783159827984,-0.037501735471398304,0.006901527877848142,-0.03063156395182412,0.058262260530049306,2.0
0.01661743387506241,-0.011538582999928371,-0.041215827864398966,-0.04714541446621479,0.03729570021013558,0.023496718811466834,0.025142064887218905,1.7954877769032687,0.13629570439569053,-1.9304454840327374,-0.08411270591617541,0.014720345811438901,-0.06784328649033156,0.13137673901826827,2.0078125
0.011585963128940462,-0.007995260663875202,-0.028608817605624233,-0.03280526380630004,0.025620094134976658,0.01637934157732795,0.017495065136295607,1.253614268350395,0.09531471399044521,-1.345161208275388,-0.05872939774962612,0.01049230558597687,-0.04753418905855053,0.09165485399122447,2.015625
0.0028633559801347127,-0.0018166371166321708,-0.006682222774824413,-0.00789399532904654,0.005298638819510156,0.0040149655216004535,0.004198581548463326,0.30849276166829764,0.023654951801894444,-0.3284307736943365,-0.014478256125898016,0.0030799715118753805,-0.01221913917976102,0.02238852816926308,2.0234375
0.001670384929385206,-0.0009608618553772117,-0.0036652239897478644,-0.004460873562171562,0.00248568918255164,0.0023160075879614765,0.0023599435373001213,0.177806271288496,0.013577497014060256,-0.18909888707468908,-0.008323216262857572,0.002029973022930099,-0.007357170878295363,0.012876205009902806,2.03125
0.004659980680716595,-0.0030843143748955203,-0.011163461496576262,-0.012916415760402917,0.009446369201574139,0.006538967978405681,0.006907454287609696,0.5025606282297881,0.038200092056715894,-0.5385463682195927,-0.023481294678261953,0.004573312811556342,-0.01942331997723958,0.03662325043740351,2.0390625
0.000595678354436197,-0.00022206317394203007,-0.0008983878510911823,-0.0011662004157386144,-2.050046121990817e-06,0.0007390675391091911,0.0007147995160511826,0.06286290219843603,0.005292195098936956,-0.06650854605120404,-0.002968486833120322,0.00118043974450376,-0.002885005312253177,0.004103392002232183,2.046875
-0.01105774091891627,0.00803454251071263,0.02849370284524096,0.03222863940327409,-0.027182638715834956,-0.015843980890210475,-0.01706787588571796,-1.2035190490755034,-0.0902033192106152,1.2922647229994286,0.05612064541000006,-0.00867858078720764,0.04442427317966364,-0.08896805198587306,2.0546875
-0.01789633521159499,0.012898615274044825,0.0457472167005225,0.05172544949008985,-0.043185575899977666,-0.02557517472806897,-0.027528885016343527,-1.9489497439327,-0.14669309721321794,2.0925326066309986,0.09092031393494848,-0.01451895237884117,0.07215936599267514,-0.14349208463853813,2.0625
-0.012087171492946509,0.008789447912019424,0.031084576824173895,0.03497817345422761,-0.029647612027412153,-0.017300732402550582,-0.018673931883543746,-1.3176680372328275,-0.09926317600249614,1.4170557726055266,0.06151108963029494,-0.009634770511126883,0.048527641655686925,-0.09692408495069912,2.0703125
-0.0005546791826201556,0.0006043233486702688,0.001981392243436288,0.0019401533409730296,-0.0026870574164276012,-0.0008742601983750412,-0.0010456069942849737,-0.062277134098534324,-0.004372341311297839,0.06979502521100858,0.0029216360292959845,0.00016249951318694336,0.0017012909043147178,-0.004855624242619915,2.078125
0.004957849743712818,-0.0033083334241424778,-0.011893717553668135,-0.013745577793430995,0.010198867333604202,0.00696732125367428,0.007392569310980037,0.5356876236647641,0.04107404193897486,-0.5768507313719572,-0.025113368127096827,0.004880635062219352,-0.020594761106713266,0.038786964636082305,2.0859375
0.000968124304035511,-0.0004680934256907526,-0.0017787630141974226,-0.0022463391655456575,0.0008339701545140671,0.0012699205494111096,0.001291855005988653,0.09806041866677077,0.00806425120445785,-0.11163395163597666,-0.004805867353160405,0.0015030065203928405,-0.004317006867993553,0.006645443821035147,2.09375
-0.006321187441779178,0.004706076152374519,0.016597451274928912,0.018564377088114748,-0.016212823596745033,-0.009100037398891016,-0.009850989923750879,-0.6943192670349212,-0.05202981420823416,0.7415830183736338,0.03224274643952274,-0.004705247939086625,0.025219602038610674,-0.05130440684318922,2.1015625
-0.007552000235324375,0.005569165009235467,0.019641668547047256,0.0219766914497077,-0.01904737183082697,-0.010826681892419053,-0.011728065309205256,-0.8237634278907261,-0.06192595944236602,0.8872019903023635,0.03843252150471925,-0.005766305425267542,0.030093633181470226,-0.060701504732838134,2.109375
0.0017529195410774657,-0.0010289671745980975,-0.0038295200757697254,-0.0046735577538607,0.0026863308941598436,0.0024069533724835734,0.00246662687383392,0.18846036722756962,0.014695238684559917,-0.19774646007769153,-0.00882674020437864,0.00211584848408355,-0.007672420349313522,0.013518115094112198,2.1171875
0.01654922990232947,-0.011497425276116404,-0.04108584373188109,-0.04696875728861002,0.037159853457212996,0.02342280982645326,0.025031812602108735,1.7911513168195263,0.1358728789189913,-1.9227184493700957,-0.08381452311145886,0.014642944456211395,-0.06760792526911576,0.13112160460506733,2.125
0.026415124277008428,-0.018471903517238708,-0.06597057613749405,-0.07523001980906632,0.06015003920908978,0.037466283867018994,0.040115242402350974,2.858902601743285,0.2164153719130719,-3.072153102426902,-0.13377984800645898,0.022995944738895355,-0.1076269654781632,0.20954717434182726,2.1328125
0.02517397645156688,-0.017598666832929093,-0.06293404468855826,-0.07178863139103825,0.057312980087107536,0.03575976940008717,0.03828595347468863,2.7261272040550537,0.20630850450225366,-2.9274544985009396,-0.12754200900983556,0.02196179330838619,-0.10271876890924395,0.19977312836109215,2.140625
0.015169339585120444,-0.0105281894818593,-0.03773645718379242,-0.04319038677144015,0.03402274279260531,0.02154021172185416,0.023019852057017946,1.6437375731537356,0.12468006156975744,-1.7617204561919866,-0.07689748463025156,0.013500986466081876,-0.06219227128909985,0.12024567499426175,2.1484375
0.0018210766578773527,-0.001079222818692186,-0.0039739060406282925,-0.004871878331951149,0.002834649095066096,0.002476116855032639,0.002550722468802286,0.19536528314247328,0.015365829881945998,-0.2054978955617288,-0.009169256481925634,0.0021732828946879256,-0.007927150749719305,0.013997481847688589,2.15625
-0.013262398547004327,0.009607267602326197,0.034154645728613785,0.03845964778127413,-0.032422301255124956,-0.019045518888868008,-0.02055073195365751,-1.443104204528322,-0.10856304970700101,1.553014089260959,0.06743905678810604,-0.010630024322459556,0.053394727038413616,-0.10613618381237122,2.1640625
-0.03011676419635385,0.02154066626807714,0.07662195749935735,0.08681114964788585,-0.07171352756113747,-0.04299457140582916,-0.04623430260066142,-3.272183681630648,-0.24692881461538865,3.515804104649231,0.1529344814499171,-0.02488292869974852,0.12177167134162982,-0.24049289036080723,2.171875
-0.041610232563319714,0.029667379648502263,0.10553596993805484,0.11976797776499591,-0.09842725496458854,-0.059287423044360826,-0.06367984236987177,-4.518033628315294,-0.34098464433895753,4.851596110121113,0.21111950492578854,-0.03455144987276826,0.16834468151191195,-0.332266812771404,2.1796875
-0.03499161465826929,0.024971909756750437,0.08885099452058143,0.10080775198305386,-0.08293916491012847,-0.04986624627108413,-0.05355048401199629,-3.798996643070938,-0.28645677000180014,4.077480931471375,0.1774667750902535,-0.02890982933446309,0.14149043778028716,-0.2796524712549053,2.1875
-0.009550255635885291,0.006965073899758174,0.024715410166690713,0.027859549947451885,-0.023643044592706528,-0.013690816536662959,-0.014765390136213032,-1.0389390327451267,-0.07790088111921385,1.1138541096677168,0.04848492584799513,-0.007404870140354871,0.038288499607747876,-0.07685221486391927,2.1953125
0.015994528782370416,-0.011100009346665883,-0.03974183293440459,-0.04540916903569515,0.03585171589769093,0.022664131967599317,0.024191233472461528,1.7306911587716376,0.13117860847895882,-1.858518550087025,-0.08092675381632285,0.01415092675787933,-0.06536965382449908,0.1267560068053017,2.203125
0.025221222145841465,-0.017614546378111818,-0.06304581273644397,-0.07187030623587458,0.05732191946079742,0.03581079224779181,0.03829005473829123,2.7287198541561235,0.2064766984313708,-2.93039790701338,-0.12762837650833403,0.02193579928977319,-0.10281720627600395,0.20011429172837306,2.2109375
0.02272427535787124,-0.015850452167488233,-0.056718869196054456,-0.06471502137141158,0.05152373617246878,0.0322461821714789,0.03450813959962394,2.456478456283151,0.1860192424872588,-2.640246987286532,-0.11503469690108387,0.01987045803368207,-0.09267562986573902,0.18006640207375524,2.21875
0.01944808103471435,-0.013552312565386207,-0.04842887556458169,-0.055382713852390776,0.04395664870637666,0.02757064397452961,0.029520417173451597,2.1036021589849208,0.15952655064873775,-2.2613000214966092,-0.09859630727482971,0.017160307980242123,-0.07941181534395467,0.15413757379719964,2.2265625
0.014793900009901226,-0.010269204956454978,-0.03672235120537732,-0.042114161036949115,0.03314147752161256,0.020963241671387207,0.022407620852220735,1.6022605372353687,0.12164878001058772,-1.7195296058659741,-0.07507333843074453,0.013216794836822289,-0.06059399046319885,0.11736996469247483,2.234375
0.0068048110434520016,-0.0046005898567691925,-0.016587330744010344,-0.01918927590902159,0.014464208749542731,0.009603986351541235,0.010181567629390731,0.7354520649804607,0.05599069944036993,-0.7865682003072233,-0.034435064655740276,0.006385439859601407,-0.028178510515694838,0.05374311001747018,2.2421875
0.0012058006146482977,-0.0006210567130237514,-0.0024025445325757573,-0.0030339461349469556,0.0013445548693628924,0.0016094445205313188,0.0016007979612109647,0.12544581946635058,0.009777977765059613,-0.13354163589148083,-0.005886710750245365,0.0016026418231796207,-0.005373587422308897,0.008911042476113452,2.25
-0.0021462577554473977,0.001742465113614137,0.006106562414001282,0.006637042141343107,-0.006447358265710065,-0.0031818401121715212,-0.0035120343719296436,-0.23794331932190527,-0.017589426882895148,0.2539779479975704,0.011063626475145165,-0.001192875526732526,0.008283250716673117,-0.01787225919423718,2.2578125
-0.01025259685252599,0.007457539909306617,0.026511825601137236,0.029853630475874422,-0.025269705061524626,-0.014695979015085344,-0.015843742109621226,-1.114330608777706,-0.08358714918723191,1.1954408647050003,0.051986450078898926,-0.007984192452814825,0.04113617295690361,-0.0823438248622496,2.265625
-0.018173429327471916,0.013063741384643592,0.046418221269073794,0.052523715132710515,-0.04373745901864559,-0.02594393204300105,-0.027912876954536963,-1.973492964959214,-0.14843874997308942,2.120362732650903,0.09212206919216719,-0.014688519142300953,0.0732210339583672,-0.14543187451045944,2.2734375
-0.01515906954266568,0.010954059208325213,0.038810816895272396,0.04386521743439445,-0.0367984367024541,-0.021669793430844464,-0.02334116275666237,-1.6498429349320334,-0.12422332469236827,1.774909188643815,0.0770209405303301,-0.012208620951431735,0.0609830080140889,-0.12147803432060604,2.28125
-0.008308398529669839,0.006115596260414298,0.02157122381027767,0.02421377153284756,-0.02086367281696197,-0.01194144543261715,-0.012914498459434431,-0.9071696336476338,-0.06838743942817331,0.9789254221920497,0.04240665673549811,-0.00645540004353718,0.03318818551279644,-0.06679073711897816,2.2890625
-0.009027830089825209,0.00660535516130424,0.023396365704811115,0.02629296030961812,-0.022467417923617984,-0.012951396504331324,-0.01399533379849487,-0.9812606700865257,-0.0739167834386434,1.0581302265448018,0.04594637968301638,-0.007025366948361301,0.0361005863102654,-0.07237609366622662,2.296875
-0.005410579764035075,0.004027095116172654,0.014259032078598481,0.015985919831215577,-0.013973009457133794,-0.007786758762379005,-0.008438881543290361,-0.587405098002527,-0.04381016637911402,0.6315061033304183,0.027464406177642783,-0.0039006940904700634,0.02145093692686568,-0.04372954592290393,2.3046875
0.014882165316430239,-0.010324457685914439,-0.03692647312834277,-0.04215615522435887,0.03328620576352877,0.02107599894771208,0.022538285549546486,1.6094201089814046,0.12232438002958404,-1.731328956937844,-0.07537129186329725,0.01327641696420591,-0.06084033497004511,0.11759119298229961,2.3125
0.02988042380290374,-0.020917852773567953,-0.07475904883549887,-0.08521588608510587,0.06817240659949816,0.042404686828235595,0.04540977128644911,3.2324438895520045,0.2447385506466645,-3.473233092279334,-0.15126718283911134,0.025919528197373337,-0.12170386865339473,0.23705081826987487,2.3203125
0.013734213359200142,-0.009489009458442764,-0.034045877154850385,-0.03900895413852301,0.030539146579953293,0.019445893935725437,0.02075373139545798,1.4831439780668567,0.11238454069264615,-1.5908329290665928,-0.06940084464539484,0.012227861443691625,-0.05624067997605766,0.10871912087325473,2.328125
-0.01571910640837221,0.011341063834661432,0.04026197906389977,0.045444561315917086,-0.03805645189910344,-0.02245242222029369,-0.02420196519130688,-1.7078181995644433,-0.12857286058640646,1.8361282084727035,0.07979376538943489,-0.012670360643106745,0.06326963042360417,-0.1257930912923275,2.3359375
-0.021806267411364547,0.01564313153674912,0.05565872679894997,0.06297900724211622,-0.052219142086755516,-0.03113286060147022,-0.033490132362754506,-2.3686037921420806,-0.17831832103492454,2.5416171445338227,0.11058642708875151,-0.017783224858385273,0.08802946113027144,-0.17449710415498929,2.34375
-0.003782674060779773,0.0028962088461139956,0.01018320256149063,0.011327771498218397,-0.01022200899528221,-0.00549241959889773,-0.005961987556221296,-0.4167943689643958,-0.03095560335463123,0.4430171966700118,0.01926392842674403,-0.0025254301575715044,0.014909835013265706,-0.031083545351933382,2.3515625
0.01098049340307056,-0.007545711116883399,-0.027140102340412656,-0.03107791581359121,0.02419159999681416,0.015552188592651029,0.01659977430046228,1.1841463004393953,0.08978408273266761,-1.2740488886925299,-0.05554656878765059,0.009949956767488822,-0.04506298251623332,0.08667932443309581,2.359375
0.010705169843428775,-0.007356201699547185,-0.026479708947696672,-0.03036499553683828,0.023572429089864493,0.015183121607094783,0.016173067305335208,1.1569544852795894,0.08772921041966522,-1.2412313836371514,-0.05420403914453912,0.009704337329538753,-0.04398948643780182,0.0847655068692356,2.3671875
0.0035352558044993245,-0.002287930631863483,-0.008302386107978234,-0.009777740881805571,0.006846620830922818,0.004933733296014145,0.0051727535138534515,0.3806737447725131,0.029227147455209202,-0.4064297582900323,-0.017881595670892682,0.0036294259044258696,-0.0148374371425075,0.027725231019225454,2.375
-0.0034509944103498892,0.002659380977636983,0.00941738156447788,0.010350486782540436,-0.009492115161805467,-0.005066252812449724,-0.00553351881073904,-0.3786318114260211,-0.02811879243435197,0.40766751231000564,0.017610649107800885,-0.002291695969226505,0.013588121630310514,-0.028086925155878784,2.3828125
-0.006291289830128041,0.004673420121302546,0.016541414395361873,0.018521740970012385,-0.016125637542872027,-0.00908912125831691,-0.009834586934864598,-0.6881635956736578,-0.05159202704736668,0.7383674379420566,0.03206073395641123,-0.004687109157373932,0.02508897062166516,-0.05087099940533349,2.390625
-0.001944927132776514,0.0015901920939168338,0.0054605686272656195,0.005968494197351797,-0.005923625777877329,-0.002833468291358062,-0.003127558035722116,-0.21525499445334234,-0.015834359247640636,0.23015970339697034,0.00993588603852135,-0.0009743846506072948,0.007344613791720688,-0.01621100020711838,2.3984375
0.0036309796587817664,-0.0023683190339598165,-0.00863079027036686,-0.010111113421615827,0.007134152155374385,0.00512090771563011,0.005399573103139005,0.392515225283186,0.030212930111151743,-0.4205086250102006,-0.018438976164721732,0.003762597165927558,-0.015351891304476525,0.02837795840621169,2.40625
0.0021922017797940665,-0.0013488918447377082,-0.004918232622677494,-0.005948755497887806,0.003722141002317692,0.003021113559439637,0.00314438601205725,0.237205190639348,0.01846405076535975,-0.25004327618850763,-0.011064485317055655,0.002501767579515047,-0.009486864441021573,0.0169960474888338,2.4140625
-0.000975916991503556,0.0009114087742716303,0.003138270607470942,0.0032720537216101905,-0.0037854393915997954,-0.0015336558424188973,-0.0017464388805120113,-0.10900664072528901,-0.007877841301164324,0.1237094326672891,0.005217505908633097,-0.000250795709676106,0.0034488186996064285,-0.008390624033423444,2.421875
0.0035044504396287385,-0.0022444847453539653,-0.008177106743258694,-0.009472234905028009,0.006624836603730095,0.004848377678942228,0.005103275859234034,0.37374589806316455,0.02853790546206182,-0.3976074138185341,-0.017396558674933116,0.00352660310222679,-0.014660214812498072,0.027007243427372853,2.4296875
0.009575182307840945,-0.00654689380144722,-0.023525798770007295,-0.02689005677596547,0.02086422520016265,0.013514351249828083,0.0144204387870066,1.0313845455228006,0.07844793794058931,-1.109470729105549,-0.04831032717655182,0.008730793289204297,-0.03926641255789527,0.07517649421061219,2.4375
0.004590624736296752,-0.003037568857534003,-0.010973918192956079,-0.012703088248277353,0.009336837096212277,0.00644097077549204,0.006846547505166758,0.4926130493436955,0.037956132480993686,-0.5330084971793592,-0.023243528430358925,0.0045840579055092655,-0.019080302553086022,0.03559504196375671,2.4453125
-0.00989177904600586,0.007204711288742241,0.025530075269362813,0.028701132375336943,-0.0244156496344704,-0.0141466015778034,-0.015259863186110043,-1.0758147932527606,-0.0806711960673008,1.1548175309387696,0.050126606142694874,-0.0076757520683958256,0.03960201170616123,-0.07941109091689923,2.453125
-0.020293780201518747,0.014578951055371618,0.05175439504379662,0.05849414458578552,-0.048713130933920705,-0.02893728805049036,-0.031161992705484795,-2.203958314334766,-0.16623074570713584,2.36964860181273,0.10298070701919688,-0.01654192445301375,0.08178454462075417,-0.16207775838479632,2.4609375
-0.017108766874913826,0.012341448795162852,0.0437607235196626,0.04945456286515055,-0.041335361593792634,-0.024431980476059004,-0.02633018255808256,-1.8615013479286635,-0.14045284260663227,1.9995672870215666,0.08696068514987498,-0.013880853425872903,0.06895079577486166,-0.13692073022997966,2.46875
-0.003297181714895793,0.002566621060783994,0.0089767282677708,0.009954274417323414,-0.00915318301143135,-0.004820771526600999,-0.005257252514254672,-0.3663624572232528,-0.027259778511288645,0.3894008989208783,0.0169216206081726,-0.002150796015286773,0.0130055017341347,-0.027204507063840356,2.4765625
0.007674066250108299,-0.00521560774667395,-0.018709208171545144,-0.02153238670543479,0.016454622959047437,0.010789471551031988,0.011509414619481042,0.824900008012398,0.06297888529404615,-0.8897948889242382,-0.03884804250805145,0.007196708955048994,-0.03154948969778274,0.060254454989608054,2.484375
0.006693000331897061,-0.004535360656844396,-0.016298755192089717,-0.01883302783843964,0.01422655671545909,0.009430554201126077,0.010029313975803858,0.722825845644264,0.05523155708156271,-0.7761086167031983,-0.03398267382792882,0.006366835394256264,-0.02769465639176882,0.05278026319055092,2.4921875
0.004446156016035034,-0.002939501531006374,-0.01065914741770851,-0.012428672198515279,0.00901400535298971,0.006253990098367054,0.006587534069171985,0.4810171728659119,0.03672018482511217,-0.5147722182554926,-0.022540097464248537,0.004405271165549092,-0.018625730151636277,0.03504285446317808,2.5
0.015165385430710037,-0.010511955039065223,-0.037665875698923615,-0.04309347214622999,0.03397259756597899,0.021496097906895485,0.02293486409248459,1.6416429659503473,0.12423250915126861,-1.7632429874973508,-0.07676456076121012,0.013439004411886576,-0.06206160861263077,0.12029149651350064,2.5078125
0.026333480588729304,-0.0184160981873099,-0.06580079480821774,-0.07504354954070029,0.05997694299342607,0.0373785169028224,0.03999862587056674,2.8515271188066658,0.21574450680068719,-3.0635943075851215,-0.13336347561494497,0.022918039425517824,-0.1073320722347754,0.20906296575827352,2.515625
0.015266265995661827,-0.010594797304904379,-0.03787414813230015,-0.043299904075777544,0.03417963551805492,0.021629865642906535,0.02312740124326589,1.652481794688719,0.1254499532254978,-1.7738058243592834,-0.07731693955879201,0.013589240525908361,-0.06244468878337919,0.12079562842285455,2.5234375
-0.008813118151541092,0.006447822547474676,0.022869076677838156,0.025716467658231504,-0.021965337740709964,-0.01264828790103853,-0.013645121762222462,-0.9585906360789627,-0.07170068944328946,1.0329816370884881,0.04478047719058481,-0.006809103265204654,0.03524031041085651,-0.07104980573029775,2.53125
-0.019754933384560712,0.014208083963384284,0.05047446945386737,0.05705514623198879,-0.04752985845161333,-0.0282386125261029,-0.030388286463515057,-2.1472592057659337,-0.16174753490686578,2.31110080874666,0.10038432735027716,-0.0161263848866971,0.07964741242346698,-0.15811943966037617,2.5390625
-0.019779907345619747,0.014232561610381668,0.05052917498518354,0.057106479649354835,-0.047629000426859414,-0.028270286798975405,-0.03043763405327239,-2.151035175625857,-0.16227983251094658,2.315507260026432,0.10057436253726923,-0.016164015771122905,0.07975264113205616,-0.15815738144300803,2.546875
-0.02157411856260862,0.015486450708830542,0.05503670630801042,0.06227315915586485,-0.051767452842741625,-0.03079869430616508,-0.033142604349157646,-2.344032025645341,-0.17669951340379486,2.520435373069434,0.10954818850511994,-0.017627921630184853,0.08702945245091626,-0.17245680492030777,2.5546875
-0.008664974958946707,0.006332964318295158,0.022460637761997023,0.02530281191002324,-0.021582126439044686,-0.012415862402562022,-0.013394737866692076,-0.9428447916013768,-0.07049799036242903,1.0106851558818783,0.04393284107561121,-0.006634452761888389,0.03466613432705876,-0.06983127437288825,2.5625
0.026484503583292084,-0.01853835536965107,-0.0662130120669968,-0.0754782939817988,0.060394764892344875,0.03759760549390681,0.040274164165740194,2.8678189461856056,0.21736688224610462,-3.0845253876730587,-0.1342714342251947,0.023119210319067957,-0.10793718745741121,0.21006394170134193,2.5703125
0.039184695279646076,-0.027508065828752776,-0.09826035053329422,-0.1119424545041294,0.08995312877807612,0.055670149651290066,0.05964060161947675,4.243650258489139,0.32093485913880365,-4.559306861058447,-0.19851719077120786,0.03381012969925564,-0.1594795013027574,0.3114014301107465,2.578125
-0.0016912437562543626,0.0014273367712073753,0.004854717341679451,0.005220184629202713,-0.0053935069873304676,-0.0024926430002877773,-0.0027925989098112765,-0.18879956087559863,-0.014100253374063728,0.20495636451513835,0.008789306951416406,-0.0008303871120401314,0.006364290552866805,-0.014003935339506007,2.5859375
-0.044662377332012705,0.03182838845815112,0.11328684298635801,0.12844448318657992,-0.10556100809954085,-0.06365592808001762,-0.06841282903003779,-4.84775332496013,-0.36587170140980746,5.207837640485472,0.2265673393098929,-0.03718022725974972,0.18074465771770942,-0.3563083390443827,2.59375
-0.029019790591243034,0.020749045469222998,0.0738589921762575,0.08364126244339118,-0.06904595018797889,-0.04141941611862633,-0.044524211512719895,-3.151503948389442,-0.2375504578834567,3.382225002604551,0.14718007891240906,-0.0238938811048125,0.11730590941796387,-0.23186231672728733,2.6015625
0.016800273629600758,-0.011673996316295164,-0.04176022551693344,-0.04771225688839437,0.03779768698351332,0.0237964854655252,0.025461321365615432,1.8164917248160788,0.13769523157870633,-1.9549240629474214,-0.08510405214526262,0.014901618129243146,-0.06862630204348136,0.1330024343554872,2.609375
0.027538266603325465,-0.019266945797308765,-0.06893039088235335,-0.07853212584280773,0.06281712319152921,0.03912461353957039,0.041882281272213946,2.980935868063229,0.2256157254320882,-3.2035574895048833,-0.13952098736863253,0.023970789470918782,-0.1122564161259916,0.21854580545621938,2.6171875
0.005027899705379923,-0.003339968439701127,-0.012156797647946757,-0.014028553690950378,0.010301921763209387,0.007103535563048592,0.007496039954278866,0.5412091292565935,0.04143142311985039,-0.5800998037870254,-0.02542244053386096,0.0048964015818786805,-0.020955382708810817,0.03935582606041846,2.625
-0.00539774731294355,0.004033073817576587,0.01425872021190299,0.015901068451302163,-0.014058054896006159,-0.007791304163246919,-0.008478172961041032,-0.5883104652308234,-0.043854275996277545,0.6358778649703731,0.027471784784015137,-0.003948215646922746,0.02138765955839492,-0.04359569087868061,2.6328125
0.002948425242610383,-0.0018667753558720094,-0.00668471150233015,-0.007936351679710046,0.005356153114644363,0.004029186001093539,0.004236509897327581,0.3157220861500071,0.024261254276365038,-0.33410745213239973,-0.01471306992454529,0.0030967821682069013,-0.012402226279086147,0.02281059587143662,2.640625
0.006848560734654427,-0.004617118163951747,-0.016568066911687038,-0.019104620032060045,0.014476977078359337,0.009603806539881738,0.010231094473303429,0.7365423677721681,0.05594463838495216,-0.7890989460908231,-0.0344550065055268,0.006410046698995883,-0.028211619779072807,0.053697923452969434,2.6484375
0.004807842394107762,-0.0031797152639043234,-0.011557847086121715,-0.013372397634773955,0.009819859091938372,0.006767332235198457,0.007174296679427332,0.5153102945660517,0.039411136959496426,-0.5562450683358093,-0.024275871715961107,0.004734955095458134,-0.020002376834883644,0.03742557340416654,2.65625
0.006997050256074205,-0.004748921463151406,-0.01713165891210675,-0.01978042859521557,0.015001187361069241,0.009903481822978594,0.010527502426081211,0.7560111543288609,0.05777380794397814,-0.8147652541905743,-0.035545292355732526,0.00662299484537894,-0.028972554056729355,0.05513263592467547,2.6640625
0.006853050406693399,-0.00465527105511284,-0.016711084068435366,-0.01938906493870843,0.014647274943739963,0.009669926797096813,0.010275741561274277,0.7436257302333135,0.05668596651409256,-0.7954750600089385,-0.034785795478433704,0.00646892231320263,-0.028419420989061164,0.05431838010469506,2.671875
-0.0020719785462478316,0.0016747262750686366,0.005845186996942876,0.006267339626257415,-0.0062331550169245405,-0.0030472790357838823,-0.003372713485749318,-0.22501037990765754,-0.0167849845909735,0.2489739654705501,0.0106193990144176,-0.0011450701463521112,0.007829108555087304,-0.016734457895226606,2.6796875
-0.010684202585957654,0.0077881044990521205,0.02756391484338997,0.03104496821146823,-0.026359266390046567,-0.015299467152410762,-0.01651451632416854,-1.1633960219988946,-0.08768050247425849,1.2529261083931418,0.05437678580379635,-0.008444158302967979,0.04284999326833822,-0.0857055096115112,2.6875
-0.013664420413867917,0.009900385260485731,0.035100474697498114,0.03967031264166248,-0.03331071999398206,-0.019555138916050686,-0.021052786274625063,-1.4901304398132043,-0.11203834322357804,1.5970028702575452,0.06947009831001451,-0.010920634212457701,0.055018916096381286,-0.10992607610527007,2.6953125
-0.016134171198892648,0.01163735051532481,0.04136642403804726,0.046799166225519676,-0.03905555645071856,-0.023092419198476263,-0.024827470096993404,-1.757184569804168,-0.1319424261117652,1.8826462065911405,0.08193585327237278,-0.012976968331583422,0.06505865144647664,-0.12973812765139253,2.703125
-0.01578571332693776,0.011383747353751065,0.04045969401677613,0.045772187467793414,-0.03823745836892764,-0.022583772544060948,-0.024310226856759244,-1.7163885400100485,-0.12894091609329764,1.8427812800823873,0.08014337361919391,-0.012702331641736134,0.06359520692470345,-0.12667517211111598,2.7109375
-0.005275865317289658,0.003953609030629703,0.01387952081592994,0.01556960954573817,-0.013745042855814035,-0.0075897520483532415,-0.008273287561316558,-0.5761448196137179,-0.043115526810388195,0.619785471170334,0.02689200768116191,-0.003847497148731867,0.02090995284724768,-0.04265031712249907,2.71875
0.008633105667027368,-0.005878438504844138,-0.021216019353254793,-0.02432969408472951,0.01866925645536651,0.012215571217669047,0.012968699574600994,0.9297820083671184,0.07046011836206557,-1.0003626527096467,-0.04357804409109248,0.00792200048207969,-0.03549686869340741,0.06813420075897197,2.7265625
0.012118864712554153,-0.008348529097986664,-0.02995991356296301,-0.034283394215489364,0.026808957086651125,0.017153776006296376,0.01830487877078093,1.3068546477370402,0.09906839390680035,-1.4070260796528233,-0.06127770853419486,0.010913708049621494,-0.049589598536315706,0.0957483218810316,2.734375
0.007325302485802679,-0.004971507246138172,-0.017844140601765833,-0.020524720674562857,0.015671329750293773,0.010312208009682544,0.010990779044859207,0.7896622828151315,0.060219156649055305,-0.8486397496235722,-0.03706587469636452,0.006890252394817247,-0.0301535139607578,0.057603081746578,2.7421875
0.007659345110806114,-0.005214199231463753,-0.018702592036198316,-0.02155495800760116,0.016471905692671703,0.010789277365788247,0.011491929330900987,0.8286441350146014,0.06313006489280112,-0.8863761088000262,-0.03878932209443716,0.007153795811964326,-0.031593803580612874,0.060475901214707875,2.75
0.01313132777692129,-0.009076979170967827,-0.0325155579467087,-0.03735562732988017,0.029219001190528268,0.018590017506794076,0.019841069274922535,1.4219002271146306,0.10766133014406294,-1.5224887014412243,-0.06646842003583373,0.011733404271489103,-0.053883803677691494,0.1042045082997879,2.7578125
0.010134205912663714,-0.006948834316583952,-0.02495713647298706,-0.028794283701886143,0.022223579214685384,0.014338967721533528,0.015274568552456059,1.0957484373426223,0.08289486182639083,-1.17370091848377,-0.051242879320287454,0.009174638551204862,-0.04174201553331535,0.08030081053566306,2.765625
-0.002541442731720027,0.002012731572591075,0.007007619160502708,0.00765733563765358,-0.007318141960511202,-0.0036961611752640575,-0.004065205180987422,-0.2785080841507497,-0.020646280216254583,0.30098762730054257,0.01295575400044907,-0.0015211612166612474,0.009757219302478125,-0.020824514005594343,2.7734375
-0.007165064486911992,0.005273281225211196,0.018677970619942152,0.021055940475336477,-0.018098066217406453,-0.010291757401528254,-0.011120977367471295,-0.7795438581983436,-0.05812389656541127,0.838394374739782,0.03634037791951688,-0.0053897160658835895,0.028605615303588124,-0.05786847560131413,2.78125
0.003972402324360101,-0.002604487848043463,-0.009387539517568837,-0.010878545801040043,0.007846641250395608,0.005539268901376838,0.005879180991314504,0.426620505970799,0.033007390185930165,-0.458420406523413,-0.02008474077179325,0.004039746782664963,-0.01657562341506703,0.03071879922506435,2.7890625
0.012183324344132853,-0.008399255750040392,-0.030096508011838767,-0.03455350871063271,0.026972371825599178,0.017228378632225764,0.01840603811348726,1.3149601483946183,0.09979091078144169,-1.4138457885527667,-0.06162205978959586,0.010948474474135767,-0.04995550178637385,0.0962003632758686,2.796875
0.0017540644451863312,-0.0010094452040844885,-0.0038157819240543776,-0.004695748028718844,0.002648460006379081,0.002400590682729394,0.002462508270803409,0.18397080018462314,0.01415030604822363,-0.19866111393800429,-0.008683669484583503,0.0020847021509555245,-0.007652843546252701,0.013274692597341188,2.8046875
-0.014366471090236437,0.010391835781469131,0.03685208795878272,0.04166013218934462,-0.034947422439364044,-0.020552206026647764,-0.02217312835630253,-1.5626612976908025,-0.11761259286467486,1.678636424829495,0.0730470871804945,-0.011547875732739049,0.05784391830689153,-0.11515042087241795,2.8125
-0.019712256196863984,0.01416159984067007,0.05037711990095097,0.05710391120365009,-0.04740636060821573,-0.028186021926848458,-0.03033180558370016,-2.1417304313757475,-0.16107512069216576,2.3001355649871837,0.10008674519664189,-0.016021762561901784,0.0796109955734279,-0.15786734876512107,2.8203125
-0.0208545909332724,0.014967169755388325,0.053258180664849865,0.0602974899773774,-0.0500362000825959,-0.029802125489357706,-0.03203854344887489,-2.266548674148503,-0.1705368680322785,2.4324067715691475,0.10580484462881666,-0.01695638583821155,0.0842076881527975,-0.1669663164488806,2.828125
-0.023217355330696875,0.016649858000402067,0.05915671224940113,0.0669077419884524,-0.0555270278077344,-0.033118129917186385,-0.03561450354890647,-2.5236854075453423,-0.19026001366993378,2.709030049959843,0.1177824059561583,-0.018980957588342208,0.09369722940675965,-0.18560718220589234,2.8359375
-0.010116565491376153,0.0073856596989151976,0.026072440359908616,0.029305230818332834,-0.02501111270983191,-0.01445221638649365,-0.015624297818650594,-1.1022304532440466,-0.0830398078458458,1.1855954114229892,0.05141358525974963,-0.007938125015448973,0.04049228335585881,-0.08108669085570734,2.84375
0.022417785150613663,-0.015647494997584298,-0.055958807727640864,-0.06389141501776387,0.05081826085047808,0.031817960934022935,0.034017793980052544,2.427821111973787,0.1837418437150607,-2.6039085802643402,-0.1135309431023938,0.01959519392236402,-0.09150288784285988,0.17808811425194462,2.8515625
0.041770870777011714,-0.029353342389451843,-0.10473290637188869,-0.11930648689708145,0.09596285327653939,0.05932873541971835,0.06356635151175916,4.527045717383709,0.34244047502282454,-4.8605404409153365,-0.2116887341439834,0.036008284663074284,-0.16999994716080977,0.33212269715046994,2.859375
0.02476552394773714,-0.017308725533875816,-0.061856104417493916,-0.07055164993041933,0.05634063587718968,0.03514327611650287,0.03763118193393254,2.680721975137356,0.20293326805792186,-2.88041043383821,-0.1254497205138535,0.02162185518812379,-0.1009793437133162,0.19645458836170127,2.8671875
-0.003573427789601936,0.00276444731554431,0.009581564632788553,0.010652828310155585,-0.009741824060533552,-0.005153334075570195,-0.005629211383773517,-0.3945078217367849,-0.029396352309509186,0.42245834506525826,0.018290221663736783,-0.0023957550911205415,0.014011276780449914,-0.029397060563443458,2.875
-0.010475183665913448,0.007644012992330852,0.026991767326965326,0.030407447055497618,-0.025837634052927896,-0.014978171853080242,-0.016194738152585174,-1.1410532336335213,-0.08572974101098398,1.2266905528848286,0.05326464055474844,-0.008253375030913068,0.041997572564313704,-0.08419414736393575,2.8828125
-0.003071756007326112,0.0023802374183621204,0.008365746183127385,0.009216819489501512,-0.008551425527708965,-0.004479361034584647,-0.004915747955557856,-0.334020023527112,-0.024793234997099265,0.361903436552312,0.0156590561158986,-0.0019657393110397003,0.011947733052863932,-0.02489978738825427,2.890625
-0.0041302990579590556,0.003121063497496949,0.011072904042222775,0.012338898738775134,-0.01101887964799066,-0.006011027107154403,-0.006524792218054287,-0.44838117314176074,-0.033561082046223226,0.48435224147955075,0.021035474463346106,-0.002844147308269395,0.01627363447907978,-0.03331029934160212,2.8984375
-0.010483508463870432,0.007634980844011678,0.027098163353401324,0.03058200197938383,-0.025874624121110718,-0.015045161905377226,-0.01620291749531718,-1.14191081760248,-0.08591002960728976,1.2264073863969591,0.053306715360956554,-0.008226416862563736,0.04209011190218241,-0.08429142131449519,2.90625
-0.0070732024340041805,0.005232836024146773,0.01848482539715878,0.02072364723582903,-0.017944306310075542,-0.010175886164730098,-0.01098805328200466,-0.7752885172285657,-0.05793144036271715,0.8297914136996698,0.03598071677554472,-0.005335082838325142,0.028234562120163835,-0.05741802701856157,2.9140625
0.001938939889842485,-0.0011591129817588512,-0.004254515806898298,-0.00520294318528692,0.0030952854190470476,0.002653746977832163,0.0027596506251240972,0.20472955211501925,0.01628785334377005,-0.2218964594947836,-0.009815169771953831,0.0023109977471741346,-0.008397856125927236,0.014552153940939264,2.921875
0.0038438628707441955,-0.0025196856359366374,-0.00907668636674856,-0.010669694474751476,0.007547562179954939,0.0053676182095239045,0.005651190463614096,0.415455514534911,0.03203103002195987,-0.44366562576962043,-0.01946699929501378,0.003911265599002155,-0.016164200209436364,0.03012389316194623,2.9296875
0.0015910945096408054,-0.0009107428571380272,-0.0034172190559886885,-0.004178251029619825,0.002260055731202687,0.0021736301248611754,0.002209758283867798,0.17018774118900226,0.013180449355216619,-0.17787732055507363,-0.007911324082082958,0.0019615382419158065,-0.0069929677046696075,0.012257208587426792,2.9375
0.005075206717932538,-0.0033556081288434224,-0.012208015985848128,-0.014153193269794249,0.010367747230545798,0.0071385891377379294,0.007548619961588449,0.5434706088407742,0.04131758635252294,-0.5825823085888581,-0.025500853854442927,0.004901864529003502,-0.021070466335884584,0.03969505029073759,2.9453125
0.010490814208843926,-0.007194392527954056,-0.025854635111247245,-0.029659686504982356,0.023041263691720028,0.014835699406140967,0.01584031855753365,1.1296014710505042,0.08584170880375358,-1.2171841908835745,-0.05304298485523143,0.009536881383977576,-0.043017461495999255,0.08257557065946963,2.953125
0.0068042356958621444,-0.004609272949772323,-0.016555344438953304,-0.01906355780545636,0.014499851365063396,0.009578900815682388,0.010213941433019194,0.7335750606964798,0.0561060746009268,-0.7912260005046942,-0.034469186172318575,0.006459721504076715,-0.028082879272004632,0.053350340697465276,2.9609375
-0.0047901703537668126,0.0035908683841840133,0.012678933894925732,0.014155893018691856,-0.01253781003832257,-0.006915033927190894,-0.00750881573836462,-0.5208356028643716,-0.038829745417943505,0.5607283430733732,0.02432457688814051,-0.003381309195919859,0.018923457204008984,-0.03866788222445479,2.96875
-0.012604211596277351,0.009140311944188807,0.032388165531997484,0.036509677548178944,-0.030803816374466164,-0.018020913096613987,-0.019457272761432776,-1.3698930111801004,-0.10330311761038855,1.4742014172824112,0.06405526876862289,-0.0100557216229962,0.05062476389016216,-0.10080222889522311,2.9765625
-0.011982391518253898,0.008714041720404232,0.030821374619439186,0.03475033174560769,-0.029379076889296345,-0.017129840414382765,-0.018502034241665796,-1.30539757981528,-0.09849170534300042,1.4021703388206717,0.06096406567378527,-0.00954207016232028,0.048140881573357885,-0.09605057432222527,2.984375
-0.008566921610942912,0.0062881031603237705,0.02220123520379951,0.025061222559135815,-0.021396434806476135,-0.012276832421797284,-0.01326888368746615,-0.9349906679631227,-0.07022306911804885,1.0026710953603402,0.04359004558008398,-0.006607413257388817,0.034334046459076485,-0.06906990837019406,2.9921875
-0.005540891209775702,0.004134057596677724,0.014587550528216413,0.016446497326956664,-0.014320615211248739,-0.00799127971355398,-0.008649481741298556,-0.6051139120776289,-0.045045072439730174,0.6500352400460916,0.02817778586153206,-0.004014791562443344,0.022079541648903033,-0.04501237868474961,3.0
-0.0003092811956945448,0.00043517477368189414,0.0014371891473104954,0.0013815862428567319,-0.002142562430189873,-0.0005666216325179043,-0.0006877106936518805,-0.03769369687185792,-0.002251987055295985,0.04211037222051875,0.0016820368520593235,0.00038730862176629573,0.0008145588198446925,-0.003269483421799048,3.0078125
0.005213882178381517,-0.0034631190319370413,-0.012492676527858041,-0.01458141315961367,0.010697497331931755,0.007301425437659065,0.007729095845487253,0.5601861969229093,0.042664872795441386,-0.6006130791333821,-0.026245161266154077,0.0050157696352410835,-0.0216928857652244,0.04081418318095108,3.015625
0.005029487405350817,-0.003334090394811794,-0.012093719852801048,-0.014104566009590248,0.010261608523233707,0.007072666979803346,0.007465684840403154,0.5405304372101111,0.04110673824698059,-0.5797765119380984,-0.02531166490219545,0.004854687347092141,-0.02102269150261923,0.03942042765337228,3.0234375
0.0019864089934021737,-0.0011935988092060775,-0.004449756545518664,-0.0053031042050205035,0.00319308628256129,0.002749147094579699,0.0028445326262532627,0.212056174076559,0.016489179446293172,-0.22566474808705483,-0.00996558152424499,0.0023215488025937576,-0.008643885527703173,0.015182307781843462,3.03125
0.005705956685697263,-0.003836704984964395,-0.013765034952032856,-0.015874532655381513,0.011892198692712828,0.008003531402605093,0.008525671771479292,0.6160975303313269,0.04722909679766785,-0.6588678018553744,-0.028897080590883313,0.005513617339477076,-0.02364170544166507,0.04473928612731584,3.0390625
0.014636105656455877,-0.010157656261741567,-0.036236235480684234,-0.04152198505259146,0.03273578650938121,0.020693518809057256,0.022160854234023895,1.5842276499038626,0.1203315485224365,-1.6998377397047788,-0.07420204264201286,0.013080868919113997,-0.0598699609145491,0.11588716602378218,3.046875
0.015910791286817667,-0.011052832583584015,-0.03951558948540659,-0.045319440900298304,0.03572631167998797,0.022554509235053297,0.02412584942340324,1.722196319508174,0.1305138646112123,-1.8494041130496803,-0.08066060928613138,0.014135643978501896,-0.06513804028893912,0.12619811436929007,3.0546875
0.006173441294147876,-0.004151496321256829,-0.015028616620456202,-0.017426965744399923,0.013003172589294888,0.008735001217629336,0.009254025143001773,0.6656910157836138,0.05056953586746173,-0.7147605950589125,-0.031233305187334616,0.005859852108955645,-0.02565004894653465,0.048702832801848776,3.0625
-0.0037945919943981853,0.0029089812140736127,0.010177420796437246,0.011319902680654055,-0.010298125506890339,-0.005500280879401625,-0.0060211710760685174,-0.4164724775094676,-0.03103524235165917,0.4476556290072922,0.019406384976217578,-0.0025932245255703163,0.014932618221997103,-0.03089120041818582,3.0703125
-0.007525056437824216,0.005547127013684578,0.019695213738392354,0.022166955973112065,-0.019018703652420685,-0.010876621884915222,-0.011755382959454821,-0.8219281887591111,-0.06145479349170123,0.881717653742883,0.03836478765769555,-0.005731532065727243,0.03020177772741132,-0.06085930183421384,3.078125
-0.008781047818622541,0.006434697092627848,0.022820602437710794,0.02571013339044977,-0.02189119349531674,-0.012633173732274098,-0.013628923133356572,-0.9584326077021081,-0.07177468401911154,1.0259333276885738,0.04467792612190419,-0.006763287343168923,0.03526819129538094,-0.07090676007208768,3.0859375
