AF3,AF4,F3,F4,F7,F8,FC5,FC6,O1,O2,P7,P8,T7,T8,time
-0.026922580006268442,0.5657228796466401,0.13658928965898778,-1.3538573175961062,-0.14749182064165772,-0.10485584373024606,0.1447796913551462,0.21481827107362833,0.5967093426793498,-0.03363087919844248,-0.06181013359401381,-0.02471365977212344,0.023437535699328868,0.06975595019651996,0.0
0.009386395275306474,-0.16425709108618777,-0.03963510592555906,0.3935719308109786,0.042452800210319164,0.029714941660526295,-0.0408248526138612,-0.06251899255259095,-0.17464847949618734,0.009511840901522996,0.01695234099116815,0.007229994478577127,-0.006959582682341138,-0.020733879238096126,0.0078125
0.08960438555267929,-1.773453883995264,-0.42845716616073165,4.247704371812362,0.4614096991474107,0.3268104005894727,-0.450815924267344,-0.6754731406842385,-1.8765743048475596,0.10478337598749925,0.19069046641191342,0.07771049371227969,-0.07394970084862129,-0.2202834149083049,0.015625
0.06736200122838025,-1.3249744059292927,-0.32045390859987305,3.1765922445088997,0.34497006511693845,0.24418864119043243,-0.33694850546375615,-0.5055630483645973,-1.4032053980462131,0.078330311481647,0.14235892647688192,0.058154287885412,-0.055293993348359945,-0.1648496393325116,0.0234375
-0.028987395462674044,0.6084480744385278,0.14644234194195904,-1.450930914859612,-0.15785456069429513,-0.11259210340348183,0.15564679315510702,0.23044759369480788,0.6415014794719254,-0.03609937300431522,-0.06627106466105927,-0.02652712784855745,0.025208894192317206,0.07467630456207523,0.03125
-0.068492251558549,1.397789908982715,0.33747279105237094,-3.3436806911810115,-0.3630961939925462,-0.2584419818387084,0.35745030949274925,0.5322573096045056,1.4782639642273978,-0.08296322654618735,-0.15143137443921748,-0.06126295224425887,0.05814511695501233,0.17257822721609528,0.0390625
-0.04851144558479867,0.9942253353585787,0.2404776939873635,-2.383653250889166,-0.25820657825251075,-0.18429616825741774,0.25520146430465207,0.38015469735333857,1.05389982372431,-0.05922417157833148,-0.10782214760075065,-0.04370150302585919,0.041405618580051345,0.12278647959729244,0.046875
-0.03646439923076773,0.7538149863578865,0.18253399548123336,-1.8117636614315773,-0.19590251483205948,-0.14002521502863038,0.19368174694930132,0.2887297141003773,0.8000943470094537,-0.04498046185272489,-0.08184626948696429,-0.03310636620387892,0.03136743579404475,0.09319460143605766,0.0546875
-0.025526635329609595,0.5365219307091798,0.13006562774135422,-1.2908646835275244,-0.13955143326325603,-0.09964497749094146,0.13779591299450417,0.20500170080167218,0.5689587059131795,-0.03203381838894324,-0.058488832318798,-0.02353579328990877,0.02228241466232296,0.06640410375836078,0.0625
0.002634118189599548,-0.029328350906453714,-0.006263471896236052,0.06460691044881718,0.007498237378690238,0.0049026942753798925,-0.006242660711088258,-0.010594342504894268,-0.030229642493601078,0.0014133143201527903,0.0023874219257974867,0.0011536068375608613,-0.0012156896561871563,-0.0035674692085529936,0.0703125
0.018810421921567778,-0.35526120170852066,-0.08477407488058201,0.8446420342259455,0.09211054091045623,0.06476767683579736,-0.0888790601936291,-0.1339428095202379,-0.37482564431946597,0.020603877052271933,0.03747601005569599,0.01538168361073166,-0.01471420645422797,-0.04391920888843778,0.078125
0.019681943949433702,-0.37026696310180385,-0.08906354132090388,0.8833840734592238,0.09600404998475669,0.06754181791751213,-0.09303764019364377,-0.13992666700922704,-0.3917473067246044,0.021586443077220626,0.03924678064584723,0.016202087747359404,-0.015393501696413426,-0.04604187150730026,0.0859375
0.029753471224224316,-0.5676092185372315,-0.13781779343888836,1.3611537454537055,0.14752012094823738,0.10464017064331857,-0.14420036341124148,-0.21645302201135053,-0.6026485145059506,0.03350694216790741,0.06077778413432397,0.0250427143366327,-0.02371640928679419,-0.07084525926594584,0.09375
0.03799467411268652,-0.7310774282687659,-0.17767638366027766,1.7543887438703534,0.19017080897096883,0.13533344041774614,-0.18618970479142108,-0.27930528849991726,-0.7764701851994879,0.04326381803039854,0.07850313949636128,0.032224718033143626,-0.030542360807547308,-0.09118633383596218,0.1015625
0.03144904029348732,-0.6015585963719102,-0.1460429267094715,1.442703207280633,0.15657557947708714,0.11114897758910383,-0.15284645006516973,-0.2296681554679081,-0.6387336464127225,0.03549275552360465,0.06447925535562071,0.026483905528172647,-0.025138900728100516,-0.07510830325219131,0.109375
0.023481473431251763,-0.44429209713967216,-0.10780745645981686,1.0660580373946915,0.11591850395924712,0.0816232877675247,-0.11249363397849575,-0.16991996524456685,-0.47162084188820913,0.02614427075231875,0.04746923199287622,0.019586817541136066,-0.018639200730066155,-0.055765762010752576,0.1171875
-0.00037409753167428966,0.03192707494070723,0.00744223666555304,-0.07403571533040651,-0.007848174104260352,-0.006422177460670103,0.008986341435744253,0.011275671040890287,0.032950018124848615,-0.0019992631672945006,-0.004023022025531176,-0.0012948003871224446,0.0011846966471481034,0.003226144094523837,0.125
-0.05053785318249829,1.0358118563995806,0.25066808304452765,-2.480982603556967,-0.26940200783596574,-0.1918398525310812,0.2651756512024596,0.39455206882458227,1.096596271813315,-0.06148913468105934,-0.11263208862368031,-0.04540145644180148,0.043100687177809495,0.1280633399401032,0.1328125
-0.0632862903936613,1.2909374292136169,0.31288250667421785,-3.0937809787800186,-0.3362921387097277,-0.23911483181779514,0.3304705661388506,0.4925501439999561,1.3673245405665813,-0.07671190813096186,-0.1403810200725877,-0.056696451749721474,0.05379765551975256,0.16008105626903904,0.140625
-0.006890976473822247,0.16217877280283427,0.0396531497028697,-0.3865581971984154,-0.04262601130303963,-0.030456403052456643,0.04248454829626642,0.06188581686583539,0.17143212299595026,-0.0098482557033505,-0.01841426057738392,-0.00720972082354662,0.006706362942216073,0.0199868915298449,0.1484375
0.025672058879967954,-0.48870496720797446,-0.11854418085140149,1.1756228382433738,0.12710643858416265,0.09026094324840044,-0.12384497236847244,-0.18689309525428327,-0.5190990786303722,0.028812816429429476,0.05217360337919879,0.021413227192528004,-0.020492476933364274,-0.0611043312416242,0.15625
-0.015070405211048176,0.32720305702733454,0.07868192480633791,-0.7829395143347673,-0.08494806187413204,-0.060524098816805615,0.08426123788883987,0.12455116313155336,0.3453435218945165,-0.019515858190512905,-0.03580927526155369,-0.014311489189805574,0.013527948014697174,0.040035329810709064,0.1640625
-0.02173258323736853,0.458609802281906,0.11123324874095962,-1.103154103924532,-0.1190554818973447,-0.08555388192705247,0.11821439938378792,0.17542402942922106,0.4871630302252021,-0.027422945085468338,-0.05019019691086825,-0.020109241786575926,0.01906693730844303,0.056540889245705474,0.171875
0.05845760669215963,-1.1484629313080152,-0.2771065947711001,2.7487591047137556,0.299387920070202,0.2110334433890292,-0.2913301730750662,-0.4372617449435398,-1.2129450060779705,0.06769724176339069,0.12325817059736605,0.05030095178705227,-0.0478918050143146,-0.14281087739341466,0.1796875
0.09510167896954232,-1.880574016303255,-0.4548179770597951,4.507150179420419,0.4902264206696046,0.3468552170807867,-0.4781132943821734,-0.7165973177570032,-1.989765397697966,0.11106097399329448,0.20261454295772874,0.08237946598803769,-0.0784189067234209,-0.23386726385768217,0.1875
0.01031511838758283,-0.18081415470187903,-0.044149457526331634,0.43188608006242574,0.0478470613522308,0.03312572850069055,-0.04476680190518401,-0.06813604742081578,-0.19223037485422886,0.010331845639238313,0.01938121079713644,0.007838777720302614,-0.007573560029769144,-0.023032282920439656,0.1953125
-0.07493496927778799,1.526136827400025,0.36920476431371674,-3.664489723733614,-0.396827406044563,-0.2827294342488911,0.39049382770254437,0.5830642090988607,1.615019794536226,-0.09082087858040006,-0.16506155619405327,-0.06698963982796921,0.06359134869011711,0.189028653118805,0.203125
-0.06067462384099854,1.2413213094857556,0.3007137153618816,-2.9817868855182614,-0.32318042064985647,-0.2302423370156982,0.3176071485852307,0.4740949819797777,1.3140670937137324,-0.0738489676438253,-0.13465382219574845,-0.05439040922791232,0.051738203856429375,0.15393534148329235,0.2109375
-0.0125858504262077,0.28139176739415284,0.06806184264336473,-0.6761577399682454,-0.0736623903891869,-0.05209798694019445,0.07230087393403893,0.1074582472945398,0.29699648536961015,-0.016788675521666532,-0.03114890110633449,-0.012140678333644267,0.011733982147162305,0.03482153712251686,0.21875
0.006522543088223073,-0.10129412302675109,-0.02483132490646534,0.24211400079879108,0.025668909684212846,0.019086800792584714,-0.025576934757481514,-0.038766622654329716,-0.10890414195333822,0.0059990125557648055,0.010123763573064304,0.004676112260027095,-0.004226309850691098,-0.012706496977497752,0.2265625
0.029547880644748215,-0.5680631338963837,-0.13712057130059782,1.3587607330773162,0.14698859437100287,0.1047168684705771,-0.14431943577831663,-0.21695140558228793,-0.6022360639998321,0.03362279040032816,0.06031362888914182,0.024996047113075712,-0.023704790825303548,-0.0705703685120266,0.234375
0.05209460207237363,-1.0237730582712905,-0.24686971743363512,2.4537788161908183,0.2658098709896758,0.1883114969183097,-0.2599965347339017,-0.39087308422582584,-1.0838650665436451,0.060515904902359155,0.10941516363236296,0.044809537832041446,-0.04273112783535906,-0.12719911764304312,0.2421875
0.016337135129361694,-0.3046908061565777,-0.0736869256335704,0.7363647325999421,0.07920271501111092,0.05580527344604222,-0.07649955031536768,-0.11658892156632375,-0.3236627801470513,0.017843425278217886,0.032144115321422445,0.013271162225821807,-0.012807953255860111,-0.03833683136794061,0.25
-0.04493755298792804,0.9272425400491541,0.2232116655911289,-2.2151821161172816,-0.24095471317706998,-0.17126591986541537,0.23727477831033428,0.3531150756563272,0.9788906369421179,-0.055111009124027374,-0.10035469598364713,-0.04062400101841775,0.03847992841976824,0.11415504056160433,0.2578125
-0.03565155617016135,0.7408630167141047,0.17818238887732937,-1.7714866584830016,-0.1922791925382609,-0.13701536733992403,0.1895369823073509,0.28166701890924417,0.7819310998673259,-0.04400076249624481,-0.0801933817326647,-0.03239086344658183,0.03069333800207062,0.09100125669110258,0.265625
0.03210922430399092,-0.6194881604542677,-0.14988022305114276,1.4878904247295552,0.1616860378769149,0.11382954537757217,-0.15690811123642667,-0.23678944596121332,-0.6557491000453836,0.03653972470249532,0.0663120282134472,0.027156099468803024,-0.025943073033289465,-0.07746892670338977,0.2734375
0.05530455087107706,-1.0841723206327205,-0.2617076432131045,2.601283853680251,0.28241690398599945,0.19963294018275565,-0.2747925166701278,-0.4126161711888201,-1.1454752813184232,0.0638980350652745,0.11629803542924921,0.04739860057753259,-0.04522170035362135,-0.13476064108133742,0.28125
0.01182894409626629,-0.2106810060880505,-0.05068881694796462,0.5049663219029394,0.05500469417082597,0.038510320978482636,-0.05205538272344178,-0.07865536792818197,-0.2205865623751458,0.012075261730517714,0.02212600858421276,0.009112304155381586,-0.008785981535415524,-0.02627933626348822,0.2890625
-0.02341726596599251,0.4963909063565375,0.12005565934646227,-1.1918183066230639,-0.1287513371576552,-0.09206990806263378,0.12778670003706924,0.1901002540816352,0.526626277448414,-0.029714807075964283,-0.05415763975742167,-0.02177953316162263,0.02066529762486164,0.06130213914642606,0.296875
-0.01766166719078895,0.3792857168244831,0.09201823321992651,-0.9116612032391119,-0.09803984115716535,-0.07067644418388415,0.09774169856511715,0.14428641376462253,0.4014778231587991,-0.022713542913338672,-0.04166699190084661,-0.01662567926867395,0.01579338905456529,0.04670517340982359,0.3046875
-0.018527568946259017,0.3946135587600855,0.09611706501896339,-0.9523573893587532,-0.10244399231861465,-0.07379661724350245,0.10176130018277453,0.15051914405340044,0.41726655594623435,-0.023694830118598235,-0.043370991427142735,-0.0173499757889882,0.016464735752823357,0.04879299902225698,0.3125
-0.04966495321926651,1.018806306085304,0.24691280359431994,-2.454127000887138,-0.2656497719446545,-0.18919332247601936,0.26074295917739143,0.3895161892593592,1.0777474201166668,-0.06068306006226166,-0.11059416955778932,-0.044637838304963685,0.04246562239227556,0.12638397204095983,0.3203125
-0.05501196535840746,1.128200461521021,0.27282029151218934,-2.714537894226874,-0.29416130430840354,-0.20914389180747567,0.288172237681268,0.43075437604562583,1.193175415028923,-0.06700093951489708,-0.12229129044430996,-0.049250150754748895,0.046969768099133564,0.1397635214155817,0.328125
0.013080271879076073,-0.2353144334702018,-0.05716773052792044,0.56244907470521,0.0614880303977315,0.04319913255293063,-0.05962815649128631,-0.09069028371832791,-0.25005994673985815,0.013912485338260675,0.02483772977050834,0.010537432119271032,-0.009875249330985826,-0.02973671743018322,0.3359375
0.09438322952398139,-1.8668311136994855,-0.4515457883806049,4.478049583616632,0.4865703142589216,0.3448519768564115,-0.475256641120737,-0.713214661499821,-1.9763047753512741,0.11052636209950453,0.2008969298852988,0.08184996795297557,-0.07784635063343803,-0.23225740743990633,0.34375
0.08623883227005927,-1.7061757781648343,-0.41262531064328983,4.092044801874443,0.44430247889836055,0.31504204836370625,-0.43384901684270416,-0.6507790643482032,-1.8056247147153721,0.10090459509915241,0.18359604420626435,0.07466068755891984,-0.07115834633658943,-0.2122242975549062,0.3515625
0.004440715414005686,-0.06585442719196265,-0.016143747290775765,0.16156115397442533,0.016772462154826594,0.011782250816011447,-0.015380396249673125,-0.024151613487924117,-0.06956179644485656,0.0036715437228007465,0.00654705133086947,0.002812571715408695,-0.0028452430551452255,-0.008632171170721828,0.359375
-0.031928297670272276,0.6665845471909323,0.1608879981770734,-1.5897779416690176,-0.17391636094440607,-0.12346651417638632,0.1713685194418908,0.2551575018978745,0.7048531041583312,-0.039753396494718596,-0.07259109224994618,-0.029216764770704992,0.02766726769608692,0.0823120821415743,0.3671875
0.0014046699064658632,0.0005329170522211385,-0.0001120872375141881,0.006268934728529829,-0.00035111680521675043,-9.292069781745463e-05,0.0012677659364607257,0.0005885628607542065,-0.0009706766056693068,-0.00029552287423863157,-0.000749753907916348,-3.2535072147475934e-05,-4.869298221028551e-05,-0.00019938410852845756,0.375
0.0017301311139993859,-0.006803458516115057,-0.0019275902454692763,0.017832909750574572,0.0016300921998689659,0.0013795337087932477,-0.0009861044671246842,-0.0025387432185814502,-0.00896516679618749,0.00019849957622307355,7.512261988232535e-05,0.00030480194875374554,-0.00033319935006610653,-0.0010777803215013277,0.3828125
-0.05071961962611518,1.0422931460404685,0.25177801426747143,-2.501285102474664,-0.27140941788010164,-0.19287132109718128,0.2664733593912405,0.3976127796721173,1.101963414335337,-0.06192865554717494,-0.11314208374490865,-0.04561929751988214,0.043363286432959065,0.1289682381064911,0.390625
-0.04370919971373005,0.8993653733615476,0.21761852146720476,-2.1589958413023718,-0.23417082073151638,-0.1671177948204105,0.23043409692517267,0.3433573583276579,0.9515754032270088,-0.053536224269150244,-0.09778383584009206,-0.03938917535931269,0.03740707105725167,0.11119533289858638,0.3984375
0.037893084248088335,-0.7378524389764324,-0.17780781447464175,1.7659099460850074,0.1919548939873087,0.13516801579788276,-0.18671827312157083,-0.2808897330143613,-0.780516600909879,0.04340965487083621,0.07884176391365255,0.03225995340516135,-0.030769724553814177,-0.09180391800336354,0.40625
0.055848332220169446,-1.0970554900404903,-0.26464309440961004,2.6267548599873747,0.2855221991401096,0.2018930627414505,-0.27847773652194296,-0.4181156482988488,-1.1602147994670864,0.06475891539301804,0.11760883510405756,0.04798814320158871,-0.04570612171022549,-0.13628588807956868,0.4140625
-0.027431006800742782,0.574625458471147,0.13929756778948588,-1.3800921300310613,-0.14932281260982733,-0.10662855337941372,0.14740989236894098,0.21886813183065332,0.6090945130830442,-0.03420948640471024,-0.06272166831327392,-0.025187392227832617,0.023921487223158733,0.07101980885911645,0.421875
-0.0724972480121151,1.4797487343571665,0.3579321008456708,-3.5488561342177207,-0.38464394919224787,-0.27383937995478863,0.37800060799708435,0.563524194993231,1.5662879110725467,-0.08784870120168638,-0.16026310147537032,-0.06478865169315617,0.06158141103355982,0.18314587821210287,0.4296875
-0.015544360343204876,0.33870048270804276,0.08178372160497442,-0.8124144553997446,-0.08748585568539954,-0.0629755769909617,0.08700818656275232,0.12814917557187197,0.3576636488483094,-0.020255793830468844,-0.036983181958457366,-0.014756127484274467,0.014009282309769472,0.041437296928987885,0.4375
0.03924340967344268,-0.7594628977099562,-0.18399979206260172,1.8209171884334672,0.1984827435571882,0.14009083642675402,-0.19291432807768907,-0.29035689274778037,-0.8044469273026038,0.04483927414040542,0.08156870915631906,0.03340002502178504,-0.03174279841788211,-0.09487921976263075,0.4453125
0.03384183607281293,-0.6521483237799579,-0.15798140581359024,1.5629098649420747,0.1705122195623609,0.12017268508414422,-0.1652784039621227,-0.24875144072394287,-0.6898437979247559,0.03845843875494613,0.06991963785813952,0.02867878179933835,-0.027259695079347297,-0.08150720701431559,0.453125
0.029080991328449757,-0.5587605578283966,-0.1351431589263871,1.3380237777337596,0.14583424452348584,0.10262004866478654,-0.1412199987240072,-0.21267113618993247,-0.5910657079456171,0.03284912759681221,0.05978423802415724,0.024484267410012264,-0.023360290664440536,-0.06980774096298087,0.4609375
0.03663360784174096,-0.7110264016647624,-0.17204580212500156,1.7048717535409013,0.18507766193007252,0.13082590779006903,-0.18006256414985916,-0.2707786435875792,-0.7537117633320893,0.04185797549822813,0.07623443331968215,0.03107422987131153,-0.02968315620455577,-0.088694868531191,0.46875
0.0003873879090544695,0.016878959378724266,0.0037037778793935347,-0.03787456955150801,-0.004517636931931776,-0.0032387914490159654,0.005428755660977269,0.006912030402036638,0.016043579079208767,-0.0012321626574498,-0.0023257694784043163,-0.000810233498316282,0.0006891741206437829,0.0016158903251478126,0.4765625
-0.0517795043396878,1.063529592020283,0.25708201333136804,-2.550262508711778,-0.2771789814673513,-0.19656182588675497,0.2723616372999293,0.4068067585295631,1.1252812422030047,-0.06327523536232582,-0.11542491675106421,-0.04664474431019188,0.04433996393365289,0.13175502340649978,0.484375
-0.035528101913317345,0.7362571152287091,0.17874678120917784,-1.7719296009935084,-0.19258099545048818,-0.1365754966839819,0.18905842843551046,0.28268979230411445,0.7807902419207826,-0.04395674920621804,-0.08036688399860255,-0.032336465703112355,0.03071436644904851,0.09160033094346529,0.4921875
0.02622364381530554,-0.5035797274623015,-0.12064561326599878,1.200476314244547,0.12976094190588067,0.09212354475275522,-0.12701166798153812,-0.19036844087306345,-0.5310064628194147,0.029512683194054572,0.05322228837082393,0.021956410427534604,-0.02096513833148154,-0.06210933461371202,0.5
0.03388258372369084,-0.6565363803922799,-0.1581032245064687,1.5742599837470814,0.16997162918300102,0.12050382428665576,-0.1660884742929213,-0.24959179650754632,-0.6938106391506926,0.038670034990505,0.06977107203647258,0.02872344285592753,-0.027386252813685334,-0.08147872350743024,0.5078125
-0.01886560921079781,0.4041076218034001,0.09742514128535947,-0.9635259441641207,-0.10527443892826893,-0.07509761557508712,0.10400293868504434,0.15398931923860099,0.4270693911943937,-0.024075858184202884,-0.04433602326281786,-0.01759579820462332,0.01672856844134129,0.049593044732307634,0.515625
-0.04092475703789901,0.8494699294069749,0.2044200347362327,-2.0319623199594172,-0.22058571690191564,-0.15703594549491345,0.21698663240479857,0.32294330275784194,0.8963224447320683,-0.050392439261979755,-0.09200126175881489,-0.037001195135731746,0.035219758924637995,0.10459196743681429,0.5234375
0.007020219298374719,-0.11155904280335839,-0.02792479492011215,0.270608046130753,0.029781600706641067,0.020735924908980827,-0.02827469336586935,-0.04422231607017044,-0.121937331506712,0.00656878149170032,0.011771509820707871,0.005046817570145813,-0.004803054275329194,-0.014591258768275673,0.53125
0.05890407664763913,-1.1545497249600762,-0.27947546679138924,2.7707769669732896,0.30120819878508326,0.21328650448982187,-0.29372509864595164,-0.4416923333570574,-1.2246841041757464,0.06828076235186022,0.12410396109965753,0.050580711392172205,-0.048176380698776965,-0.14381691674565814,0.5390625
0.04265601531876506,-0.8310472333926956,-0.20074862367444038,1.9928292114350827,0.21684319981133263,0.15301339910802234,-0.21069737618850326,-0.3173353105996495,-0.880275167015555,0.04897657593261461,0.08911803536898298,0.03634266596140678,-0.03466581993013922,-0.10359307411920428,0.546875
-0.024074011542548603,0.5076006402104309,0.1228415806772728,-1.2196615671573947,-0.13157549702243354,-0.09464594136678793,0.13048853226638352,0.19341770460806035,0.5372338154208544,-0.030371362907748622,-0.05517975446354613,-0.022212825574779667,0.02105837479903547,0.06240540194849638,0.5546875
-0.05950140381161902,1.218976293697522,0.2947289353807849,-2.924781726359158,-0.3164995599446558,-0.22594419679423455,0.3115217893351086,0.4639956654038655,1.2901819614960068,-0.07243652798653567,-0.13196734006112712,-0.05331648435258066,0.05067957708942334,0.1505912143828972,0.5625
-0.02310750785356552,0.48700751931428177,0.1181897978118047,-1.1679722550894005,-0.12597799152336056,-0.09055397753838004,0.1252176223161017,0.18490984002884966,0.5167830304268544,-0.029040365740295903,-0.053329674209906044,-0.0213555767392369,0.02026102387196169,0.05994372744979157,0.5703125
0.03230469743289186,-0.6274495365217742,-0.15080419523872035,1.5022672941621777,0.16358846674881877,0.1151632611305139,-0.15822599461630435,-0.23853477923332417,-0.6610778100591618,0.03688695826501278,0.06670396470172021,0.02733129106606587,-0.026098563301846716,-0.07803038196206857,0.578125
0.03142568409437856,-0.6090338688516062,-0.14666084173420413,1.4546874782722976,0.15821848072464825,0.1116896852531618,-0.15349737798622712,-0.23021934591473509,-0.6420436948044681,0.035716437494825684,0.06490927137532645,0.026542366475041917,-0.025356040840465163,-0.0756213787803043,0.5859375
-0.020600813356873925,0.4389526809957268,0.10601884313696629,-1.0575775831161889,-0.1147766152608638,-0.08146969156832795,0.11301872137911008,0.16913038629734414,0.46506894927584297,-0.026314028492562425,-0.047903520533191545,-0.019256618326993834,0.01825560238209031,0.05436429799600463,0.59375
-0.046674145213440314,0.9645126900450142,0.232952075817968,-2.3146892583867,-0.2516522742061591,-0.17811855330594578,0.2466640123271651,0.36892549941925173,1.0204669948160843,-0.05736836557851552,-0.1046323437224977,-0.04224772326062972,0.040175754184079863,0.11960895925654927,0.6015625
-0.009923409509079344,0.225518926916985,0.054635976843526925,-0.5417975053002246,-0.0594115639920945,-0.04181173614357781,0.05861619859087318,0.08733697909720134,0.2389314104360589,-0.013600719397322264,-0.025035747522994155,-0.009911399904481314,0.009429826379363578,0.027963137190192066,0.609375
0.03312677407014056,-0.6402934025358131,-0.15476998567684658,1.5350518962063062,0.16616904264834045,0.11765989970864764,-0.1618964075326939,-0.24302837356170448,-0.6779422978583255,0.03768314162877754,0.06843657274561753,0.028053228385672032,-0.02670701309527645,-0.07972766551773444,0.6171875
0.02291937961300295,-0.43458899347814073,-0.10565677234685575,1.0461322011890426,0.11323145688353918,0.07971113410721611,-0.10992349731498781,-0.1662388569935881,-0.4623898590105156,0.025606949594957296,0.046416284055716725,0.01916028821838271,-0.01828211056987151,-0.05467542294129537,0.625
-0.010105691298938473,0.22981004657666537,0.05476881989065026,-0.5438339868069869,-0.05941154931760359,-0.042627729189450805,0.05895907953929713,0.08574912873375246,0.23967422346029307,-0.013644560289404705,-0.025261898274771193,-0.009888622084984625,0.009344488406735078,0.027640212838362765,0.6328125
-0.005584308509097566,0.13827783177914862,0.03330691778387532,-0.32864582963022737,-0.03598438874970718,-0.02573926996765584,0.03580054037146608,0.05152381493043181,0.144123830586036,-0.008283067241798883,-0.015589252617508336,-0.0059531425235035415,0.005636272427008617,0.01669051156526868,0.640625
0.024137969571442413,-0.46037904288970133,-0.11071376758444523,1.0995132406541956,0.11942479244566005,0.0844504504761647,-0.11635401619225444,-0.17530897765963366,-0.48772981036275753,0.027034165770308947,0.04884152428821539,0.020165653265236713,-0.019177226220415174,-0.05718345179303076,0.6484375
0.03507585626428414,-0.6799820149420076,-0.1638808234932305,1.624615343213037,0.17688170003992562,0.12493348807726869,-0.17225988532277295,-0.25888798766871846,-0.7198501428141488,0.04000254284193595,0.0726138007139695,0.029752886331461444,-0.028306161039659085,-0.08449219621179152,0.65625
0.035723615370985694,-0.6908020796201747,-0.16702102572262253,1.6547853732679907,0.18040821422062417,0.12725419585928602,-0.17518450234496016,-0.2637831053408033,-0.7316006951741462,0.040706243943701904,0.07397042671177476,0.030252761204684356,-0.028800849428950018,-0.08614721597563939,0.6640625
0.038106833676715884,-0.7374390259282099,-0.1784633574280946,1.7700689835178505,0.1928493847707044,0.13602760641886694,-0.1870132081953686,-0.2817674798394045,-0.7805588102465655,0.04349362961784056,0.07902038041866916,0.03230610897049446,-0.030762531438560527,-0.09204978474449044,0.671875
0.005598678122446349,-0.0864909969927854,-0.020812084080008328,0.20944612974000007,0.023088138638045645,0.015589153113715143,-0.020849460832372144,-0.03305726059322421,-0.0908408804308747,0.004880974566478139,0.008616345980168211,0.0037533906176362604,-0.0036449270129034214,-0.011146580888455146,0.6796875
-0.057741188198948724,1.1827495001158335,0.28625145214849707,-2.835696781419731,-0.30772064187468073,-0.21902834128490728,0.3027722118400527,0.45141393309579936,1.252875545008415,-0.07035752393348756,-0.12838922911227207,-0.05189475397308833,0.04922204842318913,0.1464788360276978,0.6875
-0.07456586183384302,1.520605940783278,0.3677303411203783,-3.648138559511312,-0.3957220177332288,-0.2813475323700196,0.3887759290815956,0.5804843403191995,1.6102544586633734,-0.09035819711002831,-0.16462703656312722,-0.06667349026176451,0.06329612566967532,0.18836013463904683,0.6953125
-0.03191708308836561,0.6664122606838234,0.16069676690661705,-1.5998262103292586,-0.17315458587435117,-0.1234155349560339,0.1708230171875009,0.25459540302136063,0.7052747140154673,-0.039676404512215324,-0.0721987631896365,-0.02913704125514917,0.027696215010163016,0.08213515058942343,0.703125
-0.010363250584008743,0.2342639854424728,0.05588093097332918,-0.5596378328577407,-0.060593557250569925,-0.043605193435501836,0.06049938142549259,0.08918125001669928,0.24677887551302827,-0.013999462632787191,-0.025564022731905924,-0.010114093786010445,0.009632038460105836,0.028282518771191725,0.7109375
-0.02077559956158436,0.4410740971305961,0.10632015014115244,-1.0536277752879986,-0.11468917210914524,-0.08202644340444774,0.11336878155208924,0.1677920751685678,0.46590179463059606,-0.026289376519593035,-0.04813041554679924,-0.01925802671234735,0.018224867176138613,0.054059830556736,0.71875
0.010064020777721441,-0.1806409177631161,-0.04294715843689539,0.4314110220781611,0.04675874178029406,0.03246164761149017,-0.0446080228522579,-0.06839281294166795,-0.19032184249470013,0.010389422227983185,0.018683055201543466,0.007787193952092987,-0.007568786767903708,-0.022602259430225684,0.7265625
0.06313212384841245,-1.2463516587945427,-0.30005678619036374,2.9797137171600854,0.32388103431738036,0.22904687622501535,-0.315969048432662,-0.4736707607679617,-1.3173218992233218,0.0734334023635547,0.13358094116063998,0.05441827328733277,-0.051845037106645495,-0.15448371006346817,0.734375
0.04368326965831558,-0.8541144441200786,-0.20577527143490443,2.040644821257555,0.2216397293066315,0.15672054684232642,-0.21636909474815957,-0.3243348395064906,-0.9036035981289766,0.05029349023511483,0.09132370469283892,0.03737102172143851,-0.03553986963830414,-0.10593942448790865,0.7421875
-0.022726973368452228,0.4814888367270125,0.1163090648044984,-1.154167491651117,-0.1258955961603331,-0.08938964959924345,0.12342135341243914,0.18356707301876402,0.508215117876209,-0.0286575336905157,-0.052734833764598615,-0.021018569866055145,0.019985924105687176,0.05947235005439878,0.75
-0.0280932498967502,0.5912611761415781,0.14264798949335963,-1.4132460769188981,-0.15396226484473233,-0.10898826559950667,0.15117477567696996,0.22447562693719555,0.624416276407428,-0.03508960017809432,-0.06461143172522117,-0.025836142798101324,0.024551996477915013,0.07299336008648417,0.7578125
0.013968077576832038,-0.25199419408797935,-0.061132704120499246,0.6070888014906372,0.06605328460463264,0.046983104429641896,-0.06357563515027014,-0.09684395615576558,-0.26738086224024804,0.014826361548394687,0.026407586596698018,0.011097477734022917,-0.010519737190042516,-0.031619646992057854,0.765625
0.015790038065611325,-0.2885762237405087,-0.07023020011131509,0.6928439508007933,0.0755604737088092,0.053401042177828095,-0.07280338650584452,-0.11022243593832136,-0.3065903180310903,0.016948615749962356,0.030582341176169755,0.012773819890676592,-0.012092028186327404,-0.0362819681023255,0.7734375
0.0019364337956523864,-0.010624869373864637,-0.0033998233799823517,0.026851217791354326,0.0028874368611499597,0.0016993115343455786,-0.0020813972476811577,-0.0042514340449182455,-0.013457831176348111,0.00047902794282051527,0.0008662272958494017,0.0006356899582453024,-0.0006255302311665579,-0.001994883722303113,0.78125
0.04338511914901401,-0.8420152854530757,-0.2043529278547573,2.0212370530694583,0.21934863659031423,0.15527742587189577,-0.21399031965374254,-0.3215913101482206,-0.8934234382502092,0.04971984699564867,0.09063918585012702,0.036987449997681374,-0.03525311227941698,-0.10520220720039673,0.7890625
0.0881812641691446,-1.7412116168427128,-0.42127192410640274,4.175965503897414,0.4537401597029818,0.3214002773517551,-0.4428496138096315,-0.6641353260945485,-1.84410234911167,0.10290735391678325,0.18749846118994268,0.07628860230212484,-0.07258076877700384,-0.2165999722310378,0.796875
0.0433797474218282,-0.8447927127182462,-0.2039293614124678,2.0224136860904425,0.22033207265885071,0.15543141718481257,-0.21391191069635965,-0.3212501778648752,-0.8939942312612804,0.04967380540967514,0.09056974544310573,0.03695784325619537,-0.035141507786867685,-0.10508028783735382,0.8046875
-0.05374142438996631,1.0999810675298785,0.26674645291290533,-2.644468079705529,-0.28632468337293676,-0.20424428483661203,0.28204201697665693,0.42105324448575676,1.1657068809105362,-0.06559947154936496,-0.11939444087654728,-0.04831639398168696,0.04586949469022131,0.13644411252679867,0.8125
-0.09454389502370421,1.916500321751206,0.4642481860303716,-4.601032844374061,-0.49901120958986167,-0.3549907419164387,0.4901227697139773,0.7320363548449962,2.030707200256231,-0.11390104945697485,-0.20756471171449936,-0.08416000868112153,0.07984142045533082,0.23774459333238354,0.8203125
-0.05969320010091824,1.2182077063952672,0.29512980128745414,-2.9212193502771977,-0.31709369680022714,-0.22566598725817924,0.31189428781599327,0.46478452632241685,1.2910759066567579,-0.07240646410658777,-0.13228892385652122,-0.05354128446924063,0.050708592368289736,0.15092200673627404,0.828125
-0.01856073929613807,0.3947616831250004,0.09575388615985993,-0.9433131012859302,-0.10278265225778056,-0.07358666745611768,0.10170682935677462,0.15004617245060523,0.41812025167673444,-0.0235438576022229,-0.043491813235681714,-0.017339297514024885,0.016355761216683248,0.04859574745569784,0.8359375
-0.017786022258021728,0.3803075930834548,0.09209112502399822,-0.9095468752256147,-0.09913035686752876,-0.07109774100940087,0.09779374518288111,0.14430263543757735,0.40205730373418985,-0.02265419390662309,-0.041867735180648236,-0.016584979075945028,0.01572552205415114,0.046701800056525626,0.84375
-0.0306735097013305,0.6403706238244452,0.15466369288530055,-1.5346677139519531,-0.16661237663427397,-0.11885473409833154,0.16400613577876103,0.24371096887353116,0.6775990490550823,-0.03804391523269841,-0.06971903650770891,-0.027932360653664782,0.026582822360747067,0.07886883295661827,0.8515625
-0.006254934567845467,0.15247207934846088,0.0363722263202731,-0.3648691457666941,-0.03932828419180864,-0.028206939693843917,0.03967714283313688,0.058126202697126,0.1613549507807317,-0.009153012243996271,-0.01690372149102867,-0.00657814962387917,0.006295089997535916,0.018330072905675683,0.859375
0.04756518762162726,-0.9267537090454426,-0.22452735530936452,2.2230619729917245,0.24152331015972084,0.17123352025988506,-0.23545409916160123,-0.3534630372614146,-0.9819066755908235,0.05475961125973173,0.09950286531888887,0.0406582177395684,-0.03867287772735136,-0.11544363851132389,0.8671875
0.06359761458818373,-1.2490417855529543,-0.3022646355311513,2.996285636451379,0.3252348486824625,0.23051778762544248,-0.31781280645365123,-0.4771955209494432,-1.3246758229565292,0.07387264550525002,0.13417615367494604,0.05476982967897726,-0.05214263058069165,-0.15539425268417903,0.875
0.02666298788900752,-0.5077051351844487,-0.12312595006660838,1.2190991413685666,0.13231710116398862,0.09354186035269046,-0.12896255056938835,-0.19488664869893263,-0.5407651173597711,0.02996824844265587,0.05425973465655337,0.022338972089466416,-0.021263258920137477,-0.06354650444255819,0.8828125
0.011482538502205437,-0.202941984251462,-0.049461919336083016,0.4857133095779925,0.05300181692978841,0.03728458339173934,-0.05093219010369582,-0.07744031383256827,-0.21684764776322343,0.011818838788616068,0.0214702167972762,0.009005008631272512,-0.008497924528545071,-0.025716315178488526,0.890625
0.04792541326892273,-0.936369817641741,-0.22620930884772475,2.239368876190952,0.2436312333860338,0.17245125405541847,-0.2372298894973278,-0.3553300675450291,-0.9904646171391281,0.055113608149311814,0.10043910449291074,0.041049941344085565,-0.0389732923123276,-0.11638907354276938,0.8984375
0.05656946996681007,-1.111910729751745,-0.26802957717809667,2.659175657958919,0.28902122548502185,0.20454339135466681,-0.28168448744896923,-0.42183134158260266,-1.1745954685730875,0.06545338624755745,0.11912947665613292,0.048624573537773774,-0.04628090056129324,-0.13786741498005678,0.90625
-0.002656378005588487,0.0782637731706551,0.01955975493338665,-0.1903601092141516,-0.02088619700667145,-0.015097214383791769,0.021357378357158705,0.031242072112065988,0.08466482216144501,-0.004996745756818997,-0.009251659609030287,-0.0035425421636020916,0.0032435122082215603,0.009803358313018687,0.9140625
-0.04981794104597763,1.0274328846528533,0.24844752891291924,-2.4629796318195636,-0.26794936341464004,-0.18997182445491476,0.26290799231620593,0.39271850100472483,1.0881188866880585,-0.061164144682394686,-0.11144960214402036,-0.04507880588470352,0.04274734570155428,0.12741213073218516,0.921875
-0.03319442530448977,0.6926695533999558,0.16734114650973717,-1.6610513161558076,-0.18059633172035272,-0.1280988265853135,0.17760835567290192,0.26500680582249037,0.7333952171231288,-0.04130531395669895,-0.07528503460866227,-0.03038401041252493,0.028809929659545472,0.08570971515217612,0.9296875
-0.015387781470178477,0.3322432309056553,0.08037400667976068,-0.7973093191745716,-0.08624953582591335,-0.06182452239517465,0.08583177540068539,0.12684739553815913,0.3516760151968836,-0.019906299803034797,-0.03647394782705001,-0.014582119959092272,0.01379370667786455,0.04078102315072961,0.9375
-0.0407147663577104,0.8406759175561012,0.20322431384823375,-2.0141347761852373,-0.2181504381988434,-0.15584229096219968,0.21511626811178952,0.3194201118232576,0.888766712651373,-0.049939673447399836,-0.0913122018112353,-0.03680724230130018,0.03493052209857564,0.10368165807988466,0.9453125
-0.056104064825034106,1.1514713020572949,0.2780784791203007,-2.7571225766183187,-0.29900413334577647,-0.2131111779371647,0.2939250863421454,0.4371424052172169,1.2166066126175292,-0.06826065592526116,-0.12483086552095932,-0.05034896626656057,0.04783109693574862,0.14217926262956082,0.953125
-0.017895110549113576,0.38361064746365087,0.09234440960927204,-0.9158053064545661,-0.09913755611901286,-0.0712667074730255,0.09828586144726335,0.14443817483788962,0.40392464204850465,-0.022725149474123324,-0.0420823757401612,-0.01667888058800191,0.01583690153402883,0.0468350862379471,0.9609375
0.03805038679485361,-0.7423195242357106,-0.1796500040847667,1.782076500772653,0.19403573321815845,0.13647534698106134,-0.18815357094004917,-0.28413630451463223,-0.7866626670386749,0.04390916886159643,0.07939743861908265,0.032578572541080014,-0.03103019157889789,-0.09295054578276551,0.96875
0.059254061647099045,-1.1689751759676479,-0.28237048187702685,2.801227706357657,0.3047761037112232,0.21502228360093836,-0.29636130561534674,-0.44541737890386374,-1.2368346789473321,0.06898439526652558,0.12559675482269184,0.05110790684156039,-0.048734764697497567,-0.14568355153165033,0.9765625
0.03577965930122083,-0.696446541128399,-0.16773459334984603,1.6647706324932212,0.1810253920889278,0.12767400856591246,-0.17570414455366928,-0.2637884944163168,-0.735775128928645,0.04080170561980694,0.0746571309533076,0.030274148191649478,-0.028980144097453413,-0.08658110762852443,0.984375
0.0011188357089075226,0.001777741106298655,0.0009792908055888158,-0.008545555156303902,-0.0010691965654968693,-0.0010619350033114771,0.002021090319853535,0.002603875265747558,0.0028808283369302526,-0.0005528069192950108,-0.0008178477629046764,-0.0002513865950908327,0.00011453911489627581,0.000256699296478522,0.9921875
-0.0037710783337092193,0.10372812295686723,0.025034575645937994,-0.24958539637639096,-0.027344356994810165,-0.019457372994855882,0.027324924306030975,0.04017892550466753,0.10927905743355146,-0.006403212078256408,-0.011858557056685893,-0.0044766986006181935,0.004287184666080566,0.012694661706344756,1.0
0.00818838844987581,-0.13285604000088339,-0.03253771755581896,0.31857577533801307,0.034321557156389994,0.024602460550661696,-0.033689849275247916,-0.05126950382248151,-0.14209982319291609,0.007794506077633681,0.013709956844683973,0.006083957409505519,-0.00564301710196582,-0.01676864840154022,1.0078125
-0.013576654251211661,0.3040088637626442,0.07328988696572553,-0.7293936681971032,-0.07963137575329135,-0.05594805775486355,0.07746950315157108,0.11509108041773976,0.32093789173851806,-0.01801045017251865,-0.03358615296151713,-0.013036302986410677,0.012564872582433283,0.03761393062786976,1.015625
-0.04427057324004576,0.9174904311536031,0.22183648552718097,-2.198259293007932,-0.23910903258421712,-0.16925905661441817,0.23422515049397058,0.3492710680207111,0.9713420643591828,-0.05436672539436039,-0.09998820055126682,-0.039992424853109845,0.03817607212570589,0.11374119107508555,1.0234375
-0.004761113971791577,0.12258223834701053,0.029573956713122157,-0.2908405711622455,-0.031576431304919675,-0.022596973126809774,0.032195315748722204,0.04655793229803004,0.13016232890168133,-0.007389002459760529,-0.014073899657145396,-0.005285797412301318,0.0050766925849562924,0.014849917278892866,1.03125
0.06274253444541007,-1.2341172549770427,-0.29835609593557555,2.9583980624886497,0.32165295634938634,0.22754558491565657,-0.31308772474119456,-0.46983385501428554,-1.3060234628264826,0.07277435434705855,0.13267140243162198,0.05396282979329677,-0.05145801577591486,-0.15355107666438042,1.0390625
0.03136466106068954,-0.6080661134098038,-0.1466952187970051,1.452973762518886,0.15822294048160707,0.11138486151927417,-0.1531318637112907,-0.23001155085772057,-0.6433328845153735,0.035524836957440124,0.06525047700447921,0.026364406520300997,-0.02537044390199192,-0.07570789693529267,1.046875
-0.059073118111537815,1.2041174311664697,0.2913356654333348,-2.891127098083984,-0.31353535018291356,-0.223548859948928,0.308838469861592,0.46112420191415454,1.2744209490251277,-0.0718091984517738,-0.13033037520427765,-0.05300989774965955,0.05013412311089563,0.1490381406532488,1.0546875
-0.03972978309839807,0.8172158162209902,0.1972880453277287,-1.9603408294306506,-0.2123170049255469,-0.15197125741022502,0.20986717318189213,0.31250814480005645,0.8639096886534193,-0.04874060410475391,-0.08850337153401756,-0.035884866247540545,0.03397944187301859,0.10063436466233457,1.0625
0.07081710278469544,-1.3975816042679552,-0.33836495764547686,3.3512537644724802,0.3644227425597252,0.2573214559650564,-0.35523401906084257,-0.5334833133789489,-1.4810523211591264,0.0826117966455365,0.1505390610339082,0.061283619942075554,-0.058344247517116046,-0.17433743125785822,1.0703125
0.08425943854041464,-1.6644652255434114,-0.4026406988359096,3.993125742561631,0.4336078472127169,0.30689428842047,-0.42375181326369743,-0.6363200838075667,-1.7635321850264933,0.09853180194538148,0.17911224232532194,0.07302283170963414,-0.06947514436954777,-0.20723946624101272,1.078125
-0.014631246470109887,0.3214882044846056,0.0776653992764159,-0.7658925500918227,-0.08360615779198537,-0.05958735631859504,0.08224213774136885,0.12075344778777393,0.3387799812688239,-0.019065127660608968,-0.03548926146887497,-0.013955712138058752,0.01329399510365407,0.03944247929219217,1.0859375
-0.06056441426744828,1.243069294447966,0.3006182260651562,-2.9783854634424927,-0.32360114062420486,-0.22968524426064466,0.31734477191317,0.4731100755639662,1.3149617791706152,-0.07372725436988428,-0.13504383821336097,-0.05434851911524129,0.05174170694961274,0.1540280517232293,1.09375
-0.02462444723987424,0.5197362721519749,0.1262271305025206,-1.2514174178730006,-0.13550923204832166,-0.0962295820586309,0.13346045182375632,0.1987757347481467,0.5510142231377351,-0.03101572194261804,-0.05704016718929264,-0.022765319532819867,0.021676322054104535,0.064595684461772,1.1015625
-0.0230605992723807,0.4865100280892759,0.11858914256761381,-1.1738941586237233,-0.12701210174117095,-0.09015048451533858,0.12534455351452842,0.18690048508537732,0.5174931100450704,-0.02910477315062627,-0.05357496708681701,-0.021403488635614618,0.020345368214784238,0.060677258697150835,1.109375
-0.05794178203070878,1.187306397792578,0.28764889985632774,-2.8490863647586844,-0.3092318135062094,-0.21942611978370422,0.30391112605398124,0.4538027022821893,1.2591044183129299,-0.07057292940680161,-0.12913176559487274,-0.05208838526930239,0.04951395005378227,0.14743072772150337,1.1171875
-0.03826928292427472,0.7944409498679065,0.19185703223812883,-1.903010540655445,-0.20652741685886003,-0.14681824630682325,0.203490747392897,0.30316051998475185,0.8411939975109094,-0.047270039463620905,-0.08634037972943266,-0.03480992843424662,0.03303913080698222,0.09819676812442457,1.125
0.016950558933822163,-0.3135936514373601,-0.07641610183536893,0.7537176807106596,0.08222136168475891,0.057581880179153166,-0.07908886991136646,-0.1200890396116968,-0.3335834228175492,0.018354919617962328,0.033591231953150655,0.013770857667015458,-0.013214531327695402,-0.03967481372702679,1.1328125
0.03830281377620718,-0.74338856444087,-0.18010810729929172,1.7844709375063548,0.1940986625253846,0.1366467171614372,-0.18854235360788918,-0.28422628850161114,-0.7884902071146483,0.04383432852900159,0.07994039754052155,0.032627827961471546,-0.031119666832090803,-0.09307903898247906,1.140625
0.057559847072480685,-1.1304209152005396,-0.2733450027424191,2.7130819380032882,0.2945161683846705,0.20795453352114665,-0.2869940049484823,-0.43133270240168403,-1.196790229806836,0.06679571686253809,0.12146604818402729,0.04961112260109771,-0.04718632115734654,-0.1409415878414752,1.1484375
0.10549694383693996,-2.091974495909405,-0.5057746099185595,5.016629247878273,0.5443959185904318,0.3855233592875802,-0.5320658554450608,-0.797377685812496,-2.2142877096909075,0.12373733712078089,0.22515857637831085,0.09173364025735467,-0.08722154641946732,-0.2600885719427669,1.15625
0.09957791875446355,-1.972704638475599,-0.4771608084452598,4.728721120018613,0.5131827728114401,0.36360769631367007,-0.5019407974867882,-0.7520723148990851,-2.0895984540361896,0.11664279298163378,0.21237069918888812,0.08649211856734443,-0.08228561540772966,-0.24527069279994865,1.1640625
-0.004199880208141498,0.10955623417473909,0.026205187789040886,-0.26305300875030224,-0.028805958475165188,-0.02080126396504332,0.028623871780231083,0.04155427806070732,0.11349993745184009,-0.0067018035644774016,-0.01237531589938174,-0.004750864111981352,0.004454283310314249,0.013140845658769652,1.171875
-0.09514028204670857,1.9330738628983064,0.46749577507764206,-4.6358929207412345,-0.50355875355799,-0.3574888912129267,0.49378294769677955,0.7377561376254951,2.0453827269636906,-0.11476716313826998,-0.20933685330405638,-0.0847163840952307,0.08051017530735581,0.23968865160911654,1.1796875
-0.0790190648611106,1.6085026176365413,0.38944526264878887,-3.8615033618835266,-0.4191121997198988,-0.2974291156024114,0.4115952809192956,0.6154074606921838,1.7040929643768976,-0.09564187568130249,-0.17435035714074532,-0.07060195002058751,0.06709084889626621,0.1996870316797757,1.1875
-0.02695925643688764,0.5652348750758677,0.13688731516712804,-1.3603155899481132,-0.1471455037544573,-0.10451663709571184,0.14557773711380695,0.2172874297630606,0.5993161808289726,-0.03383911698287015,-0.06158429923326174,-0.024882682255128293,0.023593594821471556,0.07005622829416208,1.1953125
-0.034946169922298896,0.7278966949583514,0.1755210635979964,-1.744998181455272,-0.18902477341921514,-0.1344664705427508,0.18641376678036725,0.2775071847066586,0.769189235558981,-0.043340854043875984,-0.07900228695119922,-0.03188437345253746,0.03022819133328785,0.08981846746612916,1.203125
-0.05870751718462323,1.204129421198547,0.2907845103052676,-2.8851435581057117,-0.31320136831189954,-0.22270561421069718,0.3076291552794276,0.4585256943876753,1.2729400456915072,-0.07149869309403759,-0.1305163695896921,-0.052726438548795246,0.05003121619784874,0.14891935740820028,1.2109375
-0.010048423838634855,0.22487799337840328,0.05495688764826957,-0.5427524922780667,-0.05881534509797506,-0.04218383718045108,0.05848444382631916,0.08623216045323627,0.2385421148067133,-0.013587707465237771,-0.025074442740879374,-0.009957115632969818,0.009363893225730443,0.027846939258682295,1.21875
0.07310377778455202,-1.4437112079706873,-0.3481163715992176,3.455518988292038,0.37577639002975355,0.2660263816436836,-0.36666898228424677,-0.5498985974815446,-1.526372961395229,0.08523561584611866,0.1549113791533503,0.06309607893051292,-0.06006790953424301,-0.1790929499535512,1.2265625
0.08186668268544371,-1.6161074868042353,-0.39057354876850975,3.8757240852519463,0.4215327457870152,0.2981320576506645,-0.411142318658295,-0.6173915660173421,-1.7101288478937642,0.09561598145636353,0.17364081596151582,0.07081060300240453,-0.06735301183382596,-0.200980844971837,1.234375
0.015554516437529618,-0.283621445047737,-0.06917200258418567,0.687578224628174,0.07492495630619075,0.05213082557252234,-0.07192951974614838,-0.1104181998604154,-0.3013812745886126,0.016815103023278957,0.030016411702037046,0.012602694884047146,-0.011972512449980061,-0.03607582113726808,1.2421875
-0.02426202450337019,0.5133498868623994,0.1237030870585128,-1.2257084707569024,-0.13318595007853337,-0.09520835502894329,0.13145862336987718,0.19445715887129517,0.5423409993792658,-0.03047405373337635,-0.05592419676325072,-0.022321979802823855,0.021234592666092504,0.06292579776238677,1.25
-0.005341234542588726,0.13119849021400593,0.031871311710467747,-0.31534153048519553,-0.034167684466106525,-0.024877135856450856,0.03451567761761391,0.05004377242190728,0.13907532403200865,-0.007985125967547288,-0.014722397204177064,-0.005658951938844504,0.0053719176052414355,0.015772428716096066,1.2578125
0.0071368549454004825,-0.11948575879197493,-0.028667487459054078,0.2850679436327238,0.03127403806130342,0.021241444563938738,-0.02923628513036778,-0.045387071063047006,-0.1258751267051693,0.006825581825055018,0.012303258038956332,0.0053270020069840236,-0.005078863635061997,-0.015349187119066049,1.265625
-0.0002700751073548248,0.030179610958540447,0.007234196658374584,-0.07108878257268253,-0.007716245132857228,-0.006265543972476955,0.008823054218693898,0.011619074330587297,0.03163845897987748,-0.0020043868088475683,-0.003834272409954731,-0.0012077871297805336,0.0011488987728356388,0.0031827371668313024,1.2734375
0.03147694031882216,-0.6057007654908392,-0.14657234532955912,1.4535154176307155,0.15712882323840985,0.11160614807923853,-0.1533717543969512,-0.23038488664053258,-0.6425939218498058,0.03567661220627403,0.06472895861706335,0.026582662388968316,-0.025281038905228582,-0.07544724396106016,1.28125
0.07886448248876379,-1.5559833863837675,-0.376184723827483,3.7295227320726503,0.40398185456689206,0.2873246808190613,-0.395702259808677,-0.5924629471792505,-1.648880360859643,0.09195499042216826,0.16714351919325765,0.06811993939523439,-0.0648257679900694,-0.19306025568967533,1.2890625
0.03365380725209811,-0.6498433623157442,-0.1571089288633743,1.5551912322943926,0.16836523504320786,0.11968622564202124,-0.16468695058139735,-0.2468888321113223,-0.689186896499836,0.038240600770954175,0.0693610919899377,0.02839135957036482,-0.02710013791771731,-0.08066871282259759,1.296875
-0.09130444758448807,1.8553522321770797,0.44846119218044345,-4.452369855527685,-0.4832174023308976,-0.3432684484140228,0.47420881285340655,0.7090563985565245,1.9637474746879708,-0.11024085319417203,-0.20076767139294993,-0.08138221306648363,0.07726936065194112,0.23000116860620762,1.3046875
-0.13328570956540486,2.6970173798116437,0.6520241369385471,-6.470837821417663,-0.702013187547382,-0.49855961967776713,0.6890419956345064,1.0306250866119118,2.855654917545676,-0.16015924141534443,-0.29144660185534055,-0.11832061658701175,0.11239693796878986,0.33445076379259037,1.3125
-0.03207354372898732,0.6673294554391593,0.16156128291837127,-1.603139000031733,-0.17344683802710206,-0.1235719627601949,0.17154675941589398,0.25571860058585066,0.7071592867918619,-0.03987489845836479,-0.07253755557761324,-0.029414306328347822,0.02784871465666472,0.08263436378064029,1.3203125
0.06363968713131932,-1.2530064900575777,-0.30251447176605784,3.0022003094521517,0.32668246436274556,0.23071306047689943,-0.3182569792146654,-0.4782017366665293,-1.3262549180647136,0.07398014484222296,0.13452074591908225,0.05481673396654968,-0.0522315253302282,-0.15582227803813814,1.328125
0.03500698987443122,-0.6799427788321096,-0.16387048836438148,1.6263088612826133,0.1774770689752064,0.12444223870093007,-0.17219648781179855,-0.2597922285245157,-0.7195182089721681,0.04004231890589816,0.07268665819487981,0.029812740278476618,-0.028399297259629315,-0.08483841761551167,1.3359375
-0.029682344503130276,0.6187013187232299,0.15003563981948484,-1.4882609700697653,-0.16080628155536378,-0.11518551041134656,0.15891166642131033,0.23627854157957745,0.6560796194583904,-0.03691990168727528,-0.06738970252459146,-0.027063056715796438,0.02572776147567904,0.07640659718257653,1.34375
-0.009486827818204554,0.21789203725552117,0.052658273039911836,-0.5209751516170927,-0.05635040121296645,-0.04044523432115982,0.05637767430483084,0.082683327070427,0.23134467632380812,-0.01308056969883825,-0.02414049554458446,-0.009466655635606678,0.008995977308661368,0.026608262367748197,1.3515625
0.04862834349862942,-0.9442720428479112,-0.22907001908380986,2.2746509301247713,0.24664721255653124,0.17467482007463284,-0.24049938731002435,-0.36262927990161475,-1.0013738370516274,0.05595916237055788,0.10131228049542677,0.04156753988531362,-0.039525846183772556,-0.11802436242964873,1.359375
0.03654179838235213,-0.7023443343326244,-0.1708786257577612,1.6956912681840228,0.18376312994179803,0.12994051239958146,-0.17904094848689941,-0.2709762355511465,-0.7470722435565326,0.04169718719845756,0.07529733409756108,0.031035767403629493,-0.02947299432136958,-0.08822422934260055,1.3671875
-0.02697473967209156,0.5689699569521063,0.13694554528911837,-1.3601382957762294,-0.14779165174807146,-0.10512273573641347,0.14536353392193332,0.21553589693956415,0.5996399344845058,-0.033737858852892114,-0.06192073737273912,-0.024745555415685287,0.02357865406033962,0.0699148771939914,1.375
-0.04673686150940292,0.9633908453652412,0.2328815561888519,-2.312329031199755,-0.2512285863828996,-0.17813183969665386,0.24637441280779546,0.3679104956205476,1.0191403150057745,-0.05726698644914614,-0.10460296450950493,-0.042168566190853116,0.040084636215731814,0.11937129782713034,1.3828125
-0.003988937986434043,0.10421924398834605,0.025422916638645227,-0.25330834325516055,-0.027885623969759823,-0.019588427236490277,0.027843648169534867,0.04128707174153568,0.11072810623032173,-0.006477045826292145,-0.011937410631028801,-0.004638130382080718,0.00431911116258716,0.012901817867504526,1.390625
0.04852508076337236,-0.9515767691119755,-0.2295158454341985,2.2783911694890135,0.2470939360196083,0.17512621702409228,-0.2408068440643342,-0.3609867462779182,-1.0061422724952642,0.05600428456240679,0.10193309522157709,0.041536785004334865,-0.039614018411406535,-0.11813862663970955,1.3984375
0.07483081824445563,-1.480371371496368,-0.356967950170753,3.5460212829071223,0.3850398332935386,0.27248115265978556,-0.37554629327615974,-0.5631468058303696,-1.5652359726526788,0.08734681161611378,0.15882381012543031,0.0646983273293878,-0.06161675885239848,-0.18372693186202266,1.40625
0.06376437677257599,-1.2568986960333952,-0.3031150016310076,3.0109080829397703,0.3270852534343781,0.231118855578342,-0.31908628320799093,-0.4790333534098199,-1.3293215641774665,0.07421027091515078,0.13467766418997487,0.0550127536001501,-0.052384479620730076,-0.15608821807722514,1.4140625
0.015917367714034566,-0.29586984505700875,-0.07137350434363442,0.7057176344402004,0.07693899962702402,0.05371944450730215,-0.07439212675858474,-0.11246462984529944,-0.3131554352825006,0.017304833705254704,0.031233906671474646,0.012981489569649974,-0.01241248715515149,-0.03700967684006233,1.421875
-0.03568487433471993,0.7380285783772327,0.17852580415959282,-1.777197409272764,-0.19229940167008264,-0.1371911150011399,0.18959452596501414,0.28341927437848985,0.7819535778333575,-0.04407048415925535,-0.08013902200246652,-0.03240024213630122,0.030741430247823255,0.09135155805792584,1.4296875
-0.056156326496330185,1.1479746977989718,0.27803262397040973,-2.7605075569321342,-0.29895489523932195,-0.2128705649319535,0.29441474420371727,0.4402250865111056,1.217125811748114,-0.06842572949181738,-0.12448295269345325,-0.05044761809882619,0.047914361362796365,0.14236431358790988,1.4375
-0.05861770178508743,1.2004157387646364,0.2904249436322117,-2.879543025482642,-0.3122417236516278,-0.22223943222813955,0.3071734085625124,0.45819180434222057,1.271007438365417,-0.07138646775631165,-0.13016674750826313,-0.052642890732882475,0.050025500576538574,0.14862347233242693,1.4453125
-0.060048581104075384,1.2335242280873615,0.29746407160430766,-2.953181993715718,-0.3204240568146725,-0.22780793246261075,0.3147245323372923,0.46875534128548335,1.3026884212074594,-0.07317033513113659,-0.13342210280203792,-0.053921065439702,0.05125866891205501,0.15227596732900475,1.453125
-0.03460488045692701,0.724443351834381,0.17402523643553644,-1.7333606535980235,-0.1877320585061195,-0.13347463078643396,0.1848181307335918,0.2745838528912353,0.763056889483639,-0.04300478896802996,-0.0782740864529887,-0.031591633427309224,0.030010596675857367,0.08902130730834545,1.4609375
0.017094749780273356,-0.31416218963077525,-0.0765574015565833,0.7566664617810798,0.08245279607620082,0.05821972477990995,-0.07950531908989318,-0.12088777646017364,-0.3345231268437405,0.01846251224016897,0.033546055756229855,0.013835387446099995,-0.013231842961392546,-0.0396287684968702,1.46875
0.03181564872639814,-0.6104140862215408,-0.14786356229217607,1.4720797602772362,0.15920421801143575,0.11269695945045513,-0.15483235334941825,-0.23407023701962976,-0.647619254444684,0.03603644005389521,0.06517489242050227,0.026804339270571107,-0.02558663752500548,-0.07632902155151014,1.4765625
-0.009571893828147637,0.2199587765958136,0.05269171085409129,-0.5167979366408493,-0.057298125877467465,-0.040772094178839806,0.05673158957819824,0.0825928028977311,0.23028278488037443,-0.013113312584046655,-0.02445596790743959,-0.009525446251345233,0.009008407916109242,0.02664710729279442,1.484375
-0.03558783081212918,0.740685489890658,0.17871914675066236,-1.7721976233265082,-0.1930475266893321,-0.1371133176940036,0.18951554166206144,0.2821191395976725,0.7822053036302627,-0.043992315648303984,-0.08061198028237733,-0.03233078257162448,0.03077379765397916,0.09143086072729434,1.4921875
-0.0015642930788456319,0.055339246463880803,0.013720283549061994,-0.1373126237071799,-0.01470193368647508,-0.010877345654023736,0.015082158875839092,0.0215957292792817,0.059457949074497245,-0.0034503651309719567,-0.006820978319534291,-0.002351125872716245,0.0022832119927383107,0.006688685885097632,1.5
0.0528413009240901,-1.0380549094612124,-0.2501273473213343,2.481415491557157,0.26990732530293554,0.19081190307903426,-0.26335261982677727,-0.39507655994048163,-1.096280183584627,0.06126187122251354,0.11107723568180965,0.04548353859010394,-0.04326179660946185,-0.1288551536255094,1.5078125
0.09320839238604113,-1.8478012782600073,-0.44585937997670855,4.422041341461925,0.48067615547596804,0.3403397957466401,-0.46950789182836694,-0.7032707444333189,-1.9533741361882875,0.10912950108695037,0.19862823416799397,0.0808776019089734,-0.07697219254168508,-0.22929177407704268,1.515625
0.11982383988740833,-2.381220798933964,-0.5747999046139506,5.699533644709164,0.6195913375116863,0.4388683678018492,-0.6052711905783159,-0.9059797228438367,-2.5177359663397496,0.14064331720743825,0.2563138106340508,0.10418009253343632,-0.09914211557517472,-0.29538314738861854,1.5234375
0.10079254372454408,-1.9992259922552094,-0.48249909901452903,4.786342720268862,0.5204269765289626,0.3684090061003306,-0.5079369826052141,-0.7607335066635067,-2.1133774327398642,0.11804874263922664,0.21502806516697104,0.08743059753586212,-0.08323296237545715,-0.24803743485251406,1.53125
0.0017961978170413083,-0.011857567697443323,-0.0026457858114290094,0.029182181561322386,0.003552375070312477,0.0018139148206582892,-0.0017283656363623345,-0.0042969641784622896,-0.0117936301139139,0.00043946024919993106,0.0006237751498977523,0.0003980879447468771,-0.0005073973732221838,-0.001798345184721345,1.5390625
-0.11856279726000907,2.405065789644678,0.580817301572951,-5.7601024158993885,-0.6252874161459007,-0.4440352347414977,0.6138915945424294,0.9163826340840056,2.5437728503882937,-0.14264230929950095,-0.2599823325593474,-0.10541915356218566,0.10013370226583443,0.29773285303338304,1.546875
-0.15492045150937267,3.1346202937584695,0.7570661088704437,-7.510500912561796,-0.8153956350230492,-0.5788688303152719,0.7996862065979852,1.1946060977936002,3.315528952070262,-0.18582338192592465,-0.33875005370336664,-0.13729340533323853,0.13052055399632648,0.38823036587730664,1.5546875
-0.08767405049479365,1.7827777309276087,0.43090921280701605,-4.2736375455341005,-0.46408331318500895,-0.3298465399772571,0.455268543289082,0.6794918586540399,1.8859230211758031,-0.10574706083571735,-0.1931593011568906,-0.07802111554572551,0.07419399381901934,0.22072309769505855,1.5625
0.006057794627345681,-0.09934661041954226,-0.02366904184602859,0.23608192041801215,0.025423614967450218,0.01741332290510134,-0.0243271595835097,-0.037977410192484344,-0.10611786804091719,0.0057081124354587095,0.009906159399319159,0.004414615620786445,-0.004234358314063899,-0.012650208158494138,1.5703125
0.04820112477545599,-0.9429353544634624,-0.22796823843668046,2.258371125991617,0.2450563350716992,0.17344395116572262,-0.23950731925863306,-0.35967911476344955,-1.000385385716617,0.0556672199152803,0.10121854828939668,0.04137745024265495,-0.03939380702986018,-0.11739368367655606,1.578125
0.023856697909276876,-0.4517626176689517,-0.10982862190460979,1.0832248532379773,0.1175020265051199,0.08299683085500442,-0.11460449341322981,-0.17271833158490546,-0.48120797109165575,0.026633106968512243,0.0483355305544882,0.019956180654093686,-0.018955102387690704,-0.05666121411044196,1.5859375
-0.016901128669834405,0.36715824249338586,0.08792811084715138,-0.8759837465700793,-0.09541568202958818,-0.06812168978981525,0.09407039123067426,0.13921794094606457,0.3861243081285058,-0.021835376906641023,-0.040147295682760396,-0.015860050261068293,0.015137192582425334,0.04480925619591882,1.59375
-0.01202785271556573,0.2702152083701897,0.06463802436540167,-0.6418678484354557,-0.07011581749571413,-0.049938755745850376,0.06961806932112649,0.1026405588713369,0.2843229936161917,-0.016190417574895987,-0.029625621599335697,-0.011728581004707523,0.01111970764403162,0.032890178569552724,1.6015625
0.02797523909495566,-0.5319319116919314,-0.12890204286396031,1.277362335441646,0.13854133864903712,0.09841438550730927,-0.13444531057785594,-0.20197524366208267,-0.563339788794394,0.031164504170984708,0.057121743778294674,0.023219465015903648,-0.022216275447780622,-0.06628941359225272,1.609375
0.026426453097510485,-0.503108623511858,-0.1213044613784807,1.202032966475997,0.13086655968476044,0.09277617222293398,-0.1267459117486619,-0.1898836094451347,-0.5303640312094401,0.029402401239137187,0.05385850413485753,0.021873672688302787,-0.02092035124733424,-0.062370436602377434,1.6171875
-0.029871794002548965,0.6226684434693182,0.15138100381260267,-1.499457427383259,-0.16204213946202115,-0.11560429979394861,0.1603228172419563,0.23919859864303483,0.6628217868115779,-0.03722385662208018,-0.06801843600621589,-0.027418285442947197,0.026025186359961403,0.07736856253448109,1.625
-0.04367345830866256,0.8984347150749681,0.21797947857065986,-2.158553435587878,-0.233441357771925,-0.16654666218970196,0.23038464688068722,0.34307455068588705,0.9534052208638085,-0.053497955856389334,-0.09783578048590666,-0.03947407875870982,0.03747957567718323,0.11134147067615177,1.6328125
0.04643034882589862,-0.9082020876810778,-0.21914592265759023,2.174796144899794,0.23693296791898844,0.16722518427274768,-0.23043615289287445,-0.3468789434934168,-0.9611651050880206,0.05355561466471294,0.09736215976321475,0.039691826242105765,-0.037864886135739725,-0.11307363503633443,1.640625
0.15088921724321197,-3.0043691641748747,-0.7258168831015357,7.200204515733142,0.7822220932655908,0.554064552555115,-0.764779587681477,-1.146364350589227,-3.1799864990835265,0.17778433167123708,0.3235067720864839,0.1315848232269378,-0.12523694939106397,-0.3731761117976184,1.6484375
0.13857527173487832,-2.7586222690645785,-0.6660465031582397,6.612239198181002,0.7179797389772969,0.5084194488563323,-0.7020174040538226,-1.0525882738823615,-2.9185739111048226,0.16329649577574842,0.29660275667928054,0.12088495775504822,-0.1149810067156832,-0.34256993033223043,1.65625
0.00763061193766651,-0.1300135538903411,-0.030865136243034542,0.31465575754214087,0.03388733680238906,0.0232894686845423,-0.03210287384311457,-0.05038458218539453,-0.136840327422825,0.007606868517229379,0.012854133193396816,0.0057548990192264554,-0.0054589671824762185,-0.016459026752279407,1.6640625
-0.11745497273875578,2.3827048244832816,0.575605328169637,-5.70644300180403,-0.6200070262968241,-0.44030202627036996,0.6080985217726114,0.9079794957519649,2.520341696200929,-0.14126864300189684,-0.2578866868946306,-0.10428998998784417,0.09917894828197917,0.2950855736428767,1.671875
-0.13005524918618347,2.6360569325601872,0.6362236543663787,-6.3172120594507595,-0.6861386450661512,-0.4871168520398155,0.6725892065708363,1.005425027783375,2.7871009419644075,-0.1563159340475974,-0.2847928881885272,-0.11532689876095877,0.10968975323338648,0.32637075014736777,1.6796875
-0.04637798418142537,0.9556840600337239,0.2301950442787176,-2.2953508843243258,-0.24903675154928492,-0.17699452969299329,0.24435343706094065,0.3652770675987205,1.0090247985661234,-0.05680399217741191,-0.10333907058300473,-0.041700877203624406,0.039696987426580115,0.1179522762256571,1.6875
0.023746654757581226,-0.45091202460271745,-0.10950783446469618,1.0752160730807088,0.11709537946863599,0.08291630925888624,-0.11420420171305963,-0.17136296436622672,-0.47911747101175894,0.02650494649175617,0.048412218545927053,0.01985147766879999,-0.018876520018483077,-0.056437100219059545,1.6953125
0.0074347908657634125,-0.12127624279760633,-0.029823153353970514,0.2907458433329309,0.03153906302392094,0.02236065417503666,-0.030237550617132687,-0.046278556685215494,-0.1302430893936335,0.006976098088494424,0.012769763739607046,0.00534402139278695,-0.005149845312974561,-0.015500225135032922,1.703125
-0.042803933194849576,0.8875005707339972,0.21418794542903571,-2.122137642363959,-0.23093857916100208,-0.16387429100323245,0.2270743311592516,0.33827124319034874,0.9377841162288187,-0.05279694111757305,-0.09628768982184137,-0.03888016108932091,0.03688648420034383,0.10973376611099371,1.7109375
-0.035553652145341175,0.7400253603885196,0.17916469448067757,-1.770540571776928,-0.19275989769737403,-0.13686284839584945,0.18982347413660175,0.28247642983102955,0.7829046258652701,-0.04410729912333177,-0.08063933210947079,-0.03247388618546315,0.03080820557374477,0.09166932711960585,1.71875
0.010806066947223731,-0.19255331103305365,-0.04579197327497545,0.4594025530396303,0.04981547599839941,0.0350740482557526,-0.047692773418123786,-0.07266687737299664,-0.2027889955207785,0.011101106829093554,0.019906058528528944,0.008315111844753307,-0.007993555378201666,-0.023867381774092575,1.7265625
0.009500451772678142,-0.16718900485676086,-0.03987246656949258,0.39769915413123635,0.04350697106704552,0.030202678200204034,-0.04126591491480951,-0.06305416540206644,-0.17533836185592208,0.009624977110864982,0.017277381468332267,0.00721593496435281,-0.006971969753508078,-0.02089029169476521,1.734375
-0.021117048482942623,0.4471567173662281,0.1082240662875285,-1.0712986177926962,-0.11583781708955662,-0.08329851550020324,0.11524538666671383,0.1706209776124942,0.4745924733711379,-0.02672213328028712,-0.04893230869614133,-0.019633952548962396,0.018562056230381978,0.05500185712422219,1.7421875
0.0192764877478946,-0.3638846715030549,-0.08776132791976687,0.873288667411678,0.09550961196277952,0.06645384168635152,-0.09141552721344054,-0.13894967846134285,-0.38435365292800794,0.02129050003851747,0.03858094135604161,0.015882724739807553,-0.015216886264165914,-0.04570587767221749,1.75
0.11182730219121982,-2.221487771348417,-0.5365359072488536,5.321603719784374,0.5788602710604489,0.40942456677764555,-0.5647392184621421,-0.8467424922164439,-2.350491663999666,0.1312373811564792,0.23910211758015337,0.09717877590240764,-0.09255420282198676,-0.2760167333592895,1.7578125
0.12565141111365624,-2.497747335259063,-0.6034844363114648,5.981259646651408,0.6506055861875876,0.4605139769918234,-0.6351910485359409,-0.9514680043597131,-2.6426464633803963,0.1475858608693904,0.26907962523939133,0.10928692287174983,-0.10406224564805623,-0.31021742464066904,1.765625
0.0448602616467531,-0.8742863171606097,-0.21139692266344268,2.092008355189172,0.22784806868274732,0.1610483821654251,-0.2217583365330761,-0.3326770198879986,-0.9246309033913613,0.05153492718203841,0.09390498979545794,0.03830167221983369,-0.036469389988723094,-0.10881433599811498,1.7734375
-0.009429877165922727,0.21604425434553823,0.05229732746853578,-0.5197709104944956,-0.056535063303730294,-0.0400179045576254,0.055747465164139934,0.08242843984049823,0.2286055683522991,-0.012909059705538961,-0.024044000336942796,-0.009333742904556186,0.00895603853356226,0.026621684391750236,1.78125
-0.0046599751412722545,0.11962444264253483,0.02930776902288809,-0.2893656882714502,-0.032064133225832736,-0.022218423367455598,0.03096742895220482,0.04534269272853709,0.12573502074659929,-0.007119909817883522,-0.013954865697568665,-0.005063847911848509,0.004974440563019698,0.014867462011305205,1.7890625
-0.035198685167621764,0.7329728149472715,0.17716731241703734,-1.7573436716345092,-0.19156457986417005,-0.13550027594507577,0.18707106124001585,0.2786474173653072,0.7738085144651631,-0.043396961056482594,-0.08006297027844753,-0.031898179426781435,0.03048685364618422,0.09074602283910213,1.796875
-0.11273187997097187,2.2911094450437988,0.5528106323996966,-5.485425360217384,-0.5963273282385516,-0.4231249373112744,0.5839031924194727,0.8716632521469316,2.4215340686098887,-0.13564436898556212,-0.24776057111153912,-0.10009583747574108,0.09527347898522445,0.2834340081610178,1.8046875
-0.12675151792001751,2.5725864676403742,0.6204670729785349,-6.155927200163481,-0.6691174039478575,-0.4752614801797226,0.6558236181116637,0.9788019159386725,2.719089711707412,-0.15238291051679986,-0.2778223248085794,-0.11244265509284472,0.10693097825099206,0.31797354048165966,1.8125
-0.044030633929386276,0.9087270850582868,0.21903338997356628,-2.171258705631297,-0.2362154310892232,-0.1685116260012404,0.23265821357008282,0.34603201334227685,0.9597813768434186,-0.05404617826406557,-0.09838967698505259,-0.039729351816625465,0.03769387795760611,0.11181655046014928,1.8203125
0.0339576989993768,-0.6602334330283598,-0.15916645645711727,1.5820050348113641,0.1719111911301585,0.12097630758068523,-0.16633221993063482,-0.2501920600910536,-0.698255747097381,0.03866389606639631,0.07063231122379438,0.028750379295901716,-0.027531057007171896,-0.0822311138413157,1.828125
0.03922970392695571,-0.7662088214449425,-0.1843578201509647,1.8308371650973612,0.19946794910347515,0.14083131292954584,-0.1931952025168762,-0.2898854528670884,-0.808974130244258,0.04486493471623563,0.08197497788873052,0.033245882806489095,-0.03187694947489621,-0.09497356820540101,1.8359375
0.01772387064630642,-0.3327933003719262,-0.07975154605663924,0.7907711432149181,0.08662367202842822,0.06102968615111438,-0.08307850961484571,-0.12494510355928358,-0.35013366891889447,0.019257742294838506,0.03527479064107557,0.014312416907582892,-0.013833547422311116,-0.04118376443188835,1.84375
0.026152637129622403,-0.5013040083967694,-0.12075168644020225,1.196136912440976,0.13049799331929307,0.09196229399144713,-0.12630778882722513,-0.18978627285192498,-0.5288413597453087,0.02936140648259153,0.053470227153969235,0.02185734963068792,-0.020894930037187426,-0.06231891116276598,1.8515625
0.055048320231391064,-1.0811424062499704,-0.26111112019458305,2.5884959930844347,0.2817148242833927,0.19888819373908162,-0.27427858672509653,-0.4117004996236378,-1.1430743270794579,0.06381839780135427,0.11597974774735664,0.04735520347602641,-0.045086191384082944,-0.1344856641720099,1.859375
0.06156683594242471,-1.2103025388936592,-0.29251341370505696,2.90026205904939,0.31558691718138815,0.2230259118618866,-0.3074779039855579,-0.46174721000775865,-1.28073557663528,0.07152031378463482,0.12989854545162965,0.053003727296605394,-0.050473461259622356,-0.15055113292175681,1.8671875
0.023330924478510828,-0.44033617935051156,-0.10656209567968412,1.0560805097643071,0.11496007718753826,0.08124812182199323,-0.11156390200719479,-0.16849635644679334,-0.4672017243716676,0.02591766239497268,0.04682860275626948,0.019292602274972637,-0.018373090284720634,-0.05493720734078616,1.875
-0.029293392474224533,0.6167364869529715,0.14888200178640945,-1.4767817076703107,-0.1605110567355879,-0.11389024748637387,0.1576295692023112,0.23433028214828272,0.6504336745446102,-0.03667328679072863,-0.0672432877180078,-0.026909160131187933,0.02567458452973159,0.07619108717927577,1.8828125
-0.03344687424199327,0.6985069883534438,0.16877511048099664,-1.6732609020937517,-0.18170809667759785,-0.12926722114572387,0.17851767036676222,0.26520590789910414,0.7371612875011626,-0.041498615218407246,-0.07605556160112079,-0.030448004475988725,0.029054961639300488,0.08619838786253142,1.890625
0.013382390663372707,-0.24361844495127352,-0.05871399245379313,0.5823903085364954,0.0636518366126505,0.044420487772184374,-0.061246262977186015,-0.09354613525528357,-0.25843808026863824,0.01424146436375916,0.025676012861131994,0.010720805771379675,-0.010213606905187406,-0.030698391594465416,1.8984375
0.024973483535218256,-0.4771347585195955,-0.115161602773695,1.1398698880354692,0.12402220749685616,0.08750206682199485,-0.12046850231277033,-0.18130119583256712,-0.5045272369236258,0.02799504551239464,0.0509493753993387,0.02087393074829763,-0.01993304093196716,-0.05952270447591492,1.90625
-0.033669288856403835,0.700029821067499,0.16908120867343426,-1.6809212154989366,-0.18293333224094085,-0.12975613720628254,0.17945939445423997,0.26816483435799676,0.74100477812563,-0.04168654066091461,-0.07607434605191407,-0.030615360641717663,0.029107499033545398,0.08656953767926842,1.9140625
-0.05978896293514714,1.2236615792894863,0.29561800735014276,-2.9338842848331135,-0.3191441203203473,-0.2265228786965784,0.31281932250704747,0.4673318829960297,1.2952351466569259,-0.0726077017600267,-0.13268678152638,-0.053485425285683875,0.05090943668653728,0.1514354275069768,1.921875
0.01696231772966806,-0.3178807230007333,-0.07655228497126731,0.7620031909284346,0.08263866373587317,0.057859810300786935,-0.07978040196562318,-0.12089083796616691,-0.3349919108441677,0.01868059737158793,0.0335059334682509,0.013955752243630033,-0.013301802057554943,-0.03983728581146923,1.9296875
0.08344379048298663,-1.651045314686601,-0.3986577512046204,3.9591417457188176,0.42994287586296726,0.30411285156955553,-0.4194303327031005,-0.6294300642921558,-1.7460744251117004,0.09757678813120017,0.17735761320537025,0.07226864941044195,-0.06883963888637291,-0.2051966214385165,1.9375
0.02012927735523539,-0.3766714655549746,-0.0912853626100282,0.9086037763042375,0.09830824258416454,0.06945509345656416,-0.09514143633057924,-0.14427741487445483,-0.4001290187400161,0.022127014673836272,0.0400661240745714,0.01650678577731517,-0.015799169946335744,-0.047209106260457184,1.9453125
-0.08315426949578286,1.6982319374760664,0.40962508244513474,-4.062803090815592,-0.44156105896205533,-0.31314115560777295,0.43326754935561723,0.6462852134813907,1.7939032501321097,-0.10072002872529431,-0.18360951486344318,-0.07431504044795272,0.07060022592161687,0.21004494241127628,1.953125
-0.07645014167480621,1.5616815762514904,0.3768400655983786,-3.7393586777189696,-0.4058779085648555,-0.28817128423071003,0.39880625546243964,0.5949397877030065,1.6506842678694265,-0.09269918657989655,-0.1689065882220725,-0.06839232636907497,0.06494598055836635,0.19315668362714,1.9609375
-0.0015306316287410377,0.05532445909589997,0.013243606968574325,-0.13414614218458867,-0.013988848697340833,-0.010676499607091768,0.01531176224720213,0.021548131778722925,0.05799054930440506,-0.0035667219171616332,-0.006513497057130888,-0.002466291903666031,0.0022385171244123816,0.006431145933223803,1.96875
0.01326392107475222,-0.242046379157765,-0.05848834450193838,0.5765526500363918,0.06318241105475272,0.04384304851825743,-0.060586133812918504,-0.09193214617823159,-0.2570912870714999,0.01404455596675391,0.02554869644650388,0.010600165307074479,-0.010151618556987181,-0.030435281709241646,1.9765625
-0.003475643520041526,0.09406249422762451,0.022963387615606932,-0.23019032521956614,-0.024321371617530278,-0.018348997132120334,0.02503407518758427,0.03610038437472431,0.09905496247896939,-0.005871008580105499,-0.010717556715899952,-0.004106065233179589,0.003865800529142454,0.01130984554647863,1.984375
0.046103486534353616,-0.9017887823247633,-0.2172379776199694,2.154283817309703,0.23479303596419931,0.1654839152272411,-0.2283971055051639,-0.34280029864549255,-0.9525423614421369,0.05306084663271054,0.09659275017403202,0.03945159247926207,-0.03755101782823849,-0.11201619405639954,1.9921875
0.10257425831435157,-2.035221186703529,-0.49112402326134674,4.871024490454607,0.5295677256541228,0.37500267085281497,-0.5171819594409568,-0.7745644544968296,-2.1512417007735114,0.12022958668215109,0.21876771635346873,0.0890776020575657,-0.08473087831644628,-0.2525150963610181,2.0
0.047954959524732665,-0.9381472319744197,-0.22643629539168125,2.2456473719364856,0.24400117791900283,0.17286770589863454,-0.23794751980269183,-0.3570252187139055,-0.9917567855033149,0.05536322186759109,0.10044453542069025,0.041055175522823485,-0.03905475507272079,-0.11656467861874165,2.0078125
-0.0526681212444334,1.0809393143563408,0.26143919418826056,-2.5904332024160217,-0.2813353455765326,-0.19984447503553202,0.2765688270412849,0.4122670323713912,1.1443456176883136,-0.06420444636775473,-0.11739446108630511,-0.04741254007378776,0.04503737655253474,0.13381644867142506,2.015625
-0.0431926868073255,0.8899748961123436,0.2155212384907034,-2.1321836293286394,-0.23166422870636375,-0.16478039653727586,0.22804613314981384,0.3394482822160856,0.9424449661804173,-0.052920088224220466,-0.09691010201550843,-0.03907426823556609,0.03706510292883314,0.11019527559394007,2.0234375
0.04806186202200362,-0.9396438296722047,-0.22700270841868425,2.2542282512416025,0.24434346528379539,0.17317458753823115,-0.2386723002272021,-0.35884377353517943,-0.9956863208682514,0.055541043662567804,0.10053162529701443,0.04117829182767815,-0.03922432595057341,-0.11686388216085933,2.03125
0.05015533447511874,-0.9788242771887175,-0.23718535422437542,2.3497629499494996,0.25463817900041247,0.18079346700532614,-0.2492365500861906,-0.3746147697487146,-1.0393917167774447,0.05796396854585705,0.10503634392201668,0.043029437848061104,-0.040914243320253535,-0.12199217354479772,2.0390625
-0.05995867635324398,1.2308303742012456,0.29684356073148654,-2.9476878632995445,-0.32019353899062697,-0.22727650447624537,0.3141958663663091,0.46860212771865317,1.3003963342584857,-0.07301271661883545,-0.13322509926249185,-0.05378832530760654,0.051173860212169686,0.1520738545772029,2.046875
-0.11930148779620116,2.41965103421394,0.584729466542984,-5.799934110625316,-0.6296962504373318,-0.4472692795825604,0.6178526095246413,0.9233044029274103,2.5612722554125025,-0.143598669181444,-0.26161337330509493,-0.10595845856088751,0.10074301417265717,0.29977023080744725,2.0546875
-0.04745775285774033,0.9779297531279948,0.23640607539713202,-2.3455440986566747,-0.25486442920306523,-0.1812120084324376,0.2503778123700119,0.3737859935481024,1.0350587964008926,-0.05821982587505929,-0.1060742136384261,-0.04279587299816644,0.04064724806380988,0.12105150442218471,2.0625
0.03416010848102281,-0.6584319692061082,-0.15938831707700168,1.5757546438328736,0.17096566925658715,0.1211906900504617,-0.1670520995559692,-0.2505897276544517,-0.698681963632553,0.038748797652812826,0.07074460371638422,0.02891093228712698,-0.027542929191691424,-0.08199534906969734,2.0703125
0.017584610541077735,-0.325994966633966,-0.07909128985061496,0.778170773541234,0.08497646662882921,0.05987808705722149,-0.08214183956314824,-0.12362875070785861,-0.3462264261414696,0.019008338314711933,0.035055041061368364,0.014275047775676439,-0.01363678526630765,-0.04084741877063213,2.078125
-0.016156626892112218,0.34977122446696396,0.08434414121734136,-0.8386056680181913,-0.09025832290606622,-0.06509294011783684,0.09045313702498946,0.133921381800919,0.37085990874936203,-0.021024289556003647,-0.03803061967732277,-0.015368162246161304,0.014532262337681146,0.042813804334546596,2.0859375
0.043344633657381115,-0.8446659970384263,-0.20438140961324727,2.029766678056074,0.22082117254077815,0.15537529374616574,-0.21412944177231932,-0.32276783213094123,-0.8931639209270922,0.04987394146034534,0.09050884972307667,0.03705172647298969,-0.03530263263554753,-0.10558023554162341,2.09375
0.1250102739240463,-2.4838901572850376,-0.600405474173127,5.960109530928671,0.6471863185903421,0.4580549732817718,-0.632152635623612,-0.9485965172348056,-2.628546677502763,0.14706962337184074,0.26711560527806627,0.10892762218488837,-0.10362431339532839,-0.308916542546765,2.1015625
0.09097172893143296,-1.8023413630731198,-0.4351973405437646,4.323157688145213,0.4693738632694218,0.332074466110794,-0.458186548515124,-0.6879274483264703,-1.9065853533366617,0.10660283752411086,0.19343237616382253,0.0789776363535072,-0.07515472310428688,-0.22406937606440608,2.109375
-0.023261259126946734,0.4889168596648561,0.1188184993841669,-1.1721439925361392,-0.12731434031314995,-0.09107928254690022,0.12611084551587232,0.18692526468530335,0.5186440480501034,-0.029243844921934357,-0.05379716654845678,-0.021517687049846412,0.020382182863851805,0.060450067986920555,2.1171875
-0.07359916955800173,1.4993177811580642,0.36287262001869747,-3.5981062324159403,-0.39052085013696003,-0.27744931137830525,0.38350077340900773,0.5727091418038013,1.5868301942102216,-0.08910226717426796,-0.16267470565554332,-0.0657959613190908,0.06250796459994885,0.18595649860231386,2.125
-0.049037194694863624,1.0071301205485315,0.2438111257063255,-2.4241412454150866,-0.26249891469123793,-0.18628127497518546,0.2576624733210956,0.38499359195606675,1.0647977240347604,-0.05990139321528434,-0.10940470524001976,-0.04419492988820815,0.042011783339204134,0.12504529442199344,2.1328125
-0.048702875247418606,1.0016214499993823,0.2424232980312127,-2.411024732194794,-0.2609768912652354,-0.1851053527360707,0.2559616922882962,0.3823241586848621,1.0586667633762274,-0.05954263870580635,-0.10874777554480618,-0.043933242381987016,0.04174735208933234,0.12436603792980042,2.140625
-0.07415031124782774,1.5141475779902476,0.36606486278417477,-3.63091200960619,-0.39432603427011925,-0.27972277244095567,0.38659661101980625,0.577118358652384,1.6011501778302062,-0.08989794138607803,-0.16403488452081186,-0.06638436359602669,0.06302302706286632,0.1877200875684039,2.1484375
-0.04514274562324258,0.9328297890574179,0.2254512213565754,-2.2314333972177987,-0.24319021810463298,-0.17254491691488347,0.23881501389564816,0.3559279560276017,0.9866489099399748,-0.055527627672847656,-0.10124768375812179,-0.04092229043922365,0.03878336373891408,0.11543219509654717,2.15625
0.027056250487675126,-0.5166841161508903,-0.12481330135598989,1.2391097037959486,0.13403908211891746,0.09485775906160414,-0.13034562203451602,-0.19578590497054058,-0.5464008842247909,0.030272642374863372,0.05528728855242906,0.022622566760935027,-0.02156464575145381,-0.06440224009127622,2.1640625
0.06253270044196144,-1.228059748077385,-0.2971228564525566,2.9402427259161046,0.3196894111283392,0.22627741687870143,-0.3120913885272222,-0.4676430470319782,-1.299894974949199,0.07252046688579676,0.13221955456303297,0.053939636631316006,-0.051233437939646735,-0.15286242746471954,2.171875
0.05692861203479311,-1.1137140517294748,-0.27025488681193477,2.6705241459195492,0.2905641157512204,0.2055515505634929,-0.2835964866532837,-0.42575616444224706,-1.18079403388601,0.0659444625706885,0.1199828135072652,0.04907088549876706,-0.04657769694681191,-0.13908407561881786,2.1796875
0.05528333216745752,-1.081583721218935,-0.262487110556629,2.5980677133334003,0.28216565426169465,0.19962101191388965,-0.2751459222556054,-0.41344012832986693,-1.1467804536424615,0.0640205284611863,0.11637696903663397,0.047583636431362195,-0.04524727006151404,-0.13512497132067855,2.1875
0.048988022484008804,-0.9595599997850937,-0.2319107945382996,2.3021959776186667,0.2498370667914284,0.17642965579487982,-0.24309672172780225,-0.36511380965625534,-1.0151422512846489,0.05655690519880131,0.10288964840675202,0.041999890212485576,-0.04003366903019429,-0.1195198359797314,2.1953125
0.016884095519132523,-0.3176982197339749,-0.07588331436138798,0.7593174673700578,0.08266146781955766,0.05746165428155109,-0.07918118731244515,-0.11998118202261505,-0.33404968311996613,0.01843852519342702,0.03342417206588866,0.013759858367048195,-0.013196614672376445,-0.03957459118240415,2.203125
-0.008571076166818535,0.19515590608088174,0.04797322374303591,-0.46736494743408363,-0.05030197460683829,-0.03679664822094207,0.0510440060271832,0.07400436024322649,0.2084579994392036,-0.011795698029219176,-0.021915308760365584,-0.008658488012443311,0.00814796840065994,0.023927195911681808,2.2109375
-0.00843488663733881,0.1945647696551815,0.04743747390526308,-0.46158505865418725,-0.04997064832426336,-0.03606020100911186,0.050607734394601776,0.07303049033932268,0.20723486512757247,-0.01165463832988725,-0.021850555074817334,-0.008595766824475833,0.008073204195882578,0.023744197907587646,2.21875
-0.027828176880110436,0.5831339017019442,0.14119574912434926,-1.3944701601810798,-0.15170835202663413,-0.10788173926578222,0.14977613444843416,0.22218022728557774,0.6177618580192945,-0.034740306567370954,-0.06378972170672746,-0.025617434649734202,0.024229637959626724,0.07206269920129556,2.2265625
-0.08113298221207865,1.6525811590686421,0.3993149663993557,-3.9628338042182616,-0.43057009103359556,-0.3057350103226624,0.42219409892373516,0.6307130154060526,1.7475747595875324,-0.09814945258490013,-0.17898215228878686,-0.07236974701901523,0.06873972633418175,0.2047256643266815,2.234375
-0.0882640752804239,1.797896857445389,0.4338716909580136,-4.313783782341338,-0.468172560257835,-0.3324368376676462,0.45878309228573294,0.6858308543776478,1.8995252556592637,-0.10670701737520152,-0.19435551868987616,-0.07859602602818758,0.07477698545939587,0.22257113086908045,2.2421875
0.002676677179372365,-0.025462195846543918,-0.006797339100406005,0.05653039902251889,0.006713766744070544,0.004664299619863673,-0.006011715055063964,-0.009593815502364506,-0.02948607605757809,0.0013453021255176026,0.0023662002624014636,0.0012798724779068133,-0.0011206987301194036,-0.003586967046716624,2.25
0.08777807312901142,-1.7345545908104345,-0.4192533987093769,4.153829949658934,0.45132806064298586,0.3202314616840682,-0.44133121963383787,-0.6611297956515684,-1.8366152071502735,0.10257367443411196,0.18646111556771658,0.07605008295866199,-0.07225982414365888,-0.21536779518133958,2.2578125
0.03186471346397637,-0.6144242572044839,-0.1482982789071098,1.4712616135095353,0.15954347136297928,0.11302439678707456,-0.15576477937274186,-0.23436976218043368,-0.6514736909074522,0.03622832404224633,0.0655054648556332,0.026959807653211328,-0.02563965893747281,-0.07643077999106228,2.265625
-0.09004309947045253,1.8314856479559949,0.4425647149309479,-4.389079809472224,-0.47676451090355293,-0.3388024550745762,0.46762468146094005,0.6979436931045236,1.936430226895247,-0.10865801392976017,-0.19819491853500745,-0.08017025170557679,0.07618428105433646,0.2267521103782806,2.2734375
-0.06004358706796716,1.228783383269706,0.2970812466733493,-2.9461377166189298,-0.3194559904298559,-0.22752107985727135,0.31446383724243643,0.4689604290677931,1.3009235874988077,-0.07305909139215368,-0.1331350290242818,-0.05389018838559664,0.05112695263715043,0.15203874308514345,2.28125
0.11737376573283169,-2.333492222624237,-0.5631581614425206,5.588657120755325,0.6078025895256153,0.43016011128527337,-0.5928302170774005,-0.8882440633004451,-2.465815579164427,0.1378251934241709,0.25098967980809467,0.10196686529345922,-0.0971492974204968,-0.289588190691006,2.2890625
0.16543498394002418,-3.2985851002288236,-0.7964068086250377,7.903743610511964,0.8589076961922897,0.6083700056383164,-0.838871082250225,-1.2567159583436442,-3.4879687986125103,0.19502477472280758,0.3551130413154637,0.1442397458198532,-0.1373521300387933,-0.40941239552745284,2.296875
-0.011327693573461795,0.25110925822333136,0.06057005259027601,-0.5976808528204185,-0.06514782538579046,-0.046794304855571456,0.06505578178300087,0.095225576801921,0.26477105719415533,-0.015065803502502311,-0.027596120433547786,-0.011054574429260652,0.010381369103176696,0.03052012159634975,2.3046875
-0.12965273140141412,2.628202740640944,0.634742245007334,-6.294041020990527,-0.6842919279343513,-0.4855813847172675,0.6704354717795087,1.0013423559845778,2.779360610661583,-0.15579544328073583,-0.2840429334987604,-0.1150514404076354,0.10933616173983264,0.32545311831946877,2.3125
-0.0051323743747079984,0.12850264402966677,0.031501290556514974,-0.30978424696229545,-0.034017376312312185,-0.024357975579198114,0.03375129466052218,0.049546258196929246,0.13687908937545734,-0.007846564367711252,-0.014677929788802209,-0.005620763720517351,0.0053070075851049826,0.015889724703910958,2.3203125
0.11924790611217737,-2.3697646520137585,-0.5717508762451051,5.674035738739412,0.616666332177122,0.43662024635915614,-0.6024826734462599,-0.9024514886193458,-2.505393682413924,0.14003715217061755,0.25476122537239715,0.10375661980819884,-0.09867760038647475,-0.2939535775743414,2.328125
0.01599387849636109,-0.2962819021231138,-0.07160448376305333,0.709864782219036,0.07773413593886776,0.05407424422901002,-0.07437173277338104,-0.11305013024021693,-0.3134973202492145,0.017327822899461654,0.03140356096394477,0.013070410645391637,-0.01239606705250762,-0.03735261624313096,2.3359375
-0.12012861124659514,2.4402204306555917,0.5885452080319938,-5.843322971495846,-0.6345529596998184,-0.4505515856129114,0.6222538797273076,0.9292944506227592,2.5797454558350514,-0.14458552174384742,-0.2635464770894664,-0.10660281006676417,0.10146491163864231,0.3017538786038027,2.34375
-0.053074253634080075,1.097211415192571,0.2639891160608983,-2.6270776194714984,-0.28560063880772935,-0.20229571882874364,0.27970410835955006,0.41767466464898534,1.1584331495484745,-0.06501544273216235,-0.11872867114750724,-0.04775905894270979,0.04554224841743583,0.13549570462436908,2.3515625
0.064740619245226,-1.2691147798978746,-0.3073075743478874,3.0406463148357705,0.3302528279022193,0.23445721225260271,-0.32301762664013506,-0.48394797181947213,-1.3452326891574165,0.07504699678572194,0.13645611341351768,0.05575085150998713,-0.05293410172859363,-0.15776546769600885,2.359375
0.010486740445974002,-0.18354172024352824,-0.044897851911409166,0.44139124657242906,0.048143395522995076,0.03382830682767084,-0.04601813315074091,-0.07035407590588473,-0.19704938225263474,0.010688985927360953,0.019388031922845574,0.008072593381785028,-0.007712552413668762,-0.02331471773636419,2.3671875
-0.09233988167366916,1.8780920394635854,0.4534294501772393,-4.497648800033155,-0.488558000045459,-0.3469610188862856,0.479577714981123,0.7156783661034072,1.9850806719341212,-0.11144883458277212,-0.2031322354438656,-0.08231259667857871,0.07814041727800144,0.23239194485500833,2.375
-0.038759156142431146,0.8004128036286839,0.19391003781663557,-1.920491056996308,-0.20873604925529815,-0.14832194727208664,0.20529673103472657,0.30594031591957194,0.847329598299641,-0.04769425336964457,-0.0872496409313888,-0.03520477814499723,0.03333277418659893,0.0992273279733092,2.3828125
0.07131219437723656,-1.411825198721776,-0.33979196120563826,3.3747809696096747,0.3667727983107857,0.2596364946242911,-0.3580793790501222,-0.5365887561247115,-1.4914986561784713,0.08326144702749891,0.15116074063563945,0.06162473445585146,-0.058723282794867604,-0.17482055389210327,2.390625
0.054733084655283794,-1.0799819519232,-0.2597227631371913,2.580235477013318,0.2807575150442058,0.19809588692579005,-0.27350036412563694,-0.41049316021630067,-1.1405246978235748,0.06361103151982843,0.11552812374970983,0.04711613725285378,-0.044945431216019266,-0.13391701491355934,2.3984375
-0.008836097380299978,0.19839031563377807,0.04859274054108505,-0.47916162427639347,-0.05156527863965168,-0.03778142720521368,0.05200190847571982,0.07611183572617533,0.21151546594008658,-0.012068458286227716,-0.022092143069919634,-0.00880890067180539,0.008209364966217077,0.0242957748801665,2.40625
0.028389648660257574,-0.5457928930200093,-0.1314421501292041,1.3062457877369824,0.14232677522982182,0.10003333569571012,-0.13781737845132963,-0.20783844913383892,-0.5757632776881059,0.0320398229208696,0.05824333205150681,0.023830481302756452,-0.022787650074396287,-0.06802919011128726,2.4140625
0.07396468033208284,-1.4592343011871933,-0.35233019126134457,3.497942269247787,0.3802904581569077,0.2690845852117817,-0.37069393198762896,-0.5564257686294373,-1.5427615799557686,0.08621593958272263,0.15672415506875786,0.06390367591879952,-0.06081457229810076,-0.18138286028430128,2.421875
-0.010707517592413203,0.24105203641366074,0.057877700611272224,-0.5710527332500536,-0.06200204286400104,-0.044662241011177016,0.06236581819685205,0.09096789384914176,0.2543407221005987,-0.014394184745598254,-0.026568807036005948,-0.010460713386577078,0.009933818797873377,0.029140244050384314,2.4296875
-0.10727371644399056,2.1803417421763736,0.5259431104269839,-5.216258875859168,-0.5667526671397484,-0.4027833681349071,0.5563525229134508,0.8299707022953227,2.304561929890972,-0.1292483154908451,-0.23553620738048797,-0.0953477827249681,0.09063869047286077,0.26943255050324744,2.4375
-0.03836856232134286,0.7974388905145984,0.19203487898463945,-1.9078531804925194,-0.20721603451582365,-0.1475499488514338,0.20395758583481047,0.3034873409497626,0.8413832777487543,-0.04741161748461925,-0.08634264944890295,-0.03483261285182721,0.033092894212399145,0.09818510211231067,2.4453125
0.09455002231206511,-1.8711862569411126,-0.45225459946345503,4.480475998928765,0.48680801571909643,0.34526506891770475,-0.4760359211397712,-0.7129733155488576,-1.9812258534807643,0.11062690515571685,0.20130365608872602,0.08198627399069039,-0.07795749326046163,-0.23233435233788555,2.453125
0.07485485098518241,-1.475600926567012,-0.3566331856665157,3.531649801917316,0.38361741224993723,0.2724348464384962,-0.37532621117691367,-0.5619418328878243,-1.5621252326461645,0.08724260747848639,0.15849083111915988,0.06467365409407205,-0.06145762356643565,-0.18310475564926754,2.4609375
-0.05874853743237583,1.2075011644523466,0.2913867709229312,-2.8953771661500523,-0.31448282830853785,-0.22290384413798095,0.30830149945636154,0.46069221662088566,1.2767150223319441,-0.07166862925676404,-0.13083056083630346,-0.05279838142737283,0.05026331713083271,0.1495439602766054,2.46875
-0.09735491707879738,1.9828177994539302,0.4787464659882594,-4.7522106324564986,-0.5160483233890603,-0.36624275765426106,0.5059480613887856,0.756101658536665,2.0970263000164278,-0.11764754591036458,-0.21435240440723902,-0.08675684331481216,0.08253607855191268,0.24560622922567965,2.4765625
-0.01146161422618288,0.25679014777749043,0.0621224290098566,-0.6164540418002578,-0.06702569374224036,-0.04788644865037251,0.06632707472310878,0.09812556445321076,0.27124150779427636,-0.015458087659392715,-0.028306587103136664,-0.011202980191191253,0.010634595585351595,0.03159370443896601,2.484375
0.0530887714496753,-1.0420972938805855,-0.25130065669673773,2.49567796855371,0.2707039372417514,0.19157937722571206,-0.2644032155780927,-0.3968597050054421,-1.1022034136966765,0.0614755858100049,0.11154850459984043,0.04564306214898451,-0.043474632699981516,-0.12942500004193477,2.4921875
0.03945444805883102,-0.7706712869164001,-0.18560259753760167,1.8438217326683994,0.20009240115293897,0.1412348581762488,-0.1950082078879799,-0.2929903574904599,-0.814352979740217,0.045394024298114045,0.08222407780291009,0.033735112695991776,-0.03215105195923684,-0.0957738117997359,2.5
0.011573182004708828,-0.21072950328796122,-0.050482546009960994,0.5004535624600255,0.05463187804536083,0.03794638482783239,-0.05223462531361886,-0.07912798519395568,-0.22197220845651908,0.012195853581266507,0.022015303478865485,0.009204286166866959,-0.008799535402979224,-0.026373732343853522,2.5078125
0.00046389253530993606,0.014933006034418298,0.0037209753462413946,-0.03807701959546784,-0.0038080239996059425,-0.0032796067339200463,0.005147942215287679,0.0066670400902617945,0.01610577817738871,-0.0011869259532850931,-0.0021635475346449343,-0.0006955714189918005,0.000589722196159415,0.001553970974509536,2.515625
-0.011111811182241948,0.2500515310319698,0.06019008494634057,-0.5954364305520109,-0.0645271125658102,-0.04622256919967485,0.0648077313285255,0.09513773363507264,0.26407521638012976,-0.015061395948741186,-0.027520433594225235,-0.011009475610980873,0.010339742265630864,0.030532963496457666,2.5234375
-0.022403410679374573,0.47683157948870325,0.11478664879138606,-1.1353858359108733,-0.12303509624665329,-0.08798994052953642,0.12237030788673955,0.18034153490181126,0.5034956819200869,-0.028388532142781076,-0.05201444449418832,-0.02091674820278725,0.01976074438018371,0.05838855949233791,2.53125
-0.02698050500517482,0.5659983955904586,0.13650559041552637,-1.3522823124276115,-0.14629282478328667,-0.10478734180308028,0.14506504609648704,0.21421463523076825,0.5979683749802547,-0.033613956848377875,-0.061645198975203715,-0.024783500501368832,0.023490952392164782,0.06938976617312559,2.5390625
-0.021441785116163386,0.45202789619441985,0.10949739416964813,-1.0844560769301756,-0.1171962243370125,-0.08417538711853309,0.11626580913975136,0.1717119876892974,0.47818769283418155,-0.026939460491169465,-0.04942632263319113,-0.019842849083978247,0.018783727795301602,0.0555377660966914,2.546875
0.008658627593570202,-0.15273381670064506,-0.036255170167800874,0.3635877870357511,0.03991571036976451,0.027336155803793807,-0.03752237160282446,-0.058041711215533996,-0.16112820443666265,0.008740575187316397,0.015736586468542486,0.006515226407076614,-0.006377541706189084,-0.01920120084948103,2.5546875
0.04341805894271955,-0.8492841601448308,-0.20477151434261126,2.033804732932992,0.22129800955704396,0.15606108932209287,-0.21497231742740405,-0.32340345400737414,-0.8985992312984029,0.049945169269250814,0.09097450974873664,0.037003168396138084,-0.03540303600778945,-0.10564420121380293,2.5625
0.0346689271768287,-0.6719121381710008,-0.1623622841910726,1.6066262153225315,0.17486582969143882,0.12345186868859996,-0.17012146225005692,-0.2556069661383182,-0.7116795601842943,0.03952151708786982,0.0720069172748516,0.029427045304333703,-0.028049144205847268,-0.08373742606939316,2.5703125
0.005521427862616209,-0.0841408734633558,-0.020450171011754725,0.19488506682039908,0.02118626200768169,0.015115209160386453,-0.02085279200789146,-0.031291663662163925,-0.08975557597768574,0.00483998672607458,0.008528564659684526,0.003918836998440385,-0.0035688013774870537,-0.010623327352222383,2.578125
0.014625214107604197,-0.26367667304331915,-0.06377589046150357,0.6275024436515513,0.06759301025291331,0.04862480241502468,-0.06691220649890624,-0.10002164996079808,-0.27947309681507687,0.015565992089318099,0.027624698739906917,0.011847947967367708,-0.011022746695568875,-0.032647069238923264,2.5859375
0.020678957039480146,-0.38435483964112,-0.09320886885595774,0.9234539903388512,0.09936567359027312,0.07112247411371737,-0.09754013574433502,-0.1465119858033529,-0.4075982900052429,0.022715105438010544,0.04058189161920879,0.017051475655494572,-0.01606470877742852,-0.047797435983975504,2.59375
-0.032273208568592844,0.675841329298267,0.1626215716218655,-1.6146363252466254,-0.1760222259750495,-0.12496190009171661,0.17309629693438067,0.25788016977781686,0.7137505141147877,-0.04018803175203822,-0.0735009764923211,-0.029472441508817154,0.028043945058299786,0.0832719982424909,2.6015625
-0.058095478358703184,1.191302612228352,0.28738030194894976,-2.8535336418136343,-0.30976539854490676,-0.22065958559272278,0.30486565554409883,0.45491187350493023,1.2597435226132763,-0.07086981602607455,-0.12882129297786807,-0.05213310628488376,0.049511030671770775,0.1470792480665221,2.609375
0.015943426954731266,-0.29499824235825167,-0.07114607516993059,0.7057967859141175,0.07735421273388143,0.05376263711418092,-0.07381188967841436,-0.1119482087364704,-0.31188981749182415,0.017094652055766404,0.03150659772235659,0.01282613064888864,-0.012335735997688346,-0.03703555818315273,2.6171875
0.06860447930444437,-1.3515452524243257,-0.3260819142484593,3.2399055278697118,0.35229497169293594,0.24922978448088298,-0.34312892491790636,-0.5153434905038266,-1.4293491195581551,0.07971647026732702,0.14528187335970402,0.058974143647798294,-0.05629412206998341,-0.16787362573339729,2.625
0.004261800427318953,-0.0614378682708879,-0.014332421126514951,0.14900729068866708,0.016104060599818917,0.011077864906004944,-0.014312717525768782,-0.023293676250057866,-0.06403080454698243,0.0033588990077784214,0.005917835840314916,0.002475332840197279,-0.0025509388383714157,-0.007811946637399011,2.6328125
-0.04975428215643278,1.0213892353050855,0.24730017671571405,-2.4503512871448163,-0.2660226307926943,-0.18915562685671067,0.26166427443301155,0.39024907334297687,1.082080831764096,-0.060765593776817325,-0.11102131049026366,-0.0448330119010265,0.04255595008292435,0.1265423319496427,2.640625
-0.0038267769428242553,0.10064862920970971,0.024660477417152327,-0.247190440079221,-0.02624546150147085,-0.019162025434278165,0.026735323163056633,0.0390727491266189,0.10736060036141792,-0.00619436993961698,-0.011725932920622854,-0.004392101087539175,0.004195806078409198,0.012341757473772676,2.6484375
0.010475761273284551,-0.1845343177809756,-0.044784218533637885,0.4399926560413789,0.04822802164341074,0.033792843847937216,-0.046425462291248956,-0.07088017817529067,-0.1962080539109411,0.010809959114509618,0.01915272759054128,0.008181009253516894,-0.007761460871224598,-0.023300732750099078,2.65625
-0.06562164511962555,1.3425917762708621,0.3237132417174781,-3.2136338444553694,-0.34915868302324526,-0.24818981681406055,0.3425240368367044,0.5102786295604568,1.4180391105378254,-0.07953586366279498,-0.14540704547200936,-0.058632952320179725,0.05573742375411541,0.16569385434639966,2.6640625
-0.07292123438386211,1.4871852962583385,0.3587548040826223,-3.5599904489742227,-0.38668470426489154,-0.2752540348573479,0.3796100550118961,0.5654852850445504,1.5711935436614446,-0.0881260639934771,-0.1609072836915545,-0.06497611118578245,0.06174051313108715,0.18349585987257216,2.671875
0.03571984141341867,-0.6945519977371115,-0.1678716913257317,1.6638632561567182,0.1813698930705892,0.12745775246583335,-0.17592430415921365,-0.2653838449183274,-0.7360530455239866,0.04094935208456873,0.0744259126946773,0.030433302940365864,-0.02903967839635419,-0.08683347254149447,2.6796875
0.08586577783979424,-1.7009608609065532,-0.41064376764460475,4.0737519265527595,0.44326376451029526,0.3134631339275588,-0.43204815359950327,-0.6482056010298111,-1.8001902855696865,0.10043064466827925,0.1828929760375433,0.07435904290816843,-0.07086186613405109,-0.21131684614047896,2.6875
0.029412708010112344,-0.5674206544399959,-0.1366423939870553,1.3590595622697297,0.1477832354766332,0.10416386806059269,-0.1430880838410434,-0.21565114631781274,-0.6006931137046848,0.03328115842576868,0.060480535537846054,0.024716798145715903,-0.023627086883107398,-0.07057848958871142,2.6953125
0.018001262777876687,-0.3371587007937491,-0.08107283838026827,0.8075048612191212,0.0874301174976597,0.0615380785065391,-0.08457855908201156,-0.12775243939610212,-0.3568135338407132,0.019698554019405665,0.03559068865305809,0.014748720048035575,-0.014055063626166098,-0.04199392607615955,2.703125
0.06655718550540315,-1.30901789026479,-0.3161737551502788,3.1345122751526713,0.34036366665695733,0.24130594179064646,-0.3325739987784139,-0.4982080978375183,-1.3847843207226527,0.07729149523133848,0.14056658022523388,0.05738206267030429,-0.054538860134362405,-0.1625106763107185,2.7109375
0.03509396343169987,-0.6751388587401129,-0.1633111493664381,1.6155217883154545,0.1755176595243215,0.124778653891239,-0.17125135445212344,-0.2565113698496679,-0.7138462246369567,0.03973929137894058,0.07235370840128016,0.029597922462297276,-0.028126490900058383,-0.0838809056848876,2.71875
-0.05127704165663152,1.0575533835243693,0.25552415156714736,-2.53462517513052,-0.2755737133966348,-0.19529254981097816,0.2704790489119578,0.4041804104655809,1.1202363999302671,-0.06290686812261044,-0.11465026442719936,-0.04633099898108942,0.044053073110928126,0.13104444421222758,2.7265625
-0.04485522268234967,0.925518333355741,0.22413753317996152,-2.2179643365810757,-0.24140080908851344,-0.17159130509672418,0.23719881939543896,0.35400161850158884,0.9815773179122107,-0.055099212536302414,-0.10067353533928768,-0.04055567570940338,0.03854968948559393,0.11470665893893721,2.734375
0.01710524156769323,-0.31905637530248465,-0.07662045942141024,0.7635911371893416,0.0826934466244821,0.05809464004154653,-0.08002286122843395,-0.1208651908609198,-0.3358805492881577,0.01865396063808557,0.03355967159025134,0.01399762047558797,-0.013337360904707203,-0.03975263608370412,2.7421875
0.0011482533217857464,0.0035722383460507876,0.0005717564581347059,-0.00836427273712364,-0.0008857258850589688,-0.0008121213685537999,0.0015950762313379277,0.001011064430505393,0.002771829120774194,-0.00035838807903618456,-0.0009352827825983561,-6.508090547586325e-05,1.841299616886627e-05,-2.6054549792590275e-06,2.75
-0.044438546407174616,0.9202105734701546,0.22160009712468529,-2.203679799825043,-0.23926729523373186,-0.16969913744356244,0.23478883028386704,0.34968411400277943,0.9706847505281695,-0.05459838045138687,-0.099581407269387,-0.04019873858672884,0.03816603540271386,0.1135268805706422,2.7578125
-0.022267688288070714,0.4739637964766752,0.11410399502074992,-1.1362431432028344,-0.12302249943661235,-0.08776196481453515,0.12133447623239495,0.17991187703864356,0.49926252986338787,-0.028224804371387073,-0.05152125607509169,-0.02069566206599097,0.01963124408090872,0.058244714196526284,2.765625
-0.01275315069842118,0.2814963391104107,0.0678408307687125,-0.6768811306881319,-0.07265074794478653,-0.052678892805545594,0.07264389774166813,0.10706989153904667,0.2967933656030161,-0.016874673884515096,-0.030905687060290735,-0.012253049234877675,0.011660655511720323,0.034376155747691615,2.7734375
-0.07810498398201762,1.5928911314928338,0.3844276247754853,-3.8172181593912518,-0.4138639060671145,-0.2946865786976554,0.406786329788037,0.6067915104177163,1.6837520807135364,-0.09450130211356961,-0.17238405240392554,-0.0696346434929893,0.06626306225253792,0.1968562326205916,2.78125
-0.07790983283471041,1.5875550191379926,0.3831792186746525,-3.8016209799590017,-0.4128567557481016,-0.29355051087184825,0.40544091846122465,0.6045322707665933,1.6775820560101196,-0.09416394581128301,-0.17184739351203082,-0.06947315828236451,0.06603421757971346,0.19617677109775622,2.7890625
0.05772048189420399,-1.1374885597431141,-0.27454187045727324,2.7276374101544065,0.2961012078987317,0.20935554202561862,-0.28857460641757254,-0.4339256126650783,-1.2042069850729695,0.0671528513980791,0.12194053920123324,0.04968559250729689,-0.04740528063862745,-0.14156379607801925,2.796875
0.14774451917675008,-2.9452158037640364,-0.7108212975681291,7.057443978731332,0.7668099699146873,0.542976684091635,-0.7489722977272653,-1.122764652527381,-3.1150911136269377,0.1741618697761156,0.31681129214374076,0.12877230573571352,-0.12264634593738935,-0.36557621564480414,2.8046875
0.08012196322479408,-1.586316760252699,-0.3825768119480391,3.8001475939065243,0.4130940116414505,0.2922761770479278,-0.4028266807751664,-0.6045214766727327,-1.6768826783500614,0.09369417477797432,0.1702258497549924,0.06931705629289572,-0.06606191431182065,-0.19693011783036735,2.8125
0.0067714549221280515,-0.11299006788579424,-0.026654288452347085,0.2676560321752862,0.028916972187041017,0.020334966201719044,-0.02736199145733587,-0.041824752885320435,-0.11789316534451677,0.006385323706491528,0.0113421599061393,0.004818810600470953,-0.004717836837509506,-0.01397420893431371,2.8203125
0.030703037068561364,-0.5929980469170176,-0.14258321569151328,1.4158136873725318,0.15352336654542711,0.10880345805284254,-0.149420693406686,-0.2237811184370173,-0.6255145502537102,0.03471283313569699,0.06321203597710226,0.025837749795711223,-0.02469934456214316,-0.07340148010893384,2.828125
0.025561665493834984,-0.48768064382174875,-0.11762980488366681,1.1656713772399356,0.1268840743929911,0.08946541401317779,-0.12283958254985548,-0.18453555878599798,-0.5153295406767299,0.028532737542406445,0.05205552048857601,0.02135936936390291,-0.02033298308581909,-0.06071529736551625,2.8359375
-0.06995760177420886,1.432720412913274,0.3455442025597068,-3.4317093026971626,-0.37222815866332093,-0.26472110173166885,0.3657086966231956,0.5455641620778665,1.5142566802295458,-0.08499903163724683,-0.15490493493167984,-0.06253683018427725,0.059574441514934094,0.17698531490279634,2.84375
-0.10474273742932351,2.1319181023039255,0.514289993463143,-5.107048514818611,-0.5545646823210152,-0.39377745091170496,0.543479170832887,0.8116950493633501,2.2534694509538054,-0.12632751223337382,-0.23032066468113513,-0.0931126065793325,0.08863725208093981,0.26373461231146983,2.8515625
-0.009015139568752606,0.20930362658845086,0.050198791648379704,-0.5023813359766096,-0.05467127650510858,-0.03908796596615108,0.05389177453905742,0.07973274429202568,0.22051337110183486,-0.012554623796643617,-0.023039746243389055,-0.009029903052066888,0.008573194143855085,0.025583925448746995,2.859375
0.06311846861588209,-1.2394879814368631,-0.2996694438806716,2.970990731081679,0.32268424958618286,0.2285161290438689,-0.3149916173881509,-0.4725276627572907,-1.3119479324460737,0.07321402488701574,0.13317833739936868,0.054333718533355,-0.05172271050310846,-0.1541203355678076,2.8671875
0.01153808449352873,-0.20454549675921163,-0.049806708787188424,0.49427988397340006,0.053559733473738276,0.037921559296150376,-0.05138833153401205,-0.07868413125437423,-0.2177277805252077,0.011999621477547106,0.021504912343965416,0.008999007446332556,-0.008578703896311579,-0.025920645317354496,2.875
-0.050175741696456076,1.033184829393201,0.24940454948685703,-2.47441945823767,-0.26918355118471404,-0.19062712604279272,0.26400151106002634,0.39374281193792365,1.0920391252696782,-0.06131600166911058,-0.1121090783781653,-0.04523663569148107,0.04301355724221815,0.12780252432750336,2.8828125
-0.02155733452328059,0.457582503747565,0.11095669942107682,-1.1014483382155942,-0.1199163236389103,-0.08503942689645473,0.11769138161245883,0.17569382220789137,0.48456560450302716,-0.027377161808068037,-0.05014028031351808,-0.02008328880756321,0.01908477960705983,0.05680087380946459,2.890625
0.021817489264390293,-0.41335781087121576,-0.09912364403188217,0.9848678388341735,0.10722289875373688,0.07537405299980636,-0.10401386281696685,-0.15642241750084596,-0.43611823226162433,0.024132282703344606,0.04376736606675146,0.018044477134287,-0.017179406639060636,-0.05122109264897408,2.8984375
-0.0029695960139540178,0.08410695447238291,0.02074337643687549,-0.202051001237016,-0.021433263344856086,-0.0161365911958308,0.022529040498103302,0.03169201118954216,0.08938243434471842,-0.005218424157930412,-0.009840086678206418,-0.0037137687832279344,0.0034891883135067946,0.010092632190608701,2.90625
-0.03643931255351373,0.7548708882384128,0.18229830055381194,-1.8062232284072357,-0.19581193632006438,-0.13971003721645375,0.19323926657266044,0.2866087682703488,0.7979861919163022,-0.044829104749055146,-0.08210681331296998,-0.033061069601173124,0.03134824675367347,0.09296144679983194,2.9140625
-0.005234331103121096,0.1268797307266404,0.030500233053478654,-0.30265665605898107,-0.03258094587059612,-0.024112981027951393,0.03345739906888885,0.04786194564979444,0.13359805378326936,-0.007682553166227734,-0.014319749333724256,-0.005560051244195213,0.005153456070684564,0.01501513585337711,2.921875
0.040925900743971136,-0.8000562117443507,-0.19314105068832074,1.9168409820085592,0.2086594176995785,0.1466766300927218,-0.20235213573233574,-0.3047058178465705,-0.8462706100147984,0.047090098479465076,0.08564952788815336,0.03499295996849166,-0.033424207902042244,-0.09983040616428403,2.9296875
0.0334454849054075,-0.6483203546633004,-0.1563189801545288,1.552779571239643,0.16925329160645353,0.11891925800514601,-0.16372170075488482,-0.24680157882841947,-0.6854506702558396,0.03806960927482371,0.06928835338617503,0.02830373741420047,-0.027048340950587346,-0.08083582185457115,2.9375
0.009329266469025705,-0.16244122176742976,-0.03915916691768391,0.3879759391712627,0.0425889502261057,0.029647188425218466,-0.04032021350608974,-0.06181628248816523,-0.17231326756117657,0.009371045120460704,0.016977799694072454,0.007043869243899512,-0.006793277668198015,-0.0204767293469238,2.9453125
0.01640117887244295,-0.3041025261377772,-0.07373769119109495,0.7275725746541815,0.07911106650101096,0.05583795538626449,-0.07666781589355934,-0.11583259948504544,-0.32339678903460556,0.017843321051920654,0.03234516664866285,0.01332908146124567,-0.01272584285991534,-0.03811109934137075,2.953125
0.01153618530801001,-0.20653055392505518,-0.05034061415121323,0.49519280072968525,0.05361159002751237,0.03772211535423864,-0.05173179131391352,-0.07843715628177834,-0.2203674738993397,0.012080106870982191,0.02177373425557719,0.00912402636309269,-0.008691259053350118,-0.02610204016248337,2.9609375
-0.024834867444363473,0.5247420213261172,0.12643440340862613,-1.2573325429878652,-0.13669564821850352,-0.09713614054029412,0.13471541639264376,0.20070539375950044,0.5542691990184064,-0.031274356456135737,-0.05720816956004056,-0.022902907209432083,0.021791347795912266,0.06471221043587916,2.96875
-0.010580048536395787,0.23971218552424692,0.05799942931580014,-0.5776867806056324,-0.06279342136867763,-0.044406718993176976,0.06210679121426048,0.09254054777511479,0.25407874463068947,-0.014461251365245264,-0.026517030456971666,-0.010474665935906957,0.009976016993087712,0.029685396596064745,2.9765625
0.06897314088417941,-1.3577486851525182,-0.32742534374883586,3.248623751550247,0.35257494796249905,0.25030499288514046,-0.34493729655192334,-0.516423143246141,-1.4351259983865747,0.0801214509050601,0.14573798498727364,0.059449389295507485,-0.05654313120325252,-0.16824660359367702,2.984375
0.08093936269831153,-1.5982311388566255,-0.3855726942014988,3.829465195258635,0.4154080082219845,0.2946216437634507,-0.4063237592103494,-0.6091218087522273,-1.6899718904361862,0.09443217963280152,0.1716245341924172,0.07002679080850595,-0.06660311868994624,-0.19831026929205478,2.9921875
-0.026071977719283178,0.5515667385258102,0.1330110151073349,-1.3159636541330053,-0.14320307766049006,-0.10191435706141422,0.14118293560522188,0.2091442923799683,0.5828000322529726,-0.032781924021285117,-0.060153489698799814,-0.024035318805887013,0.02288964483971439,0.06782496046202958,3.0
-0.10391623127824726,2.1150979778032823,0.5100911649374371,-5.063047030680956,-0.5496305231733554,-0.39036175032504483,0.539433282110981,0.8050773610805506,2.2356073848151574,-0.12536134378818933,-0.2285550547951842,-0.09249900304523465,0.08799186822154702,0.26150965217840577,3.0078125
-0.0531302822520796,1.0931285154532082,0.26351085730244217,-2.6198434710232,-0.28407165696213316,-0.20212889669985074,0.27926060194428476,0.4164124896337566,1.154846081518041,-0.06491959723813757,-0.11825529235014606,-0.04783938040699547,0.045410875815229186,0.13498371700295753,3.015625
0.017515199541412212,-0.3286858804797004,-0.07905783721807805,0.7841437922461727,0.0855300671648862,0.059769321685317484,-0.08256739494899844,-0.12499037784598838,-0.34741416941167547,0.019196208954076532,0.03483220306095723,0.014316493092041941,-0.01379812546061571,-0.041031178726949946,3.0234375
0.0018447900492518958,-0.015966516159633314,-0.0028903741659663117,0.03576779964247471,0.004394363437948378,0.0019110227935164351,-0.002478183531936071,-0.00573137245563809,-0.014737920839192549,0.0006275179222224403,0.0007713049259115918,0.0005622155041949312,-0.0006845131586548909,-0.0021523058226602366,3.03125
-0.04349261731829753,0.8939679179596168,0.2168827401272749,-2.1448006721758777,-0.23214720353313453,-0.1659193068407676,0.22948626752921414,0.3412906262512951,0.948035863797611,-0.05327231056322346,-0.09740007379300113,-0.039283415311219774,0.03730896312547781,0.11061888080866313,3.0390625
-0.0435393400274121,0.8958698090122659,0.21677093759124838,-2.1506469691175623,-0.23297497658878719,-0.1661622703378013,0.22958529816741755,0.3419677311128586,0.9480300749189101,-0.05331789958346501,-0.09733949620183606,-0.039274665437637905,0.0373448408824048,0.11071427939479503,3.046875
-0.016238902664613582,0.3501188957025026,0.08425383722390105,-0.8406752159767205,-0.09132293925027984,-0.06519978156373042,0.08995285152735778,0.13328268440001545,0.36835060803165554,-0.02087289117526762,-0.03827068376973112,-0.015242923003793438,0.014481284064156396,0.042871765702545174,3.0546875
0.012933664526625043,-0.23374319964071252,-0.0569471860204248,0.5625299143908828,0.06068065583452602,0.042910085596773846,-0.058847945209307514,-0.08944028090348735,-0.24927598063549786,0.013732688200473837,0.024611626032081637,0.010335624627828404,-0.009859827702692467,-0.029521818278172608,3.0625
0.04839414828739392,-0.9461650973580812,-0.2285779457152848,2.269592706687186,0.2460901168540238,0.17448047687987364,-0.23989465298376092,-0.3600697091786877,-1.001060773781845,0.05581188135837997,0.1012697501483986,0.041402904074528506,-0.03943946104262263,-0.1175912544187548,3.0703125
0.07211056757984133,-1.422903827010079,-0.3435054946122835,3.4086739226558707,0.36989998838111704,0.2622896755720688,-0.36133789123511784,-0.5413900430706761,-1.5052189661410889,0.08399070075058301,0.15279105508328106,0.062229926354741366,-0.05928220215702497,-0.1765505522461056,3.078125
0.0687790433625396,-1.3542097838027098,-0.3274576302642278,3.2437781762584423,0.3521302382481824,0.2496322519236383,-0.3444662377957662,-0.5163322091453306,-1.434763121239454,0.08003384071226903,0.14571978938160163,0.05935956119614628,-0.05651808159450945,-0.16832115366293546,3.0859375
0.061150080426069314,-1.198966384653222,-0.2905059362856773,2.8743862334805064,0.3123382280820062,0.22120874016223308,-0.30516452548593787,-0.4579892753652176,-1.2714360889112644,0.07092301500583044,0.12911389310505964,0.0526874820447718,-0.05008331046182703,-0.14944105409184205,3.09375
0.049703625697493536,-0.9695171096550054,-0.23482317470137684,2.3246775978415504,0.2529812964966856,0.17884299522652222,-0.24615484305363833,-0.3696729144752884,-1.026568671861717,0.05723678054589059,0.10417952607150369,0.04259381570429633,-0.040452345345491345,-0.12092645221603504,3.1015625
0.0006726357584922989,0.013484507079203565,0.0031951424210634118,-0.03363606416813847,-0.0030179693078612488,-0.002820861756326962,0.00470310530620731,0.0059527741844448145,0.015346623050360216,-0.0010924427136009662,-0.0020070219705601872,-0.0005547775468886865,0.0005234989027265271,0.0012950134639567862,3.109375
-0.06610047068663273,1.353355868848298,0.32699733683229515,-3.245680145289967,-0.35189800006948324,-0.25016006357186443,0.3458171208370399,0.5161795939754955,1.4323487670045754,-0.08040279109568481,-0.14651829392986196,-0.05926208010757904,0.056292411471021944,0.1675724806983659,3.1171875
-0.0817375535814329,1.6658684512412394,0.4025360985217116,-3.9932886369525495,-0.4332603953806026,-0.30780805215361134,0.42530383823549867,0.6346409101239777,1.762109882820391,-0.09884454184567815,-0.18034049863742277,-0.07297931994709997,0.06932012938755412,0.2062909965518916,3.125
-0.04120394290611328,0.8494697340645747,0.20579446667752727,-2.035471318780195,-0.22105697439909758,-0.15741426392000013,0.2178221314157306,0.3240150212472253,0.8992175902217506,-0.050573197025923174,-0.09259358570289596,-0.037325462673411774,0.035390312257406666,0.10514784441583505,3.1328125
-0.00957575595917732,0.21307389884932434,0.05258641834979579,-0.5101330489909407,-0.05585917492607133,-0.04034232970682551,0.056189836977189364,0.08229932314705293,0.22721521424156488,-0.013014459875413614,-0.02410822486780099,-0.009542824086020306,0.008916487515329386,0.026404030027724807,3.140625
-0.011739842864367531,0.2575565468322121,0.06330139717717123,-0.6173357475946093,-0.06750251745752797,-0.048518953800848426,0.067357093983269,0.09912570858836853,0.27436318904736406,-0.015644935898615122,-0.02874121608034402,-0.011475382268078618,0.01073991159081346,0.031928763894959036,3.1484375
-0.012338746206770307,0.271831383243981,0.0661385176122947,-0.6521624109724754,-0.07087636763569784,-0.05074877441708511,0.07037409468217931,0.10373211465197292,0.2883522211363776,-0.016340885952603842,-0.030017587472475744,-0.011970286594760024,0.0112940506821009,0.033489126814423724,3.15625
-0.00311287825349011,0.0890039114929899,0.021124068742880527,-0.21307543878783292,-0.022990218270742015,-0.01666676446111044,0.023201663722002556,0.03327172732817009,0.09311939104306341,-0.005341533066156796,-0.010113793467711251,-0.0037672280523074093,0.0036248360861838016,0.010495323905757609,3.1640625
-0.015490608390982553,0.33891128394054787,0.08092689412774887,-0.8099663117380476,-0.08798888992732531,-0.06272126883232355,0.08658302245517177,0.1281164901819033,0.35597618014962423,-0.020059849608831067,-0.03697898936614986,-0.014580675675831538,0.013970648171588787,0.04125212071352516,3.171875
-0.03728727154428447,0.7752596397380738,0.18658614898608789,-1.8565895581884553,-0.201669285300908,-0.14341952839855268,0.1979588831407344,0.2947339632000171,0.8178969000431684,-0.0459691808579269,-0.0840982981452059,-0.03375570022330582,0.03214898624673867,0.09546351134239697,3.1796875
