AF3,AF4,F3,F4,F7,F8,FC5,FC6,O1,O2,P7,P8,T7,T8,time
0.07525839257516947,-1.4869905740398817,-0.35865836285824493,3.5627323869929843,0.38677990604342305,0.273803297986414,-0.37787526918380976,-0.5670425942184186,-1.5717965502328017,0.08790345791257287,0.15947701544070314,0.06512792490434001,-0.062008837784107554,-0.18462104718721803,0.0
0.009067323864640719,-0.15760338033749274,-0.037841141326886374,0.38004932020470006,0.04111189087965009,0.028452380588184566,-0.03911315209908049,-0.06047323465295042,-0.16616058105139883,0.009155911961195294,0.0161062918110626,0.006946700030537262,-0.00666486256496978,-0.019955371090124623,0.0078125
-0.031012245823501237,0.6484750083793119,0.1564169180760607,-1.5489566672619992,-0.1684314617126295,-0.12012636032074367,0.16622827070844132,0.24677078268757718,0.6853638689768642,-0.03858982516396965,-0.07067624698341894,-0.028344724455976987,0.026908181655249937,0.07985212741675843,0.015625
-0.006830563975887336,0.16438274406504452,0.038989338491876656,-0.3872291749118821,-0.0423248750619922,-0.030350479902095554,0.042763489819076836,0.06215497244871101,0.1720322007931574,-0.009912530594402261,-0.018172999318362595,-0.007182291078831751,0.0067128968741183145,0.01968272275600164,0.0234375
-0.02399604268033044,0.5095633271385236,0.12204851642340896,-1.2153251003386576,-0.13233476050137827,-0.09381555517357397,0.13059146401363406,0.1939027102991888,0.5364944136160043,-0.03035318353184996,-0.05520408389608705,-0.022301607951510732,0.02102929082585224,0.0624556872086079,0.03125
-0.12115047101020016,2.458607792363731,0.5931572329774664,-5.8897904638186,-0.6400178685211266,-0.45396935900169044,0.6274346699093148,0.9378313147192672,2.598999601874243,-0.14586439889536962,-0.26549451909583616,-0.107655989565627,0.10222821202997492,0.3043638363597858,0.0390625
-0.16823024415927856,3.400335288903521,0.8216073676668123,-8.150697332869221,-0.8853130288710027,-0.6285342427360064,0.8680836117949982,1.2981096477759109,3.597403087519946,-0.20180103408914976,-0.36733223277427157,-0.14900704649672547,0.1415978193012096,0.42149339052957324,0.046875
-0.08074398539843611,1.641217723587175,0.3975019740939518,-3.9372978446331177,-0.42717147011216083,-0.30413893819857685,0.4203842940434296,0.6278534024062817,1.7384963670143494,-0.09771270478232488,-0.17781830078402655,-0.07211675075779364,0.06846417927094152,0.2035165978070606,0.0546875
0.04617231028251088,-0.9061220383726197,-0.21782934485265015,2.166677608957161,0.23616949629106937,0.16631960791748363,-0.22896583438682072,-0.34420433318067417,-0.9562402515367593,0.053236980016168875,0.09688318521476326,0.03945527481628096,-0.03764327869183229,-0.11247851386141407,0.0625
0.10699909865496653,-2.1244981074833973,-0.5125937826268181,5.086510681517269,0.5531459003142121,0.3915345736075384,-0.5401809181874077,-0.8098846750974366,-2.2465841095062946,0.12557662892161375,0.22832062667980746,0.09298847900601835,-0.08847664987057374,-0.26369958411769245,0.0703125
0.11205053772568832,-2.2242514871211387,-0.5370073026885495,5.326554542157876,0.5787404846470207,0.41008211264348327,-0.5661224777645849,-0.8485025471334556,-2.353360209993497,0.1316339885333206,0.23906777213917477,0.09750902777499454,-0.09267655959362422,-0.2761016848042737,0.078125
0.08985907630495228,-1.7785207633392315,-0.4296693162410537,4.260640502037136,0.4626993037933131,0.3279302685167186,-0.4527612869337078,-0.6788928936915379,-1.8827663009687503,0.10532829979459456,0.19102412073239192,0.07805516456328708,-0.07413447416627154,-0.22093660468183862,0.0859375
0.0396223307343335,-0.7688074249199152,-0.18630282643902438,1.8432187139572658,0.20020668328799512,0.1417340581503635,-0.19571792113660566,-0.29443092117452596,-0.8158535185959885,0.0455671712323287,0.08231834357210534,0.03388139899410866,-0.032133329830301975,-0.0959534805732237,0.09375
-0.00011754822895942461,0.031333930624446296,0.0067571737376879186,-0.07338988127616698,-0.00782790921183424,-0.005844681366390552,0.008046310284176933,0.010431095437084911,0.030084122217206022,-0.001876587601986876,-0.003728934479669724,-0.001166948795412799,0.0011631300505096566,0.0031994087085264063,0.1015625
0.00688076479417837,-0.108436488927474,-0.026605446256765863,0.26145974359143637,0.02853115123125949,0.01995318743471461,-0.027199900828484436,-0.042217242658853536,-0.11636370592950297,0.006267166246627423,0.011418173146383232,0.004836363516218512,-0.004620356325201953,-0.01394730490261984,0.109375
0.014289502628451585,-0.25915005097800603,-0.06266578975413555,0.6228225323158586,0.06760979831483559,0.04770082248121619,-0.06498800846868291,-0.09856818483967456,-0.27391836761604027,0.015092989899618495,0.02755802529948102,0.01131919061044146,-0.010864327516766914,-0.03249553067422666,0.1171875
-0.017355717599298975,0.3737993761867897,0.09004239206246559,-0.8942135677968107,-0.09733066215925104,-0.0692182512333219,0.09659376231040927,0.1435709751086251,0.39585409851728776,-0.022404913747222137,-0.040819266978963535,-0.01639397569710883,0.015485254438148181,0.04594605534735473,0.125
-0.03980724997787854,0.8234892191741976,0.1986494693329857,-1.9743309327731884,-0.2144771209751043,-0.15231860291143404,0.21120820538128238,0.31537437071765506,0.871097881421776,-0.04905297801490673,-0.08939223601346379,-0.03606292381650437,0.034235598763354386,0.10176307766398911,0.1328125
-0.025465316680805174,0.5345356173766647,0.12959985582191103,-1.2855338289687948,-0.13913523089668114,-0.09919600245710587,0.1378062485976714,0.20539178152578408,0.5667745405752407,-0.032031322548527086,-0.05839376982255959,-0.023509250913785373,0.022287804838633143,0.06622523713788507,0.140625
-0.021314832798344757,0.44945439155311534,0.10975225087578819,-1.0823503101796483,-0.11683589482337232,-0.08384873583596003,0.1164138301908884,0.17285262963015166,0.4788055134536742,-0.02704944979426292,-0.04941920326524622,-0.019891707865342605,0.018785883338246195,0.05582342274575565,0.1484375
-0.030844334122530247,0.6404987660195396,0.15553477292364176,-1.5363137925685935,-0.16666104287813904,-0.119295027478452,0.16477744596042118,0.24472154123057405,0.6798824869457298,-0.03824655184956848,-0.0700168414096124,-0.0281787451459902,0.026662384023299977,0.07920923448515353,0.15625
-0.007019990175981094,0.1646843495625837,0.03969633819322008,-0.3917893180583669,-0.04295551800676703,-0.031229879015975133,0.042679897177911326,0.06168723168646659,0.17263700182019767,-0.009871917286362941,-0.018489757420955363,-0.00716389001594824,0.0067397087546933535,0.019800416969139475,0.1640625
0.01491076623542824,-0.27317521975003334,-0.06626093043766007,0.6574907537986088,0.07114067369574655,0.04990163367175166,-0.06931635524667236,-0.10603865338901555,-0.2925429763134807,0.016098158241061557,0.028854641745459677,0.012050150670420711,-0.011505840054538396,-0.03449663061355976,0.171875
-0.03537482907791025,0.7361677793283742,0.17794633984933125,-1.7639556039964117,-0.19137287430288277,-0.13641056498425755,0.18827690956436144,0.27969054062392185,0.777139436544517,-0.043798944930684654,-0.08004966025748071,-0.0322239817057677,0.030582379111503053,0.0909144835874456,0.1796875
-0.0956489535403105,1.945466783059021,0.4698665254206546,-4.6616937691042315,-0.5061062638724201,-0.35963729064061595,0.4968536427147848,0.7420236362507121,2.058395942436657,-0.11545761075175943,-0.21043852541695288,-0.08514661874997882,0.08094671570010746,0.24082243420969837,0.1875
-0.04690052975564251,0.9680064534831421,0.23295173449602652,-2.316195334981582,-0.25166820820431124,-0.17886671540685292,0.24764430799749437,0.36948027846607717,1.0233402056433927,-0.05746133865403809,-0.10483146067002985,-0.042210562791408876,0.040191231770981516,0.11928555112182433,0.1953125
0.07219789783958365,-1.4217782776847303,-0.34448560653126914,3.410269996082038,0.37038031824888445,0.26253324582892024,-0.3615397694091764,-0.5420207372839896,-1.5063629818004465,0.0841142537620781,0.15299198839901484,0.06244197016751423,-0.05932878636207567,-0.17707925745801026,0.203125
0.11280008994214066,-2.238349574811667,-0.5409075390152067,5.361368921978911,0.5826338233469697,0.41301604995791097,-0.5694607871893118,-0.8529998391443886,-2.36950248350429,0.13236387167008662,0.24091486889886043,0.09804296467553818,-0.09325626519906957,-0.277911759238446,0.2109375
0.04641015033583892,-0.9077431644160707,-0.21871852918146015,2.1689042854021583,0.2358906207205873,0.16705005186808258,-0.23018510638265646,-0.34526414758427154,-0.9601431988270406,0.05347513035067679,0.09721199775705404,0.03966443782347053,-0.03777409579674736,-0.11257718855690026,0.21875
-0.01176969998481745,0.26030241708637397,0.06352400212271832,-0.627498549117712,-0.06803547948807775,-0.04850746011760683,0.06745916968759608,0.09966876451953569,0.2763532480396958,-0.015668115504323902,-0.02886983911949006,-0.011485156148050688,0.010881171824032976,0.03221809987903075,0.2265625
0.010549193554743336,-0.18649333427099532,-0.04450977000172876,0.44659663879676487,0.048736662535384605,0.03410621949150706,-0.046324616404243624,-0.07101795716759143,-0.19585318817623543,0.010803945711138454,0.01930480397122854,0.008065723173778306,-0.0077438344577518015,-0.023288605333973412,0.234375
0.05906704852796231,-1.160405898046056,-0.2798251537488951,2.779092514016426,0.30229850700207583,0.21374007875580572,-0.2943663840460613,-0.4418266442440697,-1.225963800649469,0.06842086843741924,0.12446254911734828,0.05068250758333159,-0.04834233019664237,-0.14402192457364446,0.2421875
0.05646552873742875,-1.1087475884684521,-0.26764971897708895,2.653039362501101,0.2883925569019181,0.2041278179243207,-0.28137391916769544,-0.4217465005838325,-1.1725419969134245,0.06536135086534012,0.1190764500482236,0.04847963520116407,-0.04624547879171416,-0.13765025861069982,0.25
0.005384164482890451,-0.08332400406849694,-0.0202726665391835,0.19725393330895236,0.021193571635598225,0.015066374961178818,-0.020354332522337707,-0.03117673134627414,-0.08930416685310352,0.004712062660227111,0.00848185429073873,0.0036720494462395953,-0.003551766701328974,-0.010622999821503446,0.2578125
-0.0347499001356724,0.7224226274984096,0.1744371300698498,-1.7304530093908783,-0.18825626222661332,-0.13362041466016256,0.18506246235977672,0.27560820696002725,0.7634052172584683,-0.042979480573392,-0.0786016157190563,-0.03159665142116941,0.030034563290285744,0.08921384241413723,0.265625
-0.03430371083603718,0.7135669928472389,0.1723324846538685,-1.7069108661869403,-0.18536765441123787,-0.1323463845697031,0.18299657573202432,0.2718853918359497,0.754926120866414,-0.04247286647120404,-0.07765098644205853,-0.031200565731790798,0.029626601415494287,0.08793113829817792,0.2734375
-0.02273078275882774,0.48170252231494254,0.11596638330789304,-1.1495116507845637,-0.12463908233775887,-0.08978844313142684,0.12372127092520424,0.1827429627819777,0.5088356885875012,-0.028697900836985573,-0.05244894800272447,-0.02096513431152333,0.019870343428570095,0.05885891450469841,0.28125
-0.037432660458558545,0.7763430857478996,0.1871967837152271,-1.856618603773494,-0.20149971324197652,-0.14401142018494278,0.19865900019834368,0.2949082496394463,0.8199816313648582,-0.04611456204154277,-0.08427884515984488,-0.033860523732224444,0.032171558357910655,0.09545785323230946,0.2890625
-0.07158708592048248,1.4604223952239965,0.3532335994691438,-3.5011159123878004,-0.38001099583287906,-0.2701110250004979,0.3732910596515954,0.5568365072325613,1.5453856348830253,-0.08671300748979824,-0.15836684165548617,-0.06396096791012577,0.060842839330500144,0.1808392395328291,0.296875
-0.08180791917211654,1.666232347980717,0.4031226494426794,-3.9974692224143573,-0.4336766377797418,-0.30811467280705046,0.42576817313826454,0.6358350697020498,1.7637020279470428,-0.09895523847429127,-0.18054720942836092,-0.073027225121027,0.06947351456349488,0.20657396553577748,0.3046875
-0.03972647404982022,0.824903919810251,0.19882301411511094,-1.977970699577742,-0.21447545092021794,-0.15274822498712928,0.21062788257146986,0.3137347995133684,0.8705349254917306,-0.04898629390080611,-0.08940970718728795,-0.036009214834961244,0.034259821337384526,0.10177053857937533,0.3125
0.028143053363188418,-0.5362379841208971,-0.13064440625326104,1.2872990072287622,0.13966411003165843,0.09867150686954106,-0.13672845941252484,-0.20618913286211607,-0.571654513658862,0.03178523929166622,0.057489845873313204,0.023724674529455158,-0.022556711530495637,-0.06730094781483978,0.3203125
0.06520699948330637,-1.2829117538181618,-0.3102223752834451,3.074714225746301,0.33366649962198636,0.23658698078258825,-0.32640247452538246,-0.48970010210439163,-1.358931940080302,0.07593190241420864,0.13766278674101806,0.056277211565998554,-0.05353700116673811,-0.15948738121358466,0.328125
0.05769105536729442,-1.1332969924062877,-0.27328771945983493,2.7142667230601005,0.2949660752136958,0.20912690560022396,-0.2874360769143643,-0.43119455728815054,-1.1973671234278942,0.06685371294296423,0.12140696487895059,0.0495132047824216,-0.04714806320808082,-0.14059486378551814,0.3359375
0.04761368425107992,-0.9287797867936664,-0.22423082421902438,2.225833418847676,0.24216683936389924,0.17162325243109505,-0.23515298914023094,-0.35291847586478486,-0.9814645372981825,0.05461040734064736,0.09969950075530173,0.040512791875082305,-0.038641408951121524,-0.115401201358928,0.34375
0.052857707221552926,-1.0341491053342922,-0.24999234573812062,2.477849477530875,0.2691812180099411,0.19087273834125337,-0.26195793668822553,-0.39250116190702866,-1.0939401578746097,0.06081131616084895,0.11122642206100254,0.045150850351464274,-0.04309175365783189,-0.1285265946045502,0.3515625
0.03416856624583873,-0.6640198028871572,-0.15988479243408518,1.586438875701193,0.17209400952398804,0.12175795856876635,-0.16715761289944278,-0.2501518943414351,-0.7004595929741597,0.03885677468855488,0.07095068512652154,0.028900742629649555,-0.027637812420566135,-0.08232834917604687,0.359375
-0.0197425293358194,0.41430842983022453,0.10127992013741591,-0.9993630126739897,-0.10844257643935426,-0.0778355050497145,0.107849794748163,0.1607578573374792,0.4420429883252937,-0.02498331080168987,-0.04570723302760519,-0.018341580631870698,0.01732596575712661,0.051483532084528945,0.3671875
-0.04813453864944151,0.9860684896262801,0.23913379497113707,-2.366658066980096,-0.2566946956223093,-0.18308559742416705,0.252909171764536,0.3767700066012816,1.0452250268515861,-0.05871181185562889,-0.10731486459798611,-0.04330002959296702,0.04108924454659361,0.12213497011860014,0.375
-0.013246332451192817,0.2901645432831116,0.07033971904795243,-0.6962521181477058,-0.0756079489223427,-0.05405988020106616,0.0746055165711523,0.10968311882308873,0.30599509642854295,-0.017323475320714966,-0.03198714927732607,-0.012696892211637402,0.01199206498139841,0.035635118605638,0.3828125
0.03211292490108359,-0.6171542241308541,-0.1494312879851029,1.4804587105766949,0.16052496584950263,0.11363033440136773,-0.15724955532618864,-0.23733413353323143,-0.6558004644290996,0.03655810972096835,0.06607874770684469,0.02718231472553597,-0.025892579135153544,-0.07709792212187111,0.390625
0.02852716658417966,-0.5435072194393117,-0.13215237949489095,1.3078337883071018,0.14219047949329572,0.10010412658648588,-0.1387166626980496,-0.21027840177397067,-0.578967690931104,0.032288179340455775,0.05821347794688002,0.024089995040161103,-0.022856141011139662,-0.06834704907067286,0.3984375
-0.002288095647203812,0.07512775750563283,0.01720464904367602,-0.17372961142787424,-0.018196671613710608,-0.013855213384251573,0.019132645023620574,0.02573387978648114,0.07577445985730435,-0.0043749908659698284,-0.008602479818573502,-0.0029986532621966854,0.0029750247104325758,0.008311540615435178,0.40625
-0.008564448710135128,0.19944719552780196,0.0477821603766613,-0.47645559197263787,-0.05122962350029298,-0.03674233297912546,0.05139174840810123,0.0751796912602291,0.20971204813343491,-0.01189011551245474,-0.022184664132599546,-0.008585243237152134,0.008258263924320297,0.0242161792628174,0.4140625
0.0033968091203026,-0.04230996243567542,-0.010149546816947528,0.09831877892642994,0.010700201670546675,0.0074615951140096694,-0.009721977526134457,-0.015085302358636695,-0.043763994799210504,0.0022644090670265607,0.003903465897514864,0.0018813974801701464,-0.001789487298944833,-0.0054144076589727,0.421875
-0.01196872495450761,0.2657461627094304,0.06418119952832077,-0.6396897665556606,-0.06952008440770283,-0.04989002923739882,0.06894614639887166,0.10258934923875185,0.2820001768489709,-0.01607137126692595,-0.029116760251916056,-0.01164077292091053,0.010991690308557811,0.03262972591527464,0.4296875
-0.05688873377652611,1.1674579610076858,0.2818877414907182,-2.798844811220889,-0.30373026847445617,-0.21628075522864926,0.29887561834790616,0.4461970703669564,1.2350611081524134,-0.06952371700044074,-0.12630502654169887,-0.05118119910241469,0.04856947148508464,0.14433684096783977,0.4375
-0.08059404847728047,1.6432148575286696,0.3969657848539094,-3.9380798341132643,-0.42740560594051447,-0.30359922267887685,0.4202838624986016,0.6278352270002413,1.7387084308430387,-0.09769601705931413,-0.17778839397359048,-0.0720832001742552,0.06847243189436238,0.2035138532730115,0.4453125
-0.05622789454095996,1.1539042532211286,0.2788232156897043,-2.7640188243846335,-0.30018405630016215,-0.21306927995581895,0.2954285456354219,0.44083507130702837,1.2212953966013678,-0.06861287509479104,-0.1251711067266606,-0.050614043259012136,0.04809214361929225,0.14285593160686214,0.453125
-0.01359184052021825,0.2965944644689176,0.0718008831433552,-0.7091045094004685,-0.07728713494406592,-0.05527059120221131,0.07663668638736056,0.11291108811558062,0.3136017512258242,-0.017734744014990533,-0.03277344129376448,-0.012988172045005662,0.01229446428799422,0.036386289826413336,0.4609375
0.023450113129867355,-0.44931589005969785,-0.10790164654882868,1.0757430549986053,0.11649816965936252,0.0819031871594036,-0.11334052991782002,-0.1714929333794327,-0.47541151095650686,0.02640081157843703,0.04755729823767347,0.019626747905115798,-0.018792982044327066,-0.055982800385353956,0.46875
0.06846634971061274,-1.3530723865471546,-0.3258534847467553,3.239413712038928,0.3516406512149647,0.24887534676187797,-0.3432763384816412,-0.5151503490175059,-1.4302569785840287,0.0798155562516409,0.14495065749478955,0.0590983772959026,-0.05636683788846305,-0.1677953226791694,0.4765625
0.10934646969520084,-2.1711482463074496,-0.5239422826436683,5.20077355420386,0.5649834618970385,0.40040944537232837,-0.5518140642154579,-0.826896747544867,-2.2956863604847286,0.1282700562787387,0.23337595814449594,0.09496839403926906,-0.09043186986771799,-0.2693825503458092,0.484375
0.09422071825770884,-1.8660948953401346,-0.45101614207573837,4.469179631001444,0.4858713155269326,0.3442138554167582,-0.47454566963253664,-0.7110993437836975,-1.9746860882445194,0.11029509315277645,0.2008343830302837,0.08175464536257379,-0.07780200981696374,-0.23188811410879742,0.4921875
0.025931830248512026,-0.4959609259060766,-0.12017411972558084,1.1822501633975657,0.12900406460797062,0.0910650147755258,-0.12560154053252434,-0.18854078895283313,-0.5262483310341635,0.029168273830468185,0.05322269124588283,0.021796455559896104,-0.020757391299064093,-0.06194502874410752,0.5
-0.021668881922380822,0.46019884198109734,0.1110759053105763,-1.1090201711481589,-0.11999700598906539,-0.08534772482645835,0.11819536955957435,0.17643719321504014,0.4859054310855368,-0.027501390398013918,-0.0500538307718985,-0.02012701368788639,0.01913562437485969,0.05687736991673822,0.5078125
-0.023707454073013792,0.5036151451163072,0.12154172538061955,-1.2068529356218618,-0.1308189702814331,-0.09301644794734329,0.12920711589516995,0.19218423225256814,0.5323634887140848,-0.03002873540339461,-0.0549658870748397,-0.022019259915214626,0.020973998768830857,0.06219674648190178,0.515625
-0.030475081612417347,0.6403206732468578,0.15429563743268582,-1.5290266316486452,-0.16589658189414314,-0.11827201727364886,0.16366184141922374,0.24264167932417083,0.6763566709951736,-0.03799016277305891,-0.06976373008818827,-0.02792984952820694,0.026591988602678567,0.07881610339854739,0.5234375
-0.047179595182720656,0.9742521950738721,0.23483355510732015,-2.328965856101115,-0.2528791527341103,-0.18024189679318398,0.248519634126139,0.3692552864285423,1.0289221048263086,-0.05768403958010446,-0.10565041384982563,-0.042515901867051446,0.04041972532231222,0.12003581034474932,0.53125
-0.02544942310021968,0.5372775478829501,0.12927881813950487,-1.28286895841952,-0.139519389005415,-0.09965293286042734,0.1373833136518827,0.20345451783253488,0.5668673861080747,-0.03184673831828936,-0.05841967562136273,-0.02339719581911483,0.022231303397637896,0.06587888970995802,0.5390625
0.009714718665083793,-0.16850181092947925,-0.04109197332150855,0.40821797046862135,0.0439321437654776,0.030752641679727216,-0.04202937768260946,-0.06445709074274121,-0.17889127733159543,0.009838789601268537,0.017605985164124236,0.007473815232580172,-0.00710272161787515,-0.02152048747327156,0.546875
-0.011354740157790106,0.25309928292477873,0.06125531186937593,-0.6045652173311228,-0.06590473307424805,-0.04720496650781436,0.06575596245375215,0.09690612834666713,0.2682529677450136,-0.015253046336492883,-0.028075015861379348,-0.011076835782501394,0.01049526852160351,0.031004358140155234,0.5546875
-0.04652083921793573,0.9565464022181643,0.23194583050980666,-2.2949104866747314,-0.24902049641276555,-0.17731959972247283,0.24526164527181005,0.36531796862441107,1.0134996307119313,-0.05701768482280019,-0.10405174414246719,-0.04203242864143308,0.03982204337961548,0.11856161948542351,0.5625
-0.0034139726553184596,0.09021268151862462,0.022934703819381074,-0.22084135495183815,-0.023473651764315335,-0.01737747724786586,0.024670656053295967,0.03523310948342968,0.09708750421399731,-0.005753539723367707,-0.010533939140050876,-0.004180911480071645,0.003776926992847933,0.011229709201108886,0.5703125
0.0620720654117253,-1.223269333823457,-0.2949985072078114,2.928204741467213,0.3183851727507717,0.22526256799748923,-0.31011975737929764,-0.46531101211191483,-1.2939163156838158,0.07208022087547958,0.1313025164974721,0.05343817499222511,-0.05093581328937425,-0.15190900058039228,0.578125
0.02579813535027337,-0.4934338351250081,-0.11955019504847775,1.1798564447177373,0.1282412755718842,0.09054207742759987,-0.12452476873158183,-0.18698136560037878,-0.5234392207418859,0.028942795327664847,0.052697399752364364,0.021672093211580232,-0.02060280670816639,-0.06166288621234792,0.5859375
-0.06026693830802605,1.2354507475434142,0.2979562532213793,-2.96430896766818,-0.3218609072101523,-0.22861912382446803,0.31568252845182165,0.47194194212080975,1.305668773784843,-0.07338847800614616,-0.13381358348542655,-0.053962357845099874,0.051373492443754915,0.15280611257272314,0.59375
-0.04386401358445042,0.9067915260852873,0.21900665643625125,-2.176137838113603,-0.23614899620921556,-0.167735062354684,0.23187666898016449,0.34614980051228067,0.9592551286976296,-0.05389388120725142,-0.09847516515314564,-0.03965196463047517,0.03772756851320574,0.11225098252818798,0.6015625
0.04798838543303679,-0.9370483033188364,-0.22625922380145183,2.2442329809656014,0.24397530249459048,0.17283129517212947,-0.237900499683818,-0.357151664682324,-0.9909669600415716,0.05532722923404636,0.10043123054540998,0.04101937264251639,-0.039038824546835306,-0.11642520954529195,0.609375
0.060516037422514046,-1.1890234117070517,-0.28739414511729,2.847124852424946,0.3095369471508489,0.21920034317232237,-0.30210524876033495,-0.4530099460861772,-1.2581573483679431,0.07023712773060863,0.1277990193238018,0.05207689705771789,-0.04956371203703943,-0.14782547925922304,0.6171875
-0.0022792316213106523,0.07082982104759987,0.01694566629422573,-0.17393533364529717,-0.018445613816152874,-0.01366696510628357,0.018960235939448514,0.02751345284802741,0.07438088547091679,-0.004429753832741457,-0.008025715364227859,-0.003078471993033458,0.0028863186790999747,0.00838885985097379,0.625
-0.0035910580925488087,0.09670885279549506,0.023495360514935566,-0.2324202245079985,-0.02498180471798196,-0.018511497150008858,0.025642812364412022,0.03664738063917013,0.10173767667176663,-0.005969097616225775,-0.011002844466514703,-0.00425922593408413,0.003959786831587264,0.011579820271581347,0.6328125
0.057691189125079936,-1.1331860731306642,-0.27368795605663043,2.7229520366990503,0.2954759294959207,0.20870264973960137,-0.28779383492472316,-0.4335142692577055,-1.1999060294142407,0.06696234508660479,0.12149129233431266,0.0495973355854201,-0.047319933279325606,-0.14117444102128002,0.640625
0.055956257022553586,-1.0975016393108943,-0.26545747566736866,2.640550063198114,0.28628173944493657,0.20228614259166766,-0.2788376799653332,-0.4201912639968928,-1.1621972666396911,0.06493208020567856,0.1176763320417933,0.04811567561783472,-0.04589506479516844,-0.13693272755870126,0.6484375
-0.021538425507981462,0.45851722708490633,0.11053063201951316,-1.093910481570633,-0.11900135148188833,-0.08488331384772602,0.11767025534281365,0.17405462086886786,0.4851629376517609,-0.02726394497299792,-0.05013479898190128,-0.01999541636376898,0.018969321281587626,0.05627072618386841,0.65625
-0.06588187811198327,1.348062491792485,0.32597118707021094,-3.232507063419848,-0.3510112335378193,-0.24907608052555041,0.3444563544548619,0.5141670295377748,1.426907883389345,-0.08004296810569642,-0.14619973308533707,-0.059026252474442306,0.05614914893620736,0.16702685659958266,0.6640625
-0.040468609082546514,0.8371925591608949,0.2026441771127196,-2.0095491916661343,-0.2183986763133294,-0.1548257282694692,0.2142644168755539,0.31953601940216414,0.8851806717778421,-0.049800424095499535,-0.09113038562351435,-0.03669426780449212,0.03490157837179764,0.10378523429249624,0.671875
-0.0074678288438175,0.1748048075158402,0.042092723399177856,-0.42044871602834305,-0.04586353430170081,-0.03268581994334895,0.04543869567302772,0.06698624062265202,0.18319237644511563,-0.010535692867326748,-0.01948896253857538,-0.007619024790248048,0.007232059597347659,0.02137400520953225,0.6796875
-0.003334717097359933,0.09224795263612329,0.02188899418566244,-0.2236127179719538,-0.023800329875573126,-0.01754688526192213,0.024616300947931918,0.03600977714916809,0.09677358856696223,-0.005700666199245589,-0.010373468264603742,-0.003968485438033485,0.003766849301907966,0.01095753213865754,0.6875
-0.012610094556261687,0.27818819932651895,0.06729984903247023,-0.6733425586341509,-0.07193033003068813,-0.05187533109352531,0.07232676579056982,0.10761819248839999,0.2953231464814314,-0.016844672642472233,-0.030442512461858216,-0.012207228864464926,0.011601413558381757,0.03424540389299412,0.6953125
-0.015868581377560385,0.34262495728123715,0.08352425014793576,-0.8302098536985474,-0.08925320930949578,-0.06380941459831393,0.08881808403016438,0.1324792863404329,0.36413538321758776,-0.020710154420667523,-0.03759326237808586,-0.015132557516326986,0.014365599467717738,0.04262356300531164,0.703125
0.0024051820345470493,-0.02500120341124409,-0.005194609649783331,0.053971265272906875,0.005874799908064197,0.003888213862706629,-0.0050449867316120795,-0.008227762147614497,-0.025220152948189644,0.0011562248887977081,0.001879676832044023,0.0009944185174328604,-0.000989706183995673,-0.0029592610850553737,0.7109375
0.0354693462732269,-0.6886281783331617,-0.16604709632998743,1.6512925185141727,0.17907760059522196,0.12628008610081573,-0.17430842350881479,-0.26247039348059226,-0.7279246582280009,0.04057750784806662,0.07346738445877729,0.03015858525476934,-0.028755467181160066,-0.08577231738373865,0.71875
0.0383730461765018,-0.7459136507607427,-0.18056767423679923,1.7933516578588582,0.1949045192951526,0.137026819925529,-0.1890056188576018,-0.2853073068860818,-0.789596242036995,0.044007980953640356,0.07983855670645976,0.03271716964741936,-0.031229136886294667,-0.09339530688068566,0.7265625
0.0013382418800174307,-0.0008795239818632849,-0.000954319140054851,0.008014909693797095,0.0009595828077392903,-0.00013562861660822113,0.0006035303605352372,-0.0013701910299519454,-0.002986463565317401,-0.00011108905418406595,-0.00033628343283513995,9.531429855980096e-05,-0.00020311212011112445,-0.001022384284386622,0.734375
-0.010590448971583614,0.24029225185833403,0.05732812510428268,-0.5708825701178512,-0.06261533864320333,-0.044437013209013755,0.061700937922523715,0.09068680344867643,0.2511561017054531,-0.014338747119268197,-0.026361479250823116,-0.010420354006173558,0.009858587763673486,0.02915157851395698,0.7421875
0.02474392983342014,-0.46836068891716126,-0.11361428963386802,1.127450765477409,0.12164689887746273,0.08626991570986867,-0.11902233439537235,-0.17985989869790733,-0.4980025319281991,0.027690278757701126,0.04990956849333408,0.020671471141221198,-0.01966142697727577,-0.05864153350137588,0.75
0.030622609040042242,-0.587985758657997,-0.14211766861957406,1.4116226760397272,0.153421676374871,0.10811673321027307,-0.14919542660475488,-0.22546428139519428,-0.6228578627784758,0.03471906936603163,0.06272456933634993,0.02585191015199473,-0.024612764083769705,-0.07347952329193347,0.7578125
-0.01465203463735909,0.3179854161172132,0.0771662736666341,-0.7657697423330013,-0.08204782155023971,-0.05920161650159327,0.08223097357683698,0.12122351596171672,0.33715091669316904,-0.019103388206169983,-0.03487770903532113,-0.01400433850110593,0.013222830972057712,0.03908603640576506,0.765625
-0.01977207643936708,0.41968766470047913,0.10188502655575846,-1.0137932810304207,-0.10893787051056887,-0.07788465272235047,0.10848467038887397,0.16153205182173638,0.4452090763281586,-0.025248337657893832,-0.04566685264432525,-0.01857926233904485,0.0175395139951262,0.05196825793485816,0.7734375
0.025158172302446755,-0.4804745879716871,-0.11575793243172323,1.1446036283797598,0.12475976651589184,0.08833260502351643,-0.12102876188076923,-0.1812993167547081,-0.5074348544627613,0.028094978160634054,0.05140611629285476,0.02091662645496252,-0.019966250270388806,-0.05960540892101118,0.78125
-0.0009870941197264948,0.04614815172627467,0.011356420477610095,-0.1148918908956361,-0.012772323697742735,-0.0089803984120473,0.01281088590302806,0.019006000172661526,0.049481936246683886,-0.0029747954056520494,-0.005688489944823807,-0.0019769810973259846,0.001931535197706729,0.005722745455707781,0.7890625
-0.09580628351149167,1.9488487759202102,0.471170795660831,-4.6736106191940765,-0.5083210428968277,-0.3603179745610267,0.49743255347565,0.7439129211891284,2.0622949598748446,-0.11556627597767513,-0.21124211734612885,-0.08522399650805733,0.08117984833869245,0.24178574744091286,0.796875
-0.08069475458071039,1.6438591219246061,0.3974688524674551,-3.9395639116477543,-0.42865813943126635,-0.303919492765382,0.4196584308111137,0.6267062922976722,1.7388219413125428,-0.09744782854873245,-0.17842047866289448,-0.07190309235048915,0.06843674000087284,0.20379933150795262,0.8046875
0.06836368989441775,-1.348375047460639,-0.3258908991962564,3.237223990932279,0.351162606956208,0.24869994443261711,-0.3427883425356756,-0.5153441594775469,-1.4279231638259533,0.07979050964135923,0.14452353986805758,0.05908489782054127,-0.05629652367081693,-0.16781088611232375,0.8125
0.12869910370111665,-2.5586047859242083,-0.6187137800410641,6.139427060160352,0.6669172875548873,0.47221151096241165,-0.6509747065696563,-0.9766835720758846,-2.7082933257656308,0.15140361296566296,0.2753473078804426,0.1120536787272535,-0.10673690010786034,-0.3182229458507049,0.8203125
0.016188537030421633,-0.3001259184969,-0.07294719020476523,0.7213443242506837,0.07885781583882512,0.055048720174552555,-0.07511640625532595,-0.11388883514993385,-0.3176770968232379,0.017490356532533065,0.031961294058572315,0.01310731687287885,-0.012567421314586593,-0.0378965880892555,0.828125
-0.05822090213813681,1.1929198079855519,0.2882970638794665,-2.8630102335147667,-0.31019698139124285,-0.22093059228782216,0.305514748229966,0.45638116410909474,1.2628496683234358,-0.07104787354385947,-0.12900736405256816,-0.052317436454418983,0.04971200054738218,0.1476124164811857,0.8359375
0.0221857421557082,-0.420762525922789,-0.10124572321617034,1.0045689797073762,0.11005074523745148,0.07686697525169334,-0.10590671352636885,-0.1600567592489955,-0.4447041465283944,0.024566187052521535,0.04498855734234558,0.018356672724501828,-0.01753592067617857,-0.052553919840629036,0.84375
0.07593482077638694,-1.498575089758587,-0.3617938352887698,3.5919302897333547,0.39098192209939125,0.2760055388627935,-0.38091424837223276,-0.5725660302006482,-1.5858998439331746,0.08851941818214631,0.16116706870549471,0.06560947076988193,-0.06251137957688005,-0.18644810573460124,0.8515625
-0.01762418649393788,0.37989123319422174,0.09174997177148102,-0.9085501438714872,-0.09828411869615304,-0.07065859478859633,0.09763545684191291,0.14386454644533836,0.401076823724136,-0.02269150805017163,-0.04146553019967936,-0.016605555565194805,0.015718996314359853,0.0465387864597093,0.859375
-0.10190618309753349,2.0712111225694505,0.5003510492786628,-4.964876021990041,-0.5392393158218425,-0.38294065974449343,0.5287208062036937,0.790001030947297,2.19078490364569,-0.12290395628890514,-0.2239410445600156,-0.09066534615633291,0.08621302810310262,0.2565434778320557,0.8671875
-0.05579608144805232,1.14518981005346,0.2768091850618235,-2.748900636157976,-0.29853877146086394,-0.21201761463682126,0.2927923396230903,0.4374160255618566,1.2115253851612748,-0.06807712082619909,-0.124186958683566,-0.050124717250679005,0.047668196936627355,0.1418648176943372,0.875
0.00895168881260319,-0.1543482210445673,-0.03715753329154577,0.36491196876632864,0.03966926191770721,0.027975758225403796,-0.03847300181328166,-0.05834061705802713,-0.1634804032522802,0.008931458657044448,0.015908657543906295,0.0067949798240089085,-0.006479491190833622,-0.01931039684323562,0.8828125
0.005873006801123034,-0.0921175159395854,-0.022311521732898562,0.21760803067304416,0.023242353798412954,0.016602636127052876,-0.02267509263666354,-0.03453847436988846,-0.09826380389564378,0.005268401000895361,0.009230278518559176,0.0040835111626344464,-0.003904753742026199,-0.011603533615323205,0.890625
0.015150850013519974,-0.27817761311630146,-0.06723249152890233,0.6664037699856564,0.07154418097877775,0.051079172702517,-0.06994840084064352,-0.10522351249738501,-0.29542118570826814,0.016261401512067616,0.029262329784256545,0.012196734803888824,-0.011626385000208735,-0.03460733187488766,0.8984375
0.06074795128591445,-1.1936576781907113,-0.2881921962447704,2.8631449535425175,0.31026706623805855,0.220248732064042,-0.30315849590952093,-0.4548820680760367,-1.2637614125770897,0.07050657009724778,0.12784716826719064,0.05225358856718886,-0.04972823616718856,-0.14816269526400955,0.90625
0.044042906267842324,-0.8585018125030075,-0.2074142671850736,2.0614240522567178,0.2236634415298858,0.15845299401048538,-0.21805333416982406,-0.3284045957438828,-0.909301026766946,0.05079112660754214,0.09168359203248885,0.03766203872083963,-0.035825084000645414,-0.10688167539196937,0.9140625
-0.02921663472753458,0.6120627071296106,0.14722501846209915,-1.4635049071746742,-0.15886543628043592,-0.11314836281097816,0.15633656200394572,0.23179029392200778,0.6458491311634442,-0.036210833378975425,-0.06664036749172808,-0.02658868008558685,0.025320661058193687,0.07511108596582586,0.921875
-0.02983993586096654,0.6240346433410384,0.1498951495189798,-1.4947070244019065,-0.16197384937796133,-0.11557870696240698,0.1596904113486706,0.23745568904013453,0.6586893375865014,-0.037045470484427426,-0.06760519671226023,-0.027137794318225442,0.025820946339452977,0.07649003681932363,0.9296875
0.04666677161977202,-0.9130115640275319,-0.22083150411622568,2.1869427322139936,0.2382891685550122,0.1680349307921235,-0.23114703059352262,-0.34710522064127,-0.9656881088462205,0.05374300859223055,0.09821063684897664,0.03992896035660009,-0.03807110348502125,-0.11387849459850449,0.9375
0.05891124360622657,-1.1593412376610193,-0.2796434607778209,2.7782338453262363,0.3025768553404143,0.21352392760053868,-0.2934925204492742,-0.440774078161684,-1.224405357372559,0.06823690000925507,0.12455557531345739,0.050520042512459895,-0.04824936108666397,-0.1441193201218454,0.9453125
-0.0290542950146702,0.6077188248264791,0.14740075256519952,-1.4548431888971916,-0.1575887265959359,-0.11257113524553258,0.1564797445699134,0.23232709281746364,0.6455864281257776,-0.03633866837468173,-0.06624526089546523,-0.026835899009089687,0.02532160012948085,0.07519706067109523,0.953125
-0.08660674059244636,1.7644596188030837,0.4268075136414486,-4.2292354899321705,-0.4590873461941278,-0.32604020424799834,0.45091203699949517,0.6733758719381701,1.8690083338693004,-0.10480987354306105,-0.19107190318983755,-0.07739284685519367,0.07350138603729732,0.2187937073941414,0.9609375
-0.03432280949856597,0.7146119203654965,0.17334522746911285,-1.7187098141745232,-0.1860662699639538,-0.13236673086998813,0.1834246054479959,0.27372003402295525,0.7579049222086717,-0.04268361917902745,-0.07782748667183413,-0.031396347379607926,0.02984202416582637,0.0887313173870244,0.96875
0.04200080284805976,-0.8188851256753522,-0.1970531648144284,1.9543585312109146,0.21290520660279127,0.15037063929868044,-0.2074378021562425,-0.3112059519296562,-0.8654229981241098,0.04817338847380585,0.08755225362763217,0.03579900711485773,-0.03404884989292272,-0.10150319588976513,0.9765625
0.03769013519481381,-0.7333724796141783,-0.17663354857551,1.7532666282164906,0.1903894667816935,0.13418920452862979,-0.18603645652040288,-0.27984420658735903,-0.7766943998686838,0.043246203517787726,0.07826874702685102,0.03218813396756267,-0.030622883851253908,-0.09116957626743394,0.984375
-0.02006461394661644,0.4256112445607995,0.1030556311124888,-1.0197674617445094,-0.11127565750560124,-0.07991095919744118,0.10910776282744371,0.16115974799171928,0.4478404372150067,-0.025332824973506956,-0.046734540234104116,-0.018469288238720606,0.017565331816852325,0.05227951926069778,0.9921875
-0.031978062152421695,0.6659175943477162,0.16066271791443767,-1.5937748897419153,-0.17334690810523237,-0.12388996881777556,0.1703286602584539,0.25257123422406036,0.7008216033076223,-0.039585300649331086,-0.07245926160010342,-0.02900699720913116,0.027586317112236105,0.08186233570276591,1.0
0.014544848758449597,-0.26456188766190303,-0.06494693048498204,0.6374487813199042,0.06927797650710074,0.04868065532851995,-0.06709659904418223,-0.1023686052082424,-0.2847821896568313,0.015570012038743242,0.028232324985592215,0.0117308486364115,-0.011181534913000394,-0.03371614435211162,1.0078125
0.033613204991906474,-0.6450275913758684,-0.1573830212740147,1.549605104422064,0.16816239785240691,0.11940339381196936,-0.16428087097214464,-0.24703851050425593,-0.6870275161958685,0.03816705564982552,0.06943889449904664,0.02842300637502485,-0.027057661786687146,-0.08089623022628478,1.015625
-0.007936697000924336,0.18622004320870908,0.044039293074345696,-0.4456810996733054,-0.048606996569643436,-0.0343919279465078,0.04818577311300586,0.07157123637328065,0.19563156775876142,-0.011161559550411322,-0.02039862423644161,-0.008041394707930251,0.007636263602810223,0.02248911254516555,1.0234375
-0.03181935407646468,0.6612001666731443,0.15981696909025853,-1.5869948598640287,-0.17225530445291012,-0.1225700549950226,0.1702151747875458,0.25419745018693024,0.7019381519459221,-0.03946961307826343,-0.0719129560276555,-0.029010097303920575,0.027535018163040933,0.08169334996569765,1.03125
0.008569630977819672,-0.1482256567846437,-0.035611150853719346,0.35608308137777517,0.03878529880180331,0.027216888410822305,-0.0360016759049954,-0.054946631179619135,-0.15401165715223708,0.008457698594358036,0.015340927594096982,0.006351155616809257,-0.006171157383403429,-0.018676063440806488,1.0390625
0.04123904041750992,-0.7981289814863508,-0.19308952227163187,1.9192839716881682,0.20814958834495365,0.14801231396666542,-0.20243316793783148,-0.3045038668635453,-0.8438273993872928,0.04708979717734341,0.08548987984085617,0.0348935163160997,-0.03329415722191214,-0.09932356386550546,1.046875
0.015696771425201775,-0.2839051647801228,-0.06853618533637983,0.6851433180857045,0.0741083668438243,0.053019882054420556,-0.07177702373012823,-0.1090365518194589,-0.3002019727089791,0.01669482782918926,0.029818576446529257,0.012469864975007641,-0.011845628886101274,-0.03531980875586836,1.0546875
0.00041304918982155205,0.01729305187610507,0.005302284958981439,-0.0461873172622093,-0.004685188821146315,-0.0036690306677163173,0.005463869988546507,0.006900083658213914,0.020781636919102765,-0.0012374811486818816,-0.0030205956597896258,-0.0007529291789149019,0.0007821166337312363,0.002391577222638512,1.0625
0.033585188232371936,-0.6543661089335145,-0.15646725971685893,1.5563988283252075,0.1698732767607344,0.11945344703197239,-0.16513855092295182,-0.24798324097570965,-0.6884724808157735,0.03842682713384952,0.06938970775386058,0.0285494982814344,-0.02717734307991991,-0.08082241688874499,1.0703125
0.02405594565028496,-0.46372520940444323,-0.11091107752290151,1.1014001276000418,0.1203993673259972,0.08426894760998385,-0.11651351023408273,-0.1753101045857879,-0.4885063973663915,0.027096276096830917,0.04915754827961923,0.020140596317448106,-0.019279003634272783,-0.05745439540117441,1.078125
-0.06970857252269072,1.4209908530756614,0.3436230710685542,-3.4079017298490606,-0.3696421431220554,-0.2633312020625441,0.3634694353177913,0.5421774701076314,1.5026496880060127,-0.08449386243041046,-0.15381354402509878,-0.06234662138434609,0.05916855761937345,0.17585303540746927,1.0859375
-0.11831516486441486,2.399113877802704,0.5792481022651511,-5.745854400066897,-0.6238356383967829,-0.4437391744150437,0.6123538505501036,0.913975486424979,2.535656022038089,-0.14234156400151735,-0.2591514603444755,-0.1050594155507481,0.09981549988870463,0.29676596851211773,1.09375
-0.026765105806041762,0.5630643202952518,0.13514498912060408,-1.3445360354813993,-0.1460174413521505,-0.10465575832516141,0.14416409872077235,0.21362107085259158,0.5923535939619523,-0.03351394963137471,-0.06095634741235927,-0.024546613102317143,0.023235807045878167,0.06885730007108312,1.1015625
0.0904044501397168,-1.7879649793413874,-0.4329114449777915,4.287716846247273,0.46573175769092545,0.32958127027119555,-0.4550666196292368,-0.6825885481195214,-1.895066064691708,0.10576875310021253,0.19269738333217323,0.07844453624298275,-0.07468688481303,-0.22266594746332014,1.109375
0.08978787391117748,-1.775442858293359,-0.4294334149165654,4.2567379163736625,0.46257331744983127,0.32745230636846595,-0.4518153025763155,-0.6779419057313518,-1.8810580610504308,0.10503023453246084,0.19113418698880416,0.07787061917386391,-0.07405488063662424,-0.22093004075223846,1.1171875
0.011829378620835765,-0.2108267148058238,-0.05106040271644712,0.5079376476112638,0.05534959150430318,0.0387536957880038,-0.05299428259149263,-0.08146350007796821,-0.2245170580286081,0.012350766805424058,0.022059511578251745,0.009307055625479321,-0.008812568852907939,-0.026721511415130742,1.125
-0.026857425256522263,0.5649593758325333,0.13636918968401393,-1.352326559874986,-0.14706153580359516,-0.10438971038792523,0.14489006942448876,0.21527267120025873,0.5974443540524096,-0.033644313342269506,-0.061716177121123005,-0.024719692389572525,0.0234846246256041,0.06964969769405387,1.1328125
-0.01728222194368721,0.371089041516804,0.08964725607126225,-0.8919423519885603,-0.09717157372245454,-0.06877375699374493,0.09580569237052984,0.14285074780162949,0.3937509811305171,-0.022230577957128357,-0.04076842132718223,-0.016274492089894472,0.015411439247428457,0.04580694690655916,1.140625
-0.010942965978758306,0.24254558228354622,0.05904143488675772,-0.5874919027585803,-0.06381241278097179,-0.04536200770188182,0.06327834728987144,0.09450925476388115,0.25925874655167674,-0.014642330060844932,-0.026970307046220318,-0.01065646058703419,0.010125597112756719,0.03006147879363442,1.1484375
-0.012681134746171155,0.27819068197807767,0.06793219817466488,-0.67314336324251,-0.07293958957761515,-0.05199785746117664,0.0722795970744243,0.1077766388667362,0.29727280071098994,-0.016737927976966157,-0.03089867845162455,-0.01221870435506212,0.01165195529446201,0.034613664462923396,1.15625
-0.016623106152487174,0.3594071840652925,0.08731639683214056,-0.8651674820599485,-0.09401590308443276,-0.06671518775734829,0.09268053559204112,0.1380510194493471,0.38142610292881257,-0.02154649077360459,-0.0395697831708582,-0.015798989814294864,0.014982306279752245,0.04468405394005004,1.1640625
-0.034702587555513496,0.72368305736877,0.17485419277450356,-1.7332199230684284,-0.1885944253403738,-0.1337230335525833,0.1852177183632775,0.27585641096482,0.764108728563715,-0.04310234993173449,-0.07869937731648771,-0.03174861269242088,0.030062925890597753,0.08962569927003558,1.171875
-0.03563215676290291,0.7424342941522524,0.1790659980889517,-1.773042949034768,-0.19294833405778353,-0.13718680327351312,0.18983432607879505,0.2818045234833239,0.782477548427895,-0.04413019887941261,-0.08065823673112811,-0.03249199839607343,0.030791102749290967,0.09157986244685244,1.1796875
0.023301136248380972,-0.44096136651372375,-0.10689248511793624,1.0628500888062085,0.11539321448021538,0.0811446514665893,-0.11167542886935375,-0.1694917431822374,-0.4688755403613261,0.026010722979808755,0.047017659382677,0.01941204218182073,-0.018500233827184707,-0.05536320397522014,1.1875
0.08956312506971323,-1.7713769508419128,-0.4282123000669875,4.245274231985367,0.4615875542015935,0.3266145775452952,-0.45049417340286296,-0.6756598635043745,-1.874990527845294,0.10473586030758775,0.19062782061579814,0.07767509046124095,-0.07389386361079224,-0.22026512282917207,1.1953125
0.07737722214612877,-1.5266728292448477,-0.3690663005688098,3.6550981762398638,0.3977954693823972,0.2814035086011599,-0.3880338689751757,-0.5817159626683206,-1.615659195072478,0.0901555702086878,0.16432905558416744,0.06692847414312815,-0.06367995997004942,-0.1898509107930446,1.203125
0.020571471513977837,-0.386281438149308,-0.09363232103007925,0.924640903892251,0.10101443887609167,0.0709707775403582,-0.09748631652292948,-0.14723872724111606,-0.4094172975457389,0.022636079566895173,0.04127111514706754,0.01698056883902882,-0.016148875592642095,-0.04849193825149262,1.2109375
0.00807048491692748,-0.13665342606085792,-0.03311612912156828,0.328170077755079,0.03599570887849335,0.02485392199393856,-0.03376741425594687,-0.05207282631448763,-0.14444134645980028,0.007893348658949516,0.014155955372881026,0.0059997664031602475,-0.005693577324241692,-0.017467175347819774,1.21875
0.006381703596023748,-0.10572502560457103,-0.024990585678180795,0.2504985244561982,0.027871540992862865,0.018774443000694564,-0.025518543824529793,-0.03967210817359173,-0.10964615134740402,0.006003781087967871,0.010609552790613081,0.004522949487861047,-0.004341356112886704,-0.013373102166123326,1.2265625
-0.06600898588184409,1.345255948112613,0.3260473445442701,-3.229162686594229,-0.3498221289085673,-0.2494251592955366,0.34443520101034203,0.5136141289835952,1.4262666932725974,-0.08000114249332034,-0.14602036570317334,-0.059098393831375204,0.05611015297158959,0.1667145957694314,1.234375
-0.13490437646536177,2.728969914688511,0.6601311607348469,-6.541755387291811,-0.7103552143744296,-0.5047261696680381,0.6967998379442746,1.0406220667391461,2.8885290446560767,-0.16190775644627076,-0.2952820568589511,-0.11964455548874829,0.11368170296765366,0.338265555735439,1.2421875
-0.06562445758366532,1.3404767326409828,0.3241452552612112,-3.2105893246902744,-0.3496792380285478,-0.24806886372836826,0.3425928580557758,0.5110658561675869,1.4174370008206234,-0.07957659054966279,-0.14546678541880345,-0.058736480595002236,0.055740751448595464,0.16603843365495002,1.25
0.07185213023401868,-1.4180784811120204,-0.3425956802486438,3.3993601773492865,0.36811898179206803,0.2611786018413083,-0.36049112414577605,-0.5404522043316442,-1.501568674914381,0.08382654455983699,0.15216533047376582,0.062127540347058655,-0.059240259918829384,-0.17610265286710824,1.2578125
0.08145796923406928,-1.6110293240468831,-0.3893759219668028,3.8597012460370634,0.4189710863694718,0.29665239772445284,-0.4095691024231491,-0.6139902617843657,-1.7055055665695151,0.09521357264194202,0.17314624940451667,0.07060387329976262,-0.06727740375253369,-0.20023372073562562,1.265625
-0.030564056691508416,0.6377501019270999,0.15365654154904124,-1.5300671950868152,-0.16581198257542748,-0.11833738601803573,0.16354954644355177,0.24348919818372525,0.6731362732865769,-0.03800718583265607,-0.06920997278133112,-0.02785049610903462,0.026460945581421445,0.0784696909769442,1.2734375
-0.07028676552686895,1.4359926942384453,0.3464112445536762,-3.4440187965409312,-0.3737070015528704,-0.2653920934340808,0.3668705224703446,0.5480914735041135,1.5169929792515313,-0.08527569397918668,-0.15523602259311792,-0.06278932175090599,0.05977462937652656,0.1775496237329626,1.28125
0.009184552244662393,-0.15760736424745592,-0.038429678266155044,0.3747483681882578,0.0409510320259768,0.029010538056042638,-0.039471851893573585,-0.05988933937393023,-0.16876197534086668,0.009164453283382362,0.016560638502469166,0.007005694747088876,-0.006603771067417446,-0.01991979052816322,1.2890625
0.06506615636577537,-1.2767959808470568,-0.3087888094415496,3.0606072533782323,0.33256250358581185,0.2359327170158488,-0.3248878319252356,-0.4875077957843193,-1.3520508839463055,0.07551473096077523,0.1371738723511453,0.056009838146454764,-0.053244081286616896,-0.1587303201019526,1.296875
0.047770736840568595,-0.9276004228268582,-0.22460858594547004,2.228869272429792,0.2419246490751994,0.17181141884868656,-0.23579845227580115,-0.35441850201886715,-0.9820114271139118,0.054818694383708504,0.09949066103042427,0.04067133677793435,-0.038676001751542496,-0.1154878545270094,1.3046875
0.043086729409801926,-0.83445572748245,-0.2020305796379518,2.00628324233281,0.2176599305632844,0.15438760085270165,-0.21165311954292068,-0.3180669157156601,-0.8830251604339493,0.049197308252675,0.08944667520304754,0.036519436212068504,-0.03476060397838313,-0.10389891882189006,1.3125
0.05048557185250181,-0.9863220359066743,-0.2382457529216811,2.366522129087159,0.2572417913836845,0.18163970442409438,-0.25005519301253504,-0.3757128127760073,-1.0432385242116742,0.05810644392739884,0.10579897892516134,0.04313132882404654,-0.04110811615315226,-0.12268842412906929,1.3203125
-0.0015965020707245819,0.05678217373637948,0.01415202385972523,-0.13696253973188108,-0.014217483449751427,-0.011347158554837656,0.015680059331947285,0.021545097065447674,0.06072067117425309,-0.003662647296137401,-0.0067294587697563,-0.0025282014072662605,0.0022976257885536405,0.0067064926919719586,1.328125
-0.06071715713440945,1.2434785820484133,0.3008607954915775,-2.983257543194162,-0.3233725327130839,-0.23018021622070312,0.31789156676770447,0.474100325153617,1.3165415413098953,-0.07389459126161362,-0.1347191072159008,-0.05445855066469771,0.05174059067786087,0.15398237478854718,1.3359375
-0.03459947322166499,0.7186985681037884,0.17401981886913276,-1.7274239393537942,-0.18703943073399357,-0.13323927138189934,0.18420308169156857,0.2745680453983853,0.7615941400254032,-0.04279575603915473,-0.07814282708905917,-0.03146537628776196,0.029917819850042084,0.08895369145219612,1.34375
0.012079063617020125,-0.22101254518259225,-0.05282828941971582,0.5245177209973744,0.05762631656370216,0.03970667677568191,-0.055048333319202204,-0.08387863647619906,-0.23266598904545702,0.012847713346780962,0.02309692507653556,0.009667372615313335,-0.00924402640877994,-0.027715555993892457,1.3515625
-0.01506949947481255,0.3215241683371719,0.07842426408585315,-0.7735456476237804,-0.0837070200336507,-0.06083220458148759,0.08331459015444333,0.12244907198135,0.34086283984652305,-0.01928477944654925,-0.0355770098022917,-0.014115894087581397,0.013303776046089047,0.039452210947995905,1.359375
-0.048241811557712566,0.987912025952753,0.23919023353659852,-2.3689383712461365,-0.2577833239157804,-0.18353427812868797,0.2530412438239371,0.37686633464499686,1.0452236771945247,-0.0587225797824922,-0.10749055798661433,-0.04328786648889291,0.04105456744531156,0.12216225335137974,1.3671875
-0.006598398827166395,0.1544527970056523,0.0373147484111092,-0.3724256712557208,-0.041257107314774506,-0.029099920959484753,0.04045376672568389,0.05989207914170219,0.16270192577508832,-0.009318322783857701,-0.0174540055196253,-0.0067432690637264665,0.006375371755445304,0.01889119877935428,1.375
0.033297810749730275,-0.6441612766247431,-0.1558743820959559,1.540467291929342,0.16694543395439235,0.11866909134160707,-0.16326547509961514,-0.24470485545836868,-0.6827802923524703,0.03799789344103516,0.06881056039187468,0.0282461513618496,-0.026853857248574364,-0.08014588161120352,1.3828125
-0.0021961125119165908,0.06981430606585157,0.016775806303559425,-0.1683996928091098,-0.018316361170345297,-0.012948639288748951,0.018581951223171363,0.026640201842740817,0.07259552641635267,-0.004309149207466333,-0.008253979449571723,-0.0030647562755724512,0.0029008653449280634,0.00840257793605393,1.390625
-0.04117065621730347,0.8529732694533021,0.20603498488096575,-2.0409732224830326,-0.22179639051286887,-0.1574175450555083,0.21829176173101222,0.3248645619192942,0.9016062761780633,-0.050727137423049594,-0.09278651744855813,-0.03740005066932148,0.03550748815577077,0.10546868945839388,1.3984375
-0.01864204000250818,0.4007770472811691,0.0964617057206711,-0.9551779055422208,-0.10370349472364884,-0.07400854682243461,0.10333308767411038,0.1528373576517244,0.42356307483665645,-0.02397261805537935,-0.04383278218066472,-0.01758246794358965,0.016631256129160905,0.049156709643385435,1.40625
0.016912313158154578,-0.3126254168035696,-0.07616192348157538,0.7532359247150742,0.08242334190767563,0.05760157824514353,-0.07835351316041883,-0.11889568943842936,-0.33101026237024245,0.01825421742974268,0.033409413328862034,0.01367865403232465,-0.013111559889254757,-0.03951035291442713,1.4140625
0.023585064282276996,-0.44485860271397176,-0.1080087670038895,1.0688346035964436,0.11686192459736057,0.08206614477675311,-0.1122814297544005,-0.16967916220155874,-0.47102696064516497,0.026073193808121217,0.04779227752809033,0.01947005894422953,-0.018619835780870973,-0.05584339574533794,1.421875
0.019890693593014912,-0.3688389868914941,-0.08950091334096322,0.8870825741092035,0.09664361013937643,0.06798498094317393,-0.09333122365263528,-0.14137215502930633,-0.39159040166073983,0.02159951831142507,0.0395416741724323,0.016187304259306843,-0.01547054556344948,-0.04628065258440063,1.4296875
0.011271833758515584,-0.19624333033685828,-0.04783231123704328,0.472687348905899,0.0513097637715119,0.0358369124306665,-0.049647238871971706,-0.07594430223203605,-0.21035627172054647,0.011437300239793207,0.020862198442270323,0.00871981532088133,-0.008315144728399679,-0.02486913246935039,1.4375
0.005802241955015605,-0.08934038162105605,-0.021854474355084866,0.21233918760156523,0.023231494783400707,0.015887178766642446,-0.02235545977764776,-0.03483968703070319,-0.09705354430047022,0.005143262397685907,0.009239585571280294,0.004058031256781772,-0.003843185465815767,-0.011560235576823945,1.4453125
0.041954447035282956,-0.8184402765520381,-0.1975041901777453,1.9547472416049148,0.2127059016993769,0.15042525977023571,-0.20778478204420633,-0.31187005152885877,-0.8661950200839136,0.04831027363416541,0.08770379692941298,0.03590746280832566,-0.034136417147269164,-0.10177437811852037,1.453125
0.08984791097254557,-1.7819643497151272,-0.42986526481933546,4.262035026558791,0.4632496342194847,0.32809987183276434,-0.45295100248927017,-0.6784624436558558,-1.8837026560867447,0.10534360382120259,0.19143810701058153,0.07805058515343416,-0.07422231343931729,-0.2211163340140948,1.4609375
0.05063118000109698,-0.9948845995303623,-0.23965862163677515,2.378098303891804,0.2584351079730069,0.1826243929512204,-0.252306073562759,-0.3784749423902952,-1.0511183765160172,0.058730378180429116,0.10635098748581945,0.0436136728370338,-0.04144141447564061,-0.12349299191219064,1.46875
-0.0621796403269831,1.2709638986840783,0.3076986556733846,-3.0472372690573293,-0.33111711888555145,-0.23533385703098747,0.3250417889253825,0.4849291486072261,1.3456002248158707,-0.07544642639565109,-0.1382685791897703,-0.05561769212067392,0.05295043234190276,0.15756915192882512,1.4765625
-0.10776809335115563,2.18712832950451,0.5291039901648694,-5.239212356292599,-0.5694806685943301,-0.40393924709106555,0.5587335647284647,0.834471869820328,2.3157940010112807,-0.12975425889782463,-0.2371659415820821,-0.09584858927796124,0.09115045326099326,0.2713054319243873,1.484375
-0.04407259485036475,0.9085162139828798,0.22015500983755493,-2.1754067014403318,-0.23662514457056663,-0.1679271003468706,0.23329055159051332,0.34782764037365993,0.9639576070907344,-0.05414682253850774,-0.09898472353465572,-0.03994975952599822,0.03788120831506939,0.1126764979174775,1.4921875
0.011327772143831231,-0.20294366075243445,-0.048841329063104885,0.4865330030517951,0.052908939372802916,0.03693378353803926,-0.050054126845789436,-0.07602258315627668,-0.21329896009351187,0.011636829624829361,0.021342061975170697,0.00876256002497445,-0.008505023716624496,-0.02547285110400126,1.5
-0.011869868621285064,0.2647082032121537,0.06340533990317786,-0.6324687958292848,-0.06843307521810935,-0.04923173209792914,0.06842126510960816,0.10075494655966274,0.2786684146143554,-0.015937568226941645,-0.02884230906651859,-0.011609647127797296,0.010880814133714767,0.032152368766103626,1.5078125
-0.041341688770548925,0.8568397941531349,0.20607812539504522,-2.049153042029027,-0.22235525726234595,-0.15820842610340627,0.2188493573642439,0.3253267264996363,0.903704487417378,-0.05086844447899771,-0.09270422801317074,-0.037488509173124414,0.035530511329222705,0.10537261330356652,1.515625
-0.009678171632998684,0.21866878778013568,0.05217439002038006,-0.5229949270787103,-0.05644679602893517,-0.04071633380115091,0.05643762157517599,0.08252751401265644,0.22909347238964264,-0.013079922695648146,-0.023940874255189586,-0.009541829957314753,0.008998476207912564,0.02627251236921203,1.5234375
0.04210576996484052,-0.8228096366866645,-0.19898028379839236,1.9675342703327672,0.21422711895996369,0.1509974230891005,-0.20871675950309315,-0.3136559862683053,-0.8722707215831582,0.048543288970486806,0.08830933223448147,0.036088449646384545,-0.03434949764208808,-0.10266649628074921,1.53125
0.04621499674084087,-0.9034989017387869,-0.2183407406026257,2.1618909314367984,0.23503693714041174,0.16605016977016723,-0.22949203983205665,-0.34472299641366966,-0.9580355744052368,0.053350541587146354,0.0968741447217666,0.0396473032186867,-0.037718838976338105,-0.11246705292056498,1.5390625
0.00970139796709644,-0.1682704679990891,-0.04063135353487508,0.40488130349076995,0.04380789814557043,0.030804964886797147,-0.04219443270269406,-0.06485782016167818,-0.1796227772033771,0.009816906063815778,0.01742143240348027,0.007393247287988601,-0.0070762948150727475,-0.021162372721194728,1.546875
-0.003927824350197388,0.1041569509647727,0.02556801087248435,-0.2477225701484365,-0.026928520532350234,-0.019580013243390277,0.027780055506297675,0.039854468227265544,0.11077422944818242,-0.0064396208090371455,-0.012029266687364053,-0.0046553117540289665,0.004337664220006338,0.012724595008932766,1.5546875
0.026145266963930304,-0.5009267370102394,-0.12048421011111442,1.199781939441632,0.13061585241941456,0.09185044462226709,-0.12606314198568283,-0.19003052584062646,-0.5283572347387668,0.02931204818980865,0.05330830701856528,0.021812759120105735,-0.02085191785202379,-0.06231820406348021,1.5625
0.03952181708806407,-0.7666037189048774,-0.18527992635129542,1.8378190703763775,0.19983588222209325,0.14124161930045726,-0.19433701540858456,-0.2921612732554149,-0.8111897401963358,0.0451603326605682,0.08214436818829393,0.03357854750594115,-0.032005144194827445,-0.09544944197466215,1.5703125
-0.006679137374009609,0.16463440742363286,0.03914755996864923,-0.39292605311077383,-0.04261642583867612,-0.030244317271797872,0.042301741450581694,0.062111934938305295,0.17253977693740294,-0.009868433026792831,-0.018162520682404277,-0.007045500955839904,0.006729877429224243,0.019958429288958128,1.578125
-0.049592631137028644,1.0251136599295256,0.24737973735573343,-2.460698754913629,-0.2670959399904867,-0.18939215337748205,0.26183853813204044,0.3915601547813493,1.0843749782842276,-0.060906620417253136,-0.11100569835487886,-0.04470949166661548,0.04265093286848027,0.12693090970407997,1.5859375
-0.018246257797175088,0.3920921780998627,0.09498102115941277,-0.9476963587057619,-0.10278325091860974,-0.07297792966627248,0.1011565599820634,0.15171230888211115,0.41641765695821975,-0.023528166642009515,-0.04283773688816862,-0.017075962164624932,0.016362950356804885,0.04861617426266518,1.59375
0.03707056030871847,-0.7196084587146216,-0.17380375415000138,1.7231865770508763,0.18709527563275868,0.1323905295907769,-0.18218297854323992,-0.27353224701323714,-0.7608480994698698,0.042393613542685525,0.0770199663437244,0.03155166779248266,-0.030007802459027257,-0.08959865287276497,1.6015625
0.031171621933662345,-0.6011782360877481,-0.1454825406441009,1.4473151834201956,0.1573548175452577,0.11061730502409978,-0.15238021453442332,-0.23098752006405984,-0.6372783993513095,0.03551814264305259,0.06418610958880862,0.026350794894572916,-0.025179499863587133,-0.07538112712062181,1.609375
-0.009412171911407221,0.21119373539497877,0.051271451913434046,-0.5032025053595973,-0.0539730276069864,-0.03988466820652178,0.054795215319906804,0.07874880718645612,0.22302178698892294,-0.01263622481841396,-0.023576168842385763,-0.00927551361276064,0.008679323995624934,0.025487618235530723,1.6171875
-0.014538812047183271,0.31241772452304184,0.07623820803337535,-0.7539317826879545,-0.08141395326184185,-0.05879995164468916,0.08094538615991387,0.1194999207330439,0.331534739883595,-0.01875687809367739,-0.034563854243900585,-0.013762485401396683,0.012991065829356474,0.03856262013156716,1.625
0.0015413858729353758,-0.0075567317938815695,-0.0014507912072485812,0.01423443441863334,0.0010345866727009855,0.0010070499962701316,-0.0007723162616265778,-0.001646336795382681,-0.007773992208567987,0.00020462716549867255,6.074983385861804e-06,0.0002783066580031177,-0.0003064656512394627,-0.0009295452709568506,1.6328125
0.0009590416602155948,0.007195860204700297,0.0015932095744709122,-0.01447581993513854,-0.0026003309476245835,-0.001149302114379327,0.0026917649389910842,0.00315817970887019,0.006745254924547777,-0.0005863245610423833,-0.0016019001734127623,-0.00031264340161264373,0.0002823532203669233,0.0007083321592027969,1.640625
0.004778671100570631,-0.0714536913744907,-0.017126076252196434,0.1732495317109377,0.0183235788242559,0.012805218770818031,-0.017082607383447516,-0.02699869096412107,-0.07560872832776165,0.004032732276070696,0.00678141723565794,0.003099310224491595,-0.0030000362023334874,-0.00913720100550208,1.6484375
0.018083190616096825,-0.34149038706527474,-0.08196569708406413,0.8150583454360716,0.08883590627715365,0.0619772866177062,-0.08552031910298268,-0.1294299355683567,-0.36058540158943886,0.019909021447016784,0.0360168255815616,0.014848388148639658,-0.014251185043751268,-0.04260055418974567,1.65625
-0.001386637141585972,0.05143043327426729,0.012607027587569018,-0.12516735261274656,-0.012960345787417874,-0.010223569648274578,0.014447223908228314,0.01992009025074054,0.0538661720261312,-0.003390174236942078,-0.006043951322271036,-0.0023595976912588923,0.0020830073400108185,0.005967071288885536,1.6640625
-0.04035607974553241,0.8375992374446971,0.20201062489358332,-2.0036047446903598,-0.2170185670274826,-0.15472735994973433,0.2145075607193657,0.31885963654948085,0.8846671946787501,-0.049909827569488606,-0.09068123752052247,-0.03673237132744417,0.034808943409626654,0.10326090452916695,1.671875
-0.03826489865408129,0.79537490316505,0.19183873376227373,-1.9036745274187101,-0.20618674173194038,-0.147036760561872,0.20384711493710206,0.3033269829785264,0.8409340966313509,-0.04740452721057849,-0.08619536953910377,-0.03485586351554238,0.03306503750853508,0.09809537705736564,1.6796875
-0.009986381508170349,0.22572216171983786,0.05434559653870603,-0.545114098705619,-0.05857725629797872,-0.042210477093210005,0.05867360198241864,0.08706081311153759,0.23887088251528957,-0.013650158809948042,-0.024743322350702663,-0.009875221204545188,0.009343886909816291,0.027615103890430752,1.6875
-0.008256845113203118,0.19236373936123732,0.04602858756083385,-0.4661710609232087,-0.05007407660281942,-0.0358129034685953,0.04963310485843842,0.0736237148018062,0.20246502613845904,-0.011552939538660031,-0.02105206552825714,-0.008312276234194272,0.007933085608354788,0.023417579046654945,1.6953125
-0.005521541087156889,0.13982351286725392,0.03313420027764044,-0.3347943489333572,-0.03617239264868558,-0.025714952413922847,0.0357620261212703,0.05209945367626332,0.14582691560512587,-0.008295652220687668,-0.015490169522809004,-0.005920008852331193,0.005724049156517561,0.016759678515133655,1.703125
0.031766685288096536,-0.6100795755806258,-0.1478377970005823,1.465434013640324,0.15886497021022725,0.11260958560041076,-0.1551876795931962,-0.23395288218927496,-0.6473754231503966,0.03614097604029098,0.06516368947238266,0.026901169211477366,-0.025527372858801776,-0.07620897719447033,1.7109375
0.04507119533643299,-0.8803638307189905,-0.21287517885857632,2.1113816732640256,0.22884388316616272,0.16210298575415166,-0.22360793202441476,-0.3360216002479555,-0.9326902389511759,0.05205290535526179,0.09427372248574538,0.03866023038089449,-0.03680660462412687,-0.10963599877000414,1.71875
0.008632002158726667,-0.14949634322277142,-0.036093977855881525,0.3580210940612607,0.03863471617803479,0.026901059684248448,-0.037035442490352836,-0.05670289132173207,-0.15837639418791885,0.008652865744138542,0.015514335648693051,0.006610385835603508,-0.006352254725535981,-0.018961603523933605,1.7265625
0.009860769013865943,-0.1730243899044048,-0.04136318955333195,0.4134240288564212,0.04493742930452242,0.03106759383373083,-0.04278349683953326,-0.06529415651954153,-0.18151714000882418,0.009960880481168341,0.01795686682173032,0.007603674780849583,-0.007250783241227518,-0.021733940994554245,1.734375
0.06846754463890815,-1.349679231024413,-0.3252311023928088,3.2309797791499837,0.3511169251476108,0.24827154807453378,-0.34245071527227383,-0.5134163396511083,-1.4254851572741203,0.0796015161461415,0.14469986714842892,0.05905112439873249,-0.05616119300073827,-0.1674027463422225,1.7421875
0.06261357258325638,-1.2331728588455022,-0.29715790797770253,2.951007994219516,0.3208243026339118,0.2270712637008508,-0.31283287462319165,-0.4691340343232681,-1.3031832155403191,0.07271561653025028,0.13213951593908652,0.05388059670582436,-0.05127916383253328,-0.152924718241649,1.75
-0.038103231444235615,0.7884966564261415,0.1909060183605236,-1.8897713640186007,-0.2049947938990837,-0.1458342884045426,0.2021740493536587,0.30068697576367476,0.8345418140808826,-0.04695825271315972,-0.08582721785849586,-0.03464659102348368,0.032873602259524966,0.09752912560192115,1.7578125
-0.08315878257221503,1.6931303735095289,0.4093066689390695,-4.053267243785676,-0.44033840740719227,-0.3129223261957994,0.4327048839059056,0.6450859788539625,1.7915116840979761,-0.10049226971144025,-0.1834292336973167,-0.0742228580918345,0.0704840969320117,0.20954400700234085,1.765625
-0.007016399099166289,0.16466745111397751,0.04000611875032129,-0.39185879971566456,-0.042969795721985254,-0.030977139953637555,0.04321173714966674,0.06287393565387786,0.17406163966465305,-0.009969278418357598,-0.018606217262323862,-0.0072634056893768435,0.0067931163499519625,0.020100673335726783,1.7734375
0.04310364425252526,-0.8404986222145568,-0.20305108551222723,2.012190221949019,0.21831897732023087,0.1546440639647753,-0.21316507155672204,-0.31984931996558247,-0.8905123656399823,0.04954197546054919,0.08994567743514108,0.03678671546417135,-0.0350631370886264,-0.10444535392403695,1.78125
-0.027204457762941125,0.5723128252406801,0.1380372036421462,-1.3745743272650683,-0.14908086381724597,-0.1059849254472745,0.1467029757045345,0.21864747938193266,0.6040779937326397,-0.03415187649531443,-0.06224669416186249,-0.02504932740576611,0.023796741400521907,0.07065262533654214,1.7890625
-0.08704868852783341,1.7735268235506372,0.4282070406137544,-4.250322214015325,-0.4611671760619111,-0.3277170557529172,0.4529932528112615,0.6763591280453087,1.8760286842566467,-0.10529847348936888,-0.19175204121745362,-0.07767009328485955,0.07381755759908774,0.2194417610893991,1.796875
-0.01540972229510102,0.3341905641197795,0.08045983632687036,-0.7998431321837731,-0.08633470819502491,-0.062075780020390846,0.08632613969645847,0.12745985895721113,0.35331126419591424,-0.020021406407658066,-0.03654342755974674,-0.014673300910798862,0.013823361011411132,0.04088218285107639,1.8046875
0.08209142810298146,-1.623044574909878,-0.39250608331284753,3.8880362525577956,0.4228893680611082,0.2991910527130841,-0.41275180257582594,-0.6190335908220919,-1.7187562140328045,0.0959425301986009,0.17457156510331515,0.071083921894716,-0.06774561886449483,-0.20180844787458083,1.8125
0.05033729599713675,-0.9846098733843365,-0.23822928751396286,2.3553580592271937,0.25640385508748503,0.18128229955336392,-0.2503913157365958,-0.3757788462770522,-1.0436898251792774,0.05814162574309942,0.10576011612596883,0.04321857228383343,-0.041155351055957294,-0.12256871721007132,1.8203125
-0.0621079134003788,1.272253766342891,0.307248979737969,-3.0527704489535767,-0.3311689041979979,-0.23527485059928713,0.3248457334448032,0.484930844331904,1.3453304419216137,-0.07552632139393128,-0.13766391080613183,-0.05560361361788915,0.05289637103334881,0.15737563304981161,1.828125
-0.09373989931111393,1.9060119329491878,0.4604259344223698,-4.568501246086256,-0.49605121729968177,-0.3520428321546326,0.4866261717209136,0.7267256482082635,2.0165963054132368,-0.1130220564373445,-0.20607643475892332,-0.0834098654905158,0.07933192826295432,0.23594759395411571,1.8359375
-0.022708073931612543,0.48072899529456187,0.11584286549964314,-1.1492764593273432,-0.12495967578389078,-0.08886472548271648,0.12344349735262686,0.18309803600590843,0.5078082589874922,-0.028570230070261236,-0.052387934537284325,-0.020978996475843583,0.019954849456485256,0.059062019594769734,1.84375
0.04021204420917703,-0.7802935814290869,-0.18891852103328236,1.8745480711852425,0.20321312811317702,0.14368204008755384,-0.19791766957468954,-0.29766265190950764,-0.8269500666742855,0.04605301666196631,0.08361047627438387,0.03429064410091637,-0.032573226273337835,-0.09738550297351733,1.8515625
0.052005457237302696,-1.016751372591877,-0.24559360547184586,2.4395433491605525,0.2645669084084971,0.18709873929990684,-0.25790438846890534,-0.38718569725332397,-1.0757852383624633,0.0599244764008755,0.10904221727228018,0.04456718086998719,-0.042361234599247066,-0.12650932005143695,1.859375
0.05995458067022454,-1.1783079638400993,-0.28387433377582266,2.8224757870541715,0.3064228971802891,0.21686340165412815,-0.2987765492722477,-0.448220483350213,-1.2444098157731112,0.06942949663938076,0.12628952624157247,0.05147840601500337,-0.04901928466279003,-0.146175847209226,1.8671875
0.06347938813148309,-1.2504041775451284,-0.3009794999284889,2.9929409904657915,0.3251298149431165,0.2301129298834509,-0.3172413245480602,-0.4759737261999546,-1.3198992663830438,0.07376294637187479,0.13390835142624866,0.05460707763125205,-0.05203188255543999,-0.15495376501670705,1.875
0.026857954195361213,-0.5143704200506876,-0.12366059913216323,1.2317437084693155,0.13377467169656554,0.09422521469775771,-0.13009240690576154,-0.1963288103275986,-0.5430508586519215,0.030284856892176706,0.054564909156993566,0.022527111816314872,-0.021455428947007603,-0.0639456693835758,1.8828125
-0.007216552914867649,0.17080538209266816,0.04110757202873068,-0.4066104065164197,-0.0441984471620996,-0.032077609475102686,0.04421845289888904,0.06415290021570215,0.17925480994485493,-0.01023292858042624,-0.01914059965354523,-0.007355179587877873,0.007016480341350859,0.02062256443272326,1.890625
0.011760879995016973,-0.2110530543715189,-0.051252326055294777,0.506835738353596,0.055231528322829355,0.03850175303855582,-0.05294175513620547,-0.08101429288813114,-0.22496079917019704,0.012337172676387318,0.022126589453545432,0.009303851021702253,-0.008893993527493838,-0.026740867893845152,1.8984375
0.017767027677616457,-0.3337620140517358,-0.0803591634915928,0.7961624916469312,0.08685490302950585,0.06094141205879225,-0.08379446655231097,-0.12662332198594387,-0.35282503458339426,0.019490902152150328,0.03524227147825177,0.014529920923712384,-0.013970974266501558,-0.041604192730471216,1.90625
-0.051779486499273344,1.0619962557520668,0.2569394180000143,-2.548453994776113,-0.2764532090047654,-0.19672325852278777,0.2719927848116164,0.4057613151043633,1.1241163502452094,-0.06321519714127126,-0.11534196080611239,-0.04662658268198979,0.04418053550482641,0.1315756594016265,1.9140625
-0.10421830643659867,2.117012043634745,0.5110141657680716,-5.072113683279367,-0.5506410393583909,-0.39094616756141554,0.5404096686148218,0.806984802208383,2.2375602355516078,-0.12560636030701372,-0.22888142151423882,-0.09272032415354294,0.08808766951221249,0.2620375912986369,1.921875
-0.04473628547129125,0.9248816106750201,0.22241701647920098,-2.215630826156645,-0.24031163120059668,-0.17046076074058597,0.23628208999276434,0.35224865390342347,0.9747568177122694,-0.05492978994344342,-0.10000928970062996,-0.040436504171704746,0.038398793464010664,0.11401033293362701,1.9296875
0.03475331134430078,-0.672009594188147,-0.1627564818127771,1.6048054345527856,0.17478387797434974,0.12403204703413603,-0.17030874760951906,-0.25519898179361433,-0.7121941545949069,0.039563425147460335,0.07217172035235792,0.02942770034769889,-0.028062709590985384,-0.0836489985722889,1.9375
0.011858915600225827,-0.2146298978502272,-0.051260551183567836,0.5068104155592555,0.05554075071969522,0.039087211355699016,-0.05326521158256815,-0.0801764127813556,-0.22526899576100184,0.012382010244301704,0.02251160693885717,0.009308129557007737,-0.008909852162493959,-0.026597351058569158,1.9453125
-0.04922930397537894,1.0122175942264653,0.24516913267961224,-2.426831268173909,-0.2633200670749606,-0.18745645961032523,0.25918043412029657,0.38607405725545907,1.072209470743643,-0.06019641082766848,-0.1099805329588317,-0.04436380360767671,0.04220979379624839,0.12530181229237355,1.953125
-0.02526667772699007,0.533946352360015,0.12893294051478868,-1.275008185759051,-0.13866759897135078,-0.09899409603358232,0.13676761599850212,0.20243517226756533,0.5641652749075928,-0.031736161137085515,-0.058244266365275535,-0.02329141218480809,0.022207426041541346,0.06561714887751581,1.9609375
0.04767713142671482,-0.9291038760272213,-0.22481959628241707,2.2305051826645643,0.241678823031203,0.17105086994958293,-0.23604620805972887,-0.3545572578363068,-0.9837111009674642,0.0548830963643482,0.09975367199620803,0.04078815360182964,-0.038788763442584334,-0.11579432743600233,1.96875
0.05780490359145629,-1.1337955141692273,-0.27407425267849783,2.7193218118624323,0.29483689109883654,0.2086960005827988,-0.28776452704553596,-0.4315158964676104,-1.1991880912683848,0.06688582523565748,0.12184878424108667,0.04965908292809909,-0.047299206044353365,-0.14104942941354687,1.9765625
0.01232766649747791,-0.22250743775887236,-0.05390079633877386,0.5355977811163194,0.05820718704066055,0.040475531618409104,-0.05546782335538078,-0.08456490235212641,-0.2353428956812,0.012916974806488337,0.023485723537596686,0.009742041545154425,-0.009340736700886275,-0.028172296706271686,1.984375
0.0004220683077193938,0.016333909546962285,0.0036427893232379486,-0.03847908482274291,-0.0036324200443095442,-0.0035466252551707945,0.005066594942355432,0.0057108604689072645,0.01659470212608234,-0.001126704357137958,-0.002316284515843985,-0.0006135191559251866,0.0005612953976895481,0.0013413370092869156,1.9921875
0.03658702583842468,-0.7091554667406327,-0.1714655141578612,1.6969754371238743,0.1848958273883167,0.13036760754810242,-0.17993939538271644,-0.2706662890387656,-0.7505386304505534,0.04187166003072574,0.07587094790847619,0.03121188095731536,-0.029676414342794107,-0.08843272056881823,2.0
0.052634372407308824,-1.0315646043644586,-0.24897838277696988,2.469930779980299,0.2685290848413661,0.18983800018140834,-0.2619492293651277,-0.3933607760708142,-1.091167802894571,0.0609198211013817,0.1105129750776286,0.04525481088829251,-0.0430719864065229,-0.12820405686508074,2.0078125
0.008341563074045754,-0.14336691542924723,-0.034280070620974434,0.34412843597127957,0.03730381147734329,0.025899051845096582,-0.035589481574916475,-0.05518635453736844,-0.15227866837946283,0.008305474002238284,0.014602090993519605,0.006255350371177612,-0.006047945481577395,-0.01803798380609703,2.015625
-0.05405910884370765,1.1089892365360923,0.2681862990075033,-2.6568940023570295,-0.2888432421993572,-0.20514994611069387,0.2834237513553985,0.42215357015770993,1.1718385892309744,-0.0658386076408258,-0.12050734806136322,-0.048617710793797904,0.04613031709770204,0.13731570593179637,2.0234375
-0.06027310953658895,1.234447645306059,0.2986001903747659,-2.9590831655945182,-0.32160947920409977,-0.22815703531610726,0.3155135376287044,0.47059757264051233,1.3052001025260993,-0.07330406908694052,-0.1340523883818222,-0.05411229017450944,0.05141091240038693,0.15301826180782835,2.03125
0.00448893311458564,-0.06541543907161967,-0.015155721489732541,0.1555702773811737,0.017085081855028668,0.01175545250354396,-0.01529935572329597,-0.02438178750883945,-0.06861268929271115,0.003560402590706223,0.006163721137684633,0.002752924633615021,-0.0026495814234716443,-0.008169211541558282,2.0390625
0.06881226784080262,-1.3575711499472327,-0.32733724381477564,3.250793389342436,0.35370900906132574,0.25009045417220227,-0.3442876741928019,-0.5165684862255345,-1.4350770918380285,0.07999217057199746,0.1456922377891024,0.059268808686280296,-0.0564538648312546,-0.1685371480972639,2.046875
0.06369336662073423,-1.2544879293250337,-0.3029500241485151,3.0008708231039707,0.32650747953627773,0.2310983385517288,-0.31826682581341437,-0.47679960378355496,-1.3266708395397535,0.07393664162671862,0.13484077799247543,0.05481579398098065,-0.05223505633990053,-0.15581386958051982,2.0546875
0.008736727075734484,-0.14844854420321477,-0.03638052662532012,0.3511553696592543,0.038220974975754524,0.027288965114884545,-0.036993572369565235,-0.055358457883564555,-0.157662775120538,0.008598174969669255,0.015695850035410856,0.0065677115536014385,-0.006247357452389508,-0.01870544621494852,2.0625
-0.03683315145824064,0.768380103593778,0.18491073534257235,-1.8406409193335318,-0.2000724415766833,-0.14177065514622933,0.1963518974962814,0.2930639623323634,0.8117322035173908,-0.04560392058244998,-0.08323600478932883,-0.03348354685994758,0.031918177402730376,0.09480325484343884,2.0703125
-0.06504124338289757,1.3327738885995284,0.32152264886583304,-3.190642803963113,-0.3464381578232831,-0.2462826924506667,0.34040513424629515,0.5075753030292236,1.4091853957907048,-0.07910639441466996,-0.1441789482298717,-0.05830225695737677,0.05541769632826538,0.16463058602175246,2.078125
-0.09282631737565848,1.887092791270949,0.45568911266866824,-4.521631643210527,-0.4908175557595583,-0.3490813678641051,0.4819644853758663,0.719296792200276,1.9961360268509878,-0.11203594351186827,-0.20396566923670204,-0.08268348446209436,0.0784560948405784,0.2333831578694724,2.0859375
-0.09140406752962844,1.8574332845412314,0.4485094480102122,-4.451901641576954,-0.48348408870659326,-0.3438108173669545,0.4743993095206194,0.7082851293559704,1.964688774636701,-0.1102332095416001,-0.20080578170470123,-0.08130101872324332,0.07717760654675535,0.22971836051597858,2.09375
-0.023655899425742533,0.49837558816612537,0.12016046434168244,-1.1931647769243998,-0.1297320404522261,-0.0929111993955639,0.12798648071358418,0.18990463496098595,0.5266638968954549,-0.029645429332043647,-0.05433568889383403,-0.021654570731199366,0.02061083991062667,0.061121951844842454,2.1015625
0.07525741467435457,-1.4864088806543447,-0.35914579028896865,3.56284798061234,0.3870864496259974,0.2736599517024882,-0.37767907465876255,-0.5666210583651557,-1.572922038371157,0.08787190344723096,0.15966021220095455,0.065206011799895,-0.061961333344689055,-0.18488803188403358,2.109375
0.12488767822440144,-2.481657507559204,-0.5993511265996979,5.9451165590914465,0.6461267186984277,0.45781531139665194,-0.631231800701349,-0.9456096261970436,-2.625731357878152,0.14671865335750797,0.26696867358946147,0.10862012937637873,-0.10334963999267568,-0.30796191117441524,2.1171875
0.09865398529404155,-1.953128765840923,-0.47154831447795126,4.67946087077842,0.5085029458261616,0.36066637961691966,-0.49680084388923745,-0.7446701108940796,-2.067000873328651,0.11543574095159312,0.20986523478991528,0.08543511769112011,-0.08133008677881656,-0.24223186224600368,2.125
0.04995890477370375,-0.9747940082313438,-0.23511448013226724,2.3389676070980814,0.25389145067538166,0.17998615466522433,-0.24775415858252478,-0.372821329780931,-1.0320943778942384,0.05759311166509454,0.10423280334176847,0.042690550259012715,-0.04060393542922442,-0.12104849807721016,2.1328125
0.03305672213075851,-0.6374199220680389,-0.15353987419608287,1.5304898011765462,0.16594774780484445,0.11722846040641968,-0.1616202728239365,-0.24402602295919282,-0.6743683997214825,0.037614126168201555,0.06786053920937109,0.027958739423985954,-0.026583142910910636,-0.07935706923710724,2.140625
0.025810921136219748,-0.49487932253709865,-0.11915024116678427,1.1846811222574556,0.1286238935176554,0.09060371814167222,-0.1248580921106824,-0.1882290226470567,-0.5227685311430201,0.02906805704258786,0.052596679919387504,0.021646232976273775,-0.02067145001250293,-0.06162850448330707,2.1484375
-0.03456335207481654,0.7160425308751167,0.173246472354732,-1.7188834046588737,-0.18644666649896152,-0.13291858890040362,0.183930560816071,0.2741319854678515,0.7582076694413441,-0.04271439235149738,-0.07794323036020266,-0.031431454468791795,0.02976596627445179,0.08857033361763383,2.15625
-0.1322112826085373,2.6776150255705895,0.6469757022507503,-6.417409964671602,-0.6966764629249047,-0.49493919458024954,0.6835729085217475,1.021242096513011,2.832898087000422,-0.15885755016898753,-0.2894676547915501,-0.11728195065324946,0.11147566826259904,0.331684559005524,2.1640625
-0.14987920605572008,3.034458623262894,0.7329657367427438,-7.271586287544765,-0.7895488713235703,-0.5606642180243501,0.7740921303511041,1.1565098959195965,3.209981684488167,-0.17992660373940428,-0.32781307489428074,-0.1328354493337888,0.12631301207869136,0.37580055753509956,2.171875
-0.027222740613917627,0.5734334065016284,0.13814686341925345,-1.3760493718699225,-0.14927712052680056,-0.10605820702305328,0.1467100902009266,0.21834631516183922,0.6056544617842686,-0.03413033483260895,-0.06217158185486042,-0.025047192544980064,0.023774990510251767,0.07060670994000802,2.1796875
0.1121783787293258,-2.2254991901367838,-0.5381213698085389,5.329463526516499,0.5791701409088112,0.4107502389598322,-0.5664261627321865,-0.8482742902998665,-2.356260824293478,0.1316372162283449,0.2397789210823333,0.09750400175115255,-0.09278128803333385,-0.2764622558313466,2.1875
0.09926430096210173,-1.9679807983390472,-0.4756854461993868,4.7127712929438825,0.5123310768376631,0.3628855027083034,-0.5004773576502242,-0.7498085658079081,-2.0835728711020653,0.11635028836217419,0.21182094515869784,0.08622232424474226,-0.08199467513869796,-0.24452803803267903,2.1953125
-0.035440162153799734,0.7350663285769999,0.17759518762815965,-1.7627185058952122,-0.1912301007429577,-0.13643041755871602,0.18853123697299806,0.2808118849949597,0.7774588488706073,-0.04376766080490451,-0.08000866462840464,-0.03215609346234591,0.030606071242023643,0.09073790139462795,2.203125
-0.08944447005314313,1.8201615080966074,0.4397706383755858,-4.3604662178211955,-0.4739159954813056,-0.3365466865514071,0.4649711646337433,0.6944469255502564,1.9263675201350696,-0.10802901017402874,-0.19715994953791482,-0.07972092195568165,0.07576227966144014,0.22542928120507486,2.2109375
0.01579658021634097,-0.29061569540544147,-0.07018349880323005,0.6988047996457304,0.07539226472097682,0.05346618914336732,-0.07296413654282753,-0.11028250668883384,-0.30675108584587296,0.01697140456530762,0.03062179653576989,0.012653384843743745,-0.012170019208433235,-0.03624089090735191,2.21875
0.11665975385645136,-2.315495330136265,-0.5591387255445807,5.549024006638651,0.602669098561344,0.42709931446043603,-0.5887011338358372,-0.8819237927356655,-2.448729198728956,0.13682911233107778,0.2491418878818541,0.1013011652702012,-0.09646723544524975,-0.2873411018105682,2.2265625
0.06379897825800925,-1.256912118187007,-0.30312941917067426,3.009129383186947,0.3273996382948925,0.23119355932686486,-0.31864309318540357,-0.47800152772122384,-1.3281014593552338,0.07408141220632869,0.1349413858602406,0.05495206852579105,-0.05234156748957947,-0.1561151104930056,2.234375
-0.05117106246171583,1.0493852779290438,0.2538620210121668,-2.517605839825609,-0.2728652239826919,-0.19456804447185747,0.26888856589644644,0.40087160711602987,1.1112357101263655,-0.062454339508843874,-0.11382782117397021,-0.04601402748541044,0.04368585056283651,0.12978180559147376,2.2421875
-0.06074554030415139,1.2432805119348143,0.3001579339545892,-2.9793687698544424,-0.3234435757949047,-0.22982786504545552,0.31768807652969777,0.47374305181522114,1.314068078507245,-0.07380260345863947,-0.1346633447908321,-0.054424715739577405,0.05169570511929271,0.1536955556328941,2.25
0.012926968407343059,-0.23290813721377854,-0.05670682667779079,0.5598951371560352,0.0607680369536614,0.043029109567398915,-0.05890824413059391,-0.08984639453276626,-0.24920642695010203,0.013720165533085957,0.024534192581708098,0.010330603332244882,-0.009814960619816642,-0.029404805916230698,2.2578125
0.03276006403636917,-0.6303845690779097,-0.15242498150203182,1.5119816481705413,0.16430812058991262,0.1162531446030428,-0.16012718267557674,-0.24147660788083447,-0.6690300887676448,0.03725385831497151,0.06723308922578414,0.027773201505378844,-0.0263449030819352,-0.07860714829861483,2.265625
-0.012441836006098031,0.27642314327759215,0.06691321188096393,-0.6613167958511569,-0.07172866810127951,-0.05135698073779464,0.07114489621475881,0.10447607977833559,0.2913104168591141,-0.01651435955985607,-0.0306186234140672,-0.012008834579824868,0.011446956554839547,0.033931511752590605,2.2734375
-0.0302182872336474,0.6334253367265229,0.15297968817527782,-1.5163733686624488,-0.16479173184693385,-0.11729175906355442,0.16207705196241148,0.24071206381005278,0.6684494836487476,-0.03769400611753116,-0.06894569032501428,-0.027701145043648148,0.02630247022322549,0.07816991140681867,2.28125
-0.0069125258504318275,0.1655416292621456,0.039714919755263776,-0.3953731559649817,-0.04308112164015497,-0.03105785389824837,0.042718074212644036,0.06224798667647652,0.17273301705130262,-0.009960444280829782,-0.018359220210095905,-0.007171757099472954,0.006785846337899147,0.02002500718848648,2.2890625
0.0063712071827748745,-0.10259453917498682,-0.024941114743954444,0.2468813356191208,0.026788862054574453,0.01816732107854016,-0.025524180687383522,-0.040069887981497854,-0.10985692258060432,0.005955996496781857,0.010494390671692617,0.004609500095181109,-0.004394090620189475,-0.013334810850341288,2.296875
0.010859127447152887,-0.19424646032789253,-0.046788545886872465,0.4670652024762245,0.05067164493574211,0.035054146328173164,-0.048495557430043745,-0.07451424979749065,-0.2044199782153814,0.011348934500450242,0.020312388785702754,0.008540852826355395,-0.008187898441474986,-0.024678022393559675,2.3046875
0.021642151553244476,-0.4112912869073882,-0.098966915205951,0.986030568654772,0.10703266362925172,0.07529690053298552,-0.10324618203376776,-0.1558401340245065,-0.43198515626834194,0.024075440151961034,0.04371647442425577,0.017897053820755102,-0.017159976234016962,-0.05136563666290571,2.3125
0.0070438833194943025,-0.11873248490765333,-0.02807283453467257,0.2798857516965649,0.030801578839323728,0.02126919720938847,-0.028276344922938783,-0.04279059845515469,-0.12172370019349459,0.006615752211245414,0.012130699571105378,0.005006424029011279,-0.0048911106171805555,-0.014774982671573615,2.3203125
-0.03225896777001341,0.6701112518809149,0.1624150796443515,-1.615536303341838,-0.17442790057125596,-0.12441297925631942,0.17266905567951343,0.25834668109446857,0.7117114526100756,-0.04013912255740623,-0.07289000770173582,-0.029525325961878398,0.027996631519111075,0.08316445815569962,2.328125
-0.036188689832554785,0.7505649494853603,0.1812793407634326,-1.8077169507422084,-0.1953413005206484,-0.13886551291499732,0.19269002521049555,0.2883395322646797,0.7941972855713416,-0.04484188110775663,-0.08134052757509598,-0.03301229417363342,0.031304149283330855,0.09300053375476526,2.3359375
0.005596677915837292,-0.08635556702778188,-0.02135538897174145,0.20313114929162696,0.022281115616914565,0.01616002454158382,-0.02096360704243757,-0.031600700374292294,-0.09323427976362327,0.004817683716735132,0.008972498007128625,0.0036840057092244975,-0.003618281871703456,-0.010930718570548658,2.34375
0.03619363980407077,-0.7009233959706954,-0.16952041196828385,1.6803060988652812,0.18209478999709802,0.12943979732343275,-0.17766232254813416,-0.26686221850335134,-0.7433275653100123,0.041314003988594736,0.07488261121210592,0.03069824153932143,-0.02925619072166406,-0.08717438578221878,2.3515625
0.03115084174041937,-0.6011018573832848,-0.1449077452222621,1.4435577435396725,0.15639437419428223,0.1103384781769912,-0.15234320753763603,-0.23022122607182563,-0.6370818769221543,0.035513968890240485,0.06373552251171707,0.02646473150594533,-0.025134191977607037,-0.07492612270184316,2.359375
0.009741008440209134,-0.17052325043598252,-0.04110108155835402,0.4149924185880809,0.04482534559434664,0.0307041833415683,-0.04291820893934399,-0.06733331166484043,-0.18225072039699236,0.010095181651821758,0.017380071919397614,0.0076844514993119764,-0.007243555175577442,-0.021837980926596175,2.3671875
-0.01083534042864059,0.24531413785083922,0.058743030761163516,-0.5788471624702833,-0.06322855386916813,-0.04555902030166322,0.06285851553863694,0.09113261173273096,0.2566964258192694,-0.01455068002746832,-0.027095113480122127,-0.010560514081448542,0.010056860438450103,0.02955739239785899,2.375
-0.0027782178463935,0.08526161756441673,0.020011971564079446,-0.19842052827025927,-0.021849229206836577,-0.015779116225541588,0.022182160817631042,0.031232476190415633,0.08794117604354627,-0.005184951560704844,-0.009593777176475653,-0.0036295116885207476,0.0034205535123962736,0.009907820930419139,2.3828125
0.037517906033071376,-0.7244509666037466,-0.17508111379616015,1.733736417246896,0.188522356907401,0.13333764780405796,-0.1838913215730437,-0.2760909267635969,-0.7671592547148941,0.04265068881577614,0.07775092445602874,0.03178119579248046,-0.030233134868029764,-0.09013336879847511,2.390625
0.03393977639513996,-0.654751164135762,-0.1578564292591951,1.5614665522262976,0.17019987223434438,0.1201837992451847,-0.16589849581478008,-0.24869121506845698,-0.692583420956365,0.03847923223219754,0.07012360073878507,0.028701978685120037,-0.027253840099430247,-0.0812733563922126,2.3984375
-0.04583802151806848,0.9448606253601256,0.22851955900234608,-2.2696954657280326,-0.24610614627154748,-0.1749811881790287,0.24183216397423157,0.36111768956114465,0.9997359671757635,-0.05621979084690062,-0.10253033714174449,-0.04138004431078083,0.03938647500961695,0.1170435951459847,2.40625
-0.07900075593147286,1.6095538379419494,0.38883062033577703,-3.858097900994526,-0.418867658979884,-0.2975714005004986,0.4112194902185435,0.613934685656541,1.703003049279998,-0.0955329442746723,-0.17418660380996898,-0.07051708444733192,0.06699195013723563,0.19921954936805902,2.4140625
0.010720328560535987,-0.19261399462434803,-0.04667633593825469,0.46207315540831273,0.050589057691938645,0.0349539485853542,-0.04789244642760959,-0.07350910243248951,-0.2030874262773618,0.011203088439462845,0.020370414167643226,0.008368325579380172,-0.008166208199849465,-0.02454928351927158,2.421875
0.07900881284613069,-1.5654970676411422,-0.3781296703996724,3.752419443914473,0.40816656989790684,0.28822622238897216,-0.3973848256813978,-0.5967958720766237,-1.654777026457123,0.09247730278217926,0.16839722399937407,0.06843376206277894,-0.06535233695578155,-0.19487697379530927,2.4296875
0.005587724436840269,-0.09285377917368456,-0.02196785703224931,0.22522333791246527,0.02468179387134919,0.01638726425242174,-0.021909143428959308,-0.035233586278059226,-0.09651305698069781,0.005249473949231775,0.009171945445920376,0.003925296038164981,-0.003942565016970149,-0.012056778675702427,2.4375
-0.08181976555676972,1.6642456270223784,0.4025753276230001,-3.9852270468799103,-0.43316180611481037,-0.30785150261072225,0.42556288240723184,0.6347251000958887,1.761637148495706,-0.09880274959651071,-0.1805649178274105,-0.07294521418733364,0.06929614667581034,0.20611330590467128,2.4453125
-0.04371392298970904,0.904373428433185,0.21858986922778278,-2.1678005749188243,-0.23584767853158972,-0.16733813128073288,0.2314574158351963,0.34554319513746273,0.9565205817843313,-0.05381685417300555,-0.0983451744103186,-0.03957177667418365,0.037661972125459915,0.11204745672791273,2.453125
0.041766770825779356,-0.8085040390768666,-0.19550849630566158,1.9333207622422857,0.2097622859435287,0.14917506350215934,-0.20523387719609737,-0.30688511928328344,-0.8560880565293303,0.04760268748174749,0.08668211820202142,0.03545081340541444,-0.033658546096550036,-0.10026670606026114,2.4609375
0.061066982785840565,-1.1966974882525818,-0.2890811822720079,2.862493338633603,0.3108276666986041,0.22095005521301395,-0.3041634623167504,-0.4550507755588819,-1.2665094229998402,0.0706222604064481,0.12842776340197118,0.05241622329949937,-0.04979750302310876,-0.14831117472935734,2.46875
0.03259889063669739,-0.627148668330577,-0.15123190912344303,1.4967647087037506,0.1627897123882926,0.11562655163080164,-0.15904136431867844,-0.2384218072885906,-0.6638154055270502,0.0369343649050597,0.06680323009444611,0.02749031296646089,-0.02607515702121758,-0.07768108530617479,2.4765625
-0.005471094817769499,0.13626486143048053,0.032969576496004016,-0.33311597525037473,-0.035616962662915246,-0.025485955806832307,0.03555003491808652,0.052627063079904744,0.14354007312439926,-0.008292165773788478,-0.01537581914820765,-0.005886918616985687,0.005676452332555385,0.016775801081867575,2.484375
-0.03855179319772191,0.799901550480321,0.19279170752372815,-1.9194067351343467,-0.20799433102018894,-0.14803900012447732,0.20473628593185078,0.30534960305653985,0.8449297652729818,-0.04759921358287039,-0.08664756061502898,-0.034913757152449786,0.03322493700238764,0.09865511212879662,2.4921875
-0.01485880238083081,0.32306784190132165,0.07738266579897708,-0.7694912654973707,-0.08341638138128167,-0.06017226060608971,0.0830975232680257,0.12194867423028594,0.339389507177376,-0.0192592501312911,-0.035168319512336434,-0.014016904136316998,0.013255502199743476,0.03908102941730239,2.5
0.047152110474773065,-0.9231990246673808,-0.22344959425703512,2.220702113265999,0.24141179831084436,0.16960474194826758,-0.23465316309300802,-0.35484928383641845,-0.9796860993672121,0.05465527473657866,0.0990734902197696,0.04054341993457542,-0.03869053101862701,-0.11564819130789844,2.5078125
0.021714354103823098,-0.4127860143961523,-0.09973493124955443,0.9959869972426023,0.108564715558376,0.07539777882704402,-0.1044232370746853,-0.15996454618746309,-0.4387629106714864,0.02437652611235563,0.04389297026315371,0.018103895761490747,-0.01735460191450389,-0.052114672528861296,2.515625
-0.07483122397106833,1.5267596598940123,0.3690980664582018,-3.6547826337098,-0.3968920519417986,-0.28225069107342166,0.3902138317332838,0.5814512654095446,1.615102866793989,-0.09066152822963619,-0.16529417567907648,-0.06695469897918563,0.06354667255220617,0.18889283413870822,2.5234375
-0.05306678114278422,1.0913380478841526,0.2640846643461722,-2.614662782982575,-0.2843252197246478,-0.2016536592989415,0.27953983458210757,0.41732132344330275,1.1560425169432396,-0.06500941699570735,-0.11831382965016911,-0.04796261830896056,0.04549336618794464,0.1353096317468169,2.53125
0.08555689806059058,-1.6923212649448958,-0.40819018838399607,4.051562200984853,0.4399519262304147,0.31198535537330685,-0.42961699654824864,-0.6430151752409514,-1.7879502352103027,0.09981238954947269,0.18182020981777217,0.07391955798319808,-0.07039869040411637,-0.20972461604608406,2.5390625
0.10871966647716133,-2.159924377313895,-0.5211706897815422,5.170019215502092,0.5618540216495975,0.39809012669213834,-0.5486859302595096,-0.8212679855290833,-2.2823440998289892,0.12756258464463463,0.23208977699325814,0.0944372207698505,-0.08988030438223842,-0.2678134243709909,2.546875
-0.0168499251357738,0.360308431166345,0.0870991985056347,-0.8670084200981975,-0.09404018037484117,-0.06702525435773996,0.09315449429597018,0.13872967788393986,0.3827500429008059,-0.021546427372240107,-0.03970550239073205,-0.015771954518854322,0.014973781357988056,0.044415392212944035,2.5546875
-0.06948892776964025,1.4201976016987867,0.3424252099405535,-3.404649086468476,-0.3700891941946809,-0.26255319907436203,0.36243696888765736,0.5415611107577596,1.5016836375787599,-0.08416646795686973,-0.15371082696747854,-0.061973259734944684,0.058966013281708925,0.17556269790994122,2.5625
-0.00014729607357490547,0.03133475591988164,0.006873379484154431,-0.0771532334544442,-0.008565618940984475,-0.0062924423925377285,0.008078625957482858,0.011224969788637785,0.0310159241159381,-0.0018993063133456002,-0.0036752028973437434,-0.001094154778939234,0.0010908725261045285,0.003301081118094105,2.5703125
0.017418269143567776,-0.3218808659985856,-0.07780178945670403,0.7697020266895859,0.08380906205938876,0.05883859515202952,-0.08154564989866729,-0.12351786221579038,-0.3417773950590117,0.018914045386265663,0.03423769273127982,0.01421609879741728,-0.013516027997569624,-0.04031296878021131,2.578125
-0.04082071627086173,0.8447675516476935,0.20445761759557435,-2.022898747994098,-0.2194510752705742,-0.15631694443389377,0.21639922923118146,0.3217170096222391,0.8937914792598024,-0.050262272140108505,-0.09195143236678617,-0.037037389756245126,0.03516421027873372,0.10450081421331991,2.5859375
-0.04069202546932827,0.8417134772952871,0.20351880696315158,-2.0147494751113055,-0.21865732275106128,-0.1555629445663516,0.2158534432988666,0.3211584870317863,0.8902593480866317,-0.05011742183021311,-0.0916524087994644,-0.036921987606192336,0.0350487387096312,0.1041035698341543,2.59375
0.007714790314452773,-0.12891065573378138,-0.031202515206507013,0.3085495493578162,0.0338678096378119,0.023513777157485746,-0.0316127225237235,-0.04867952377731532,-0.13805887135198922,0.007309521470973948,0.013314022778937397,0.005605464325160532,-0.005376181981554102,-0.01633659882185192,2.6015625
-0.0006182928999067029,0.037773881522622045,0.009181706889619123,-0.09194918822066367,-0.009450610463261577,-0.00745770260781877,0.01079464827964422,0.014470313884793855,0.03764197096637884,-0.0025949041341744618,-0.004533613590717149,-0.0017375439930561673,0.0015780772207698655,0.0042711832597970905,2.609375
-0.027602838410060438,0.5770780032535838,0.13963935514029815,-1.382945764614887,-0.14988666388923447,-0.10706598161972276,0.14827702738382562,0.21980703950490793,0.6093133974528174,-0.03445604701687796,-0.06286898224661658,-0.025383309569210193,0.02402196314802554,0.07113224845275723,2.6171875
0.01145118384063239,-0.20758739758645134,-0.04989308974853997,0.4963552653005633,0.053907390404513734,0.03783320859514325,-0.05172983525134537,-0.07887869774187317,-0.2188358954775044,0.01213011810302984,0.021597049192171484,0.009041422552091226,-0.008683642820753651,-0.026060728760278346,2.625
0.0649562876004399,-1.2791923276002524,-0.3087673804877774,3.0609458350886527,0.3325273592680093,0.23571007336080463,-0.3250404804863997,-0.4869856741476638,-1.3514740815515085,0.07561889692928847,0.1372409452750108,0.05605420035568262,-0.053300559016733064,-0.15878520229809695,2.6328125
0.05983902172289102,-1.1738022562527899,-0.2834507360390219,2.808560712779424,0.3054757568151659,0.21636176671268242,-0.2984217022311458,-0.4473234266265887,-1.2408075467413904,0.06934972321071821,0.12607071327783786,0.05147886959907344,-0.04890402659222125,-0.14579784527609158,2.640625
0.028175432509525082,-0.5383363828202578,-0.13038823912349082,1.2906388299975562,0.1406848595275888,0.09915618388745796,-0.13652499478651145,-0.20593473085241676,-0.5702849146147833,0.03174268637283835,0.057653948795999534,0.023670130466845764,-0.02250260137262988,-0.06736109813088126,2.6484375
0.004605942882262041,-0.06732120897522142,-0.01690449045438907,0.16624694859039907,0.01806982793788749,0.01209795017820217,-0.016322058808308233,-0.026443444326366614,-0.07274246770485654,0.003888727488217252,0.006768708754650243,0.003049042239093938,-0.00296838220180894,-0.009160836075395725,2.65625
-0.029312065424107497,0.6122389805448295,0.1476380746363879,-1.461829810033988,-0.15939584816682684,-0.11369036213250423,0.15710615098902525,0.23330708001579226,0.6471176363983877,-0.03641478685429593,-0.06677608265363212,-0.02676110393983568,0.025335889890280603,0.07535612054824047,2.6640625
-0.05761286269696527,1.1806617182116048,0.2856125410743199,-2.8264150612143606,-0.30767914469571084,-0.2188818278197571,0.30217336830317476,0.4506523800836852,1.2498306010022515,-0.07021279448390032,-0.12823559618674576,-0.051744214082000174,0.0490907012833778,0.1462155336279457,2.671875
-0.04022228070773223,0.8320650370468294,0.2015510496637748,-1.9949779908292051,-0.21678471037691344,-0.15442661290292375,0.21345505581121316,0.31819267475803287,0.8813522541345997,-0.04965565465011531,-0.09047746383638595,-0.036535788182868484,0.03464477829547302,0.10306941693037007,2.6796875
0.004189458002533003,-0.05982230954069503,-0.014218825135505096,0.13829010411490092,0.0154399830531485,0.01055511205036976,-0.013843407696675325,-0.021425380342727673,-0.06295772526388531,0.0031760473750263567,0.0059774589011099555,0.0025235246921582466,-0.0024779430539692386,-0.007620751118504353,2.6875
0.03446215886960972,-0.667852545086565,-0.16133371521997453,1.594708426192221,0.17352780621026737,0.12301025318714531,-0.1689566085269079,-0.2533060772046505,-0.7072289707751943,0.03926008237023656,0.07156792484828664,0.029196141900898784,-0.027816814996449134,-0.08304966421363756,2.6953125
0.04632527522809874,-0.9047317181314342,-0.2187260761833236,2.166618800379861,0.23532220857632932,0.1667248981348355,-0.22964606981197164,-0.34469175123831586,-0.9588402304292349,0.053386582555635706,0.09699317666190975,0.03966272683095604,-0.03773821246151073,-0.11255528899895813,2.703125
0.035630963649059016,-0.6876028170047813,-0.1666211687711842,1.6509069190613035,0.17936077417984686,0.1266299088662369,-0.17472988385737817,-0.26340353686644474,-0.7300221799832368,0.040620375817823205,0.07365471835240506,0.030265495280456835,-0.028776627125433885,-0.08595339041624932,2.7109375
-0.007404427826089684,0.17729693537139568,0.042188520745285375,-0.42203569195386764,-0.04554476298057816,-0.03291530709484331,0.04542603531586868,0.06578354677275035,0.18507918091436756,-0.010554539762698937,-0.019489406721278038,-0.007578233191906846,0.007218082242860642,0.021197693284703042,2.71875
-0.04818367420565757,0.9940060448796353,0.24002144235551903,-2.3830572584524883,-0.25852147698262123,-0.18361270731099527,0.25378394853318476,0.3780463026584623,1.0508480140977188,-0.058960596455870685,-0.1077661164716098,-0.04344199000410873,0.04131865821692852,0.12285480412968153,2.7265625
-0.046555985631471,0.9585064959347678,0.23220792737090568,-2.300399736866049,-0.24952138535614662,-0.1772276945110924,0.2454016437613032,0.3659126215270701,1.015693742821807,-0.05698059667556881,-0.10431281640690744,-0.042039276797926725,0.03996782926282496,0.1188776284011392,2.734375
-0.022725128480766896,0.478950292892827,0.11663186335054387,-1.1508858030410098,-0.1243584864850858,-0.08902100023402731,0.12374428003568555,0.1837193556013096,0.5095213893365222,-0.02871022289891617,-0.052684596257835906,-0.021129820711193688,0.020036940396375987,0.05941892999557081,2.7421875
-0.008711847480730702,0.1981195317689017,0.04851440590791588,-0.47658433463062044,-0.051010141607631086,-0.03737373483829164,0.05211775319833891,0.07619224499242842,0.21149747493073484,-0.012093501104152441,-0.022205908933317836,-0.008813053301761962,0.008270842428127456,0.02434081617292508,2.75
0.002189022071165939,-0.019833297725342623,-0.004667878980114708,0.04778064144008734,0.00542127618254829,0.0029886968964188926,-0.003940269271543267,-0.007716145286314121,-0.02123597954754466,0.0009406932019694615,0.0014605341898564317,0.0008338799229613538,-0.0009007650103088371,-0.0028898541478675536,2.7578125
0.010265264185860226,-0.18125389720342894,-0.0441874527554668,0.43668572846704357,0.04707799464852061,0.03309933075123042,-0.04538801996305887,-0.06936612079004305,-0.1934519513590976,0.010611279968927335,0.018958639637413732,0.007992659842568072,-0.007656629317680177,-0.023019281149878366,2.765625
0.005830521721750867,-0.09238439010688992,-0.022780553080994068,0.22283423932124438,0.023855627474325035,0.016770046791082276,-0.022500987174654895,-0.034643958382233005,-0.09878500801194316,0.005297152830090633,0.009444047970423848,0.004079133361870436,-0.003918720269496356,-0.01197209192464837,2.7734375
0.021086659590731808,-0.3997628837224094,-0.09649868126428411,0.95584606032691,0.10369380816602705,0.0732213949800914,-0.10048890340151653,-0.15110484048404765,-0.4224439028145661,0.02338680929338707,0.042527490362054075,0.017455436931119932,-0.016676454839405698,-0.04987057505965383,2.78125
0.07261585339018237,-1.433905490159837,-0.3460660536767662,3.4328295687966146,0.372596859454138,0.2639650457642862,-0.3642216835525538,-0.5457767571773406,-1.5168993017613355,0.08464849398096705,0.1539600793864736,0.0627634229488231,-0.05976480082310489,-0.17798469514013016,2.7890625
0.08608459094052398,-1.701085886495169,-0.4112789139717488,4.075629821499813,0.44223640341976594,0.31363757603415576,-0.4328780206672266,-0.6484861350853175,-1.801794431993838,0.10058111832370657,0.1829504440351299,0.07460407408732633,-0.07095662602785478,-0.21131645847079822,2.796875
0.0091130327729381,-0.15338628119936676,-0.03794506292571467,0.3681943709034509,0.03984821536840557,0.02828458758210468,-0.038616383274613315,-0.058475742603207884,-0.1648885523894694,0.008929117264176044,0.01628792929840509,0.00688798188645244,-0.006511872804816834,-0.01958136401274418,2.8046875
-0.0714164849690715,1.4611992465730657,0.3527868607210621,-3.502310070167756,-0.38000572848283654,-0.27003893741216967,0.37326997313673466,0.5572822656939254,1.545711588703993,-0.08678556112987042,-0.15799724260547288,-0.06392684742819113,0.060795724477928505,0.1807700998367748,2.8125
-0.06108493646757419,1.2501038314412567,0.3027572767747606,-2.9966178636106235,-0.32477069823857496,-0.2315769037009294,0.3197716742427353,0.4760978710173999,1.3240919774231292,-0.07430799252522094,-0.1355864478708264,-0.05479358399113551,0.05204653227893144,0.15471395517351944,2.8203125
-0.009103338529861045,0.20634621139102227,0.050368027164724175,-0.49375160626372583,-0.05292115871372687,-0.03888121721298662,0.05361592766448677,0.0775167696189954,0.21854817441012195,-0.012435327264602192,-0.02295276320191481,-0.009065399888215947,0.00853743883655362,0.025101235660868783,2.828125
0.0016302168188702501,-0.006981345194589918,-0.0020327464994303428,0.017529859326752013,0.002347747408235916,0.0008811429377556658,-0.0008668578162833212,-0.0029969807503859814,-0.008670346963506985,0.00020829011072008262,0.00038066734390128023,0.0003374907779169036,-0.00039516734059887433,-0.0014852503672295415,2.8359375
-0.003438152314558613,0.09506380388449967,0.02255668617351079,-0.22739815017872778,-0.024703937955975277,-0.01783242087392706,0.025314182350156946,0.03687392405430108,0.09975156258026902,-0.0058584805252929525,-0.010705777083251015,-0.004132078046816592,0.003863359447903902,0.011323328981123615,2.84375
0.01904941217060067,-0.3576791030735483,-0.0863067229337879,0.8597194499225338,0.09316081323488969,0.06569251339892099,-0.09001963216184801,-0.13645437141679936,-0.3786445271479261,0.02100474415566126,0.037721716806259124,0.01566391089698383,-0.01495887748695,-0.0447113895571726,2.8515625
0.026371217789613863,-0.5050979855646613,-0.12177884306056207,1.2141255366860078,0.13192343619732286,0.09303072100887622,-0.12777161719038166,-0.19367926513890252,-0.5349543003852322,0.029793883089108353,0.05349774783892137,0.02208764912310803,-0.02106905073231663,-0.06303864145676122,2.859375
-0.011874444493653878,0.2623618497675626,0.06367318876394841,-0.6289391732184784,-0.0680515776945558,-0.048624682909358896,0.06784827412873656,0.09966701387866027,0.27770476413137246,-0.015710999804214712,-0.029170717234271143,-0.011573052965170659,0.01092928115953082,0.032284062969836005,2.8671875
-0.03528744421663252,0.7311194652961205,0.17727882830078126,-1.756084217990592,-0.19079570612377536,-0.13550007566362263,0.18754252979939007,0.27960571111529897,0.775353482074013,-0.04354304782372455,-0.0798055387093253,-0.03211574360270124,0.03046008318972788,0.0906867459453142,2.875
-0.005371897520927124,0.13065191997654768,0.03213026511717469,-0.3152531976528447,-0.03461187745100229,-0.02483091574385119,0.034428238574102946,0.050338421598393766,0.13972611922046108,-0.007928501715610613,-0.015090716656279342,-0.005727812188983402,0.005398965511088028,0.016105443036929068,2.8828125
0.018531280768973608,-0.34655704040464,-0.08403079294522546,0.83078469237916,0.09016494288355686,0.06359199780828893,-0.08753081369768842,-0.13225083525020137,-0.3676422974194024,0.020403413397413306,0.036738159882372896,0.015288562648511502,-0.014524402985135815,-0.04347290252249381,2.890625
-0.009957725811254581,0.22768661968086476,0.0541476423492049,-0.5484390214294054,-0.05917222700881225,-0.0421771628157163,0.05876970790324074,0.08755205905634998,0.2388075746614932,-0.013683482781338784,-0.024761478592176506,-0.009837006415850103,0.009412968176877038,0.027685277751496262,2.8984375
-0.03948069892956895,0.8203703976733202,0.19769737522298989,-1.9727641432349137,-0.2138774860927818,-0.15185017845573673,0.21004796851181143,0.31461283512807,0.8668925529069353,-0.04892193598703935,-0.08864048762113881,-0.03584050355902367,0.03412993036936342,0.1014614109614908,2.90625
-0.01015232819564216,0.23081955460432982,0.05566098209315127,-0.558486582684108,-0.060447057561800924,-0.043221946201004044,0.05990144741119027,0.08943408670428289,0.24355318889497707,-0.014037228512800788,-0.025201820183842854,-0.01007779115457656,0.009565847928945758,0.028406024247869192,2.9140625
0.04808887384888333,-0.9394364430352474,-0.22699294276652102,2.2494745006526,0.24467345666503676,0.17297198822721668,-0.23820639406418853,-0.35749626567170195,-0.9949348807306566,0.055286288853473156,0.10095552776695357,0.041059336521935816,-0.0391531125274093,-0.11685319253791786,2.921875
0.06490920217705042,-1.2799696063650863,-0.3087187796094589,3.0653679582721223,0.3334674405513054,0.23572587811007975,-0.3245052390877168,-0.48697289594472765,-1.3538005662653179,0.07540024855399345,0.13748497999275566,0.05581368807869006,-0.05324843901374829,-0.15894400860588165,2.9296875
0.03664885968043513,-0.7157509130911268,-0.17159642053170823,1.7117561678759183,0.18624333937944795,0.13099632008798415,-0.1804011776851806,-0.2715620756188609,-0.754583191295954,0.041974859587317594,0.07623435516235877,0.03109489426582443,-0.029728711173167072,-0.08873309079155633,2.9375
0.021621632876750424,-0.4131329094859326,-0.09882303970144056,0.9892413067294864,0.10741231725172341,0.075045076650178,-0.10386967078679575,-0.15752139208426003,-0.435120356267574,0.024248176292618794,0.043484167838651486,0.01807513323024985,-0.01726543193038855,-0.05144915903372079,2.9453125
0.032116059619721596,-0.6189183961595982,-0.1500009990749014,1.4888929175495327,0.16153713627970617,0.1138845450828007,-0.15739167916878588,-0.2381322638414899,-0.6563296175689557,0.03671294359448412,0.0660296396290234,0.027335866387487587,-0.026006869724719044,-0.07759865306331022,2.953125
0.008674648394796234,-0.14478821068473993,-0.03627050763516588,0.35801290474157726,0.03869788653819679,0.02712012192728895,-0.037038737022893925,-0.058521508396159605,-0.15664845112469553,0.008726129293237427,0.015194218586311172,0.006604349409613145,-0.006296686894354708,-0.01914055931104186,2.9609375
-0.06038550417223336,1.2412168079201178,0.2990351384762329,-2.962737190298832,-0.3220092796672803,-0.22892683427110247,0.31645151909667313,0.470130081260411,1.3106662961551225,-0.07346234214392725,-0.1343635187882755,-0.05417982035681521,0.05149164352684246,0.15288797729159745,2.96875
-0.09062757271947153,1.8471348106974437,0.4458786211462648,-4.418339301624262,-0.4800882321742449,-0.341270210227598,0.4710913207012605,0.701950260813641,1.9525916158585372,-0.10943242033691439,-0.19985801146462356,-0.08071948953144445,0.0767689385979074,0.2282822847811836,2.9765625
-0.04375804083227095,0.9065766772017987,0.2184577694416566,-2.1693757824834616,-0.23577127619367994,-0.1675939467253023,0.23133233871712502,0.34437630615527925,0.9571631992191231,-0.05373804053742851,-0.09839000072841896,-0.039508002315312006,0.03761732732883427,0.11182761339663333,2.984375
0.0004808124453183056,0.01816653955094742,0.003885853794853545,-0.04476833500914357,-0.005013942504121854,-0.003377022126258636,0.005256793283660626,0.007305632474638548,0.01801877514535996,-0.0012314083381252338,-0.0025378571321573564,-0.0007285932398013667,0.0006958052473473765,0.001956357480009594,2.9921875
-0.0018142465016123823,0.06127318253929436,0.015099282287591682,-0.15277215082664758,-0.01659348046479125,-0.011611342943363839,0.01723267028005693,0.02605640067667323,0.06624031435408595,-0.0040493354235043725,-0.007246776649911997,-0.0028484425046010667,0.0026287064912279274,0.0077355303219569255,3.0
0.013555148379308263,-0.2508612989017142,-0.05952110891752086,0.5891416431648556,0.0644986925178088,0.04549722891692985,-0.06146858570941329,-0.09112504589175786,-0.2620423215297197,0.014229334282560199,0.026358092662986207,0.010684585092383396,-0.01025647882317789,-0.03065428524058292,3.0078125
0.05760188757195282,-1.1366711559525338,-0.27331739239646924,2.7072616193822947,0.2950598576717293,0.2088072590857202,-0.2872496132706235,-0.4288512220696754,-1.1994650851806337,0.0667125674921667,0.12182993677772985,0.04949904854702683,-0.04712459559298695,-0.14043911079340365,3.015625
0.04644277711246187,-0.9124231864339535,-0.21928146979888372,2.171055105348919,0.23678239491040098,0.1674490339038962,-0.2306793337856631,-0.3449252387593547,-0.9634518056469819,0.05357506258196682,0.09756084416510437,0.03974862297932833,-0.03785872508896541,-0.11277591382775642,3.0234375
-0.014943739947042097,0.32084229844025985,0.07834499522575519,-0.7771994126835947,-0.08391934642993643,-0.06009213703116529,0.08319857584656969,0.12353930695643152,0.3401993770847702,-0.019359795695278743,-0.03539266930693648,-0.014216603323838145,0.013381366091416836,0.03983758045132104,3.03125
-0.021608036863067528,0.4565487817113533,0.1105400767837167,-1.0936804153147008,-0.11872266850710067,-0.08483381247161147,0.11752942874744454,0.1739325645117465,0.4824653844641176,-0.027296175567604927,-0.04982864765786714,-0.020090061419000264,0.0189266185928553,0.05622764483500205,3.0390625
0.02704371719560785,-0.5173362827684616,-0.12536051323348407,1.2462015239227735,0.13516410600739756,0.09528134615303181,-0.13112223015625904,-0.1987239522515052,-0.5492480079539391,0.030551903361545087,0.05526484192145283,0.02271064643012401,-0.021701501302715545,-0.06491369432068833,3.046875
0.031209740399530436,-0.5989914832910723,-0.1453706772454057,1.4441086469001496,0.15648253858027517,0.11030751636490765,-0.15242122439548839,-0.23093220967402922,-0.6360873673382119,0.035526068460416886,0.06394538346529574,0.026451490178759217,-0.025152369263658145,-0.07522901073384157,3.0546875
-0.015157668793703389,0.3323169015046927,0.07953208166775655,-0.7878746979900151,-0.08585260922155541,-0.061882262954049534,0.08485894729070567,0.12411897178529134,0.34974438151787407,-0.01964561107999507,-0.03644755894098061,-0.014271894996491983,0.013599954415172274,0.0401637499774068,3.0625
-0.039622356888992565,0.8241482317145811,0.1981164996444021,-1.967063898748765,-0.2135624102633192,-0.15258838770494945,0.21042886726712048,0.31240491987640334,0.8705224836944927,-0.048864330629581794,-0.08917440853536066,-0.035844681115310445,0.034088214016164096,0.10109254328131352,3.0703125
-0.03534481393294585,0.7401330518012489,0.1776164492753295,-1.766118123403505,-0.19164912541129953,-0.13663179909293102,0.18904248556710937,0.2809586300885449,0.7814402925515339,-0.04391008205470293,-0.07996314617535367,-0.03219050601897598,0.0306362116314031,0.09078570835114783,3.078125
-0.020131578356285557,0.435615737052862,0.10435262521123567,-1.0379501965829252,-0.11296518817673515,-0.08015250387284491,0.11133215132961258,0.16510133072394953,0.45912381949748876,-0.025855550395970674,-0.04738964402707052,-0.018877095716958264,0.01802907273954991,0.0533821183320774,3.0859375
0.030429465326437786,-0.5815610185689906,-0.1405897180145304,1.395968243807882,0.15120183593035788,0.10746664332389992,-0.14766923516381508,-0.22235124231233397,-0.6164680624235443,0.03433202777002956,0.06197347617061495,0.025550752053194316,-0.024246857715496017,-0.07236736485665703,3.09375
0.08748079238870149,-1.7306134216706792,-0.41750208192948873,4.14529224201688,0.45026514386719246,0.3192041213803534,-0.4400424094792647,-0.6599860291781366,-1.8313683026849215,0.10227224473950018,0.1858521204435106,0.07571607630724904,-0.07204994821958367,-0.21470095586828247,3.1015625
0.06495656551516642,-1.28096205144861,-0.3087389911028303,3.064835308488348,0.33330309123425983,0.2357833212560478,-0.32522751135529815,-0.4881408414586243,-1.355472556112931,0.07557304053405285,0.13746334899745277,0.05599845944765735,-0.053343304924017024,-0.15897489591505606,3.109375
-0.019393770749009245,0.41080610442608634,0.09985181651368248,-0.9909906982318673,-0.10739456186496074,-0.07683765275704696,0.10601950023843044,0.15763838455236356,0.43449078992836415,-0.02465643898636756,-0.045040763890733235,-0.01803889446940501,0.017086512984451074,0.05083549771285808,3.1171875
-0.05422288826490409,1.10729349303557,0.2683199524932499,-2.661837114503611,-0.2889777423091993,-0.20554533104934763,0.28400894758279394,0.42448132453796306,1.1727170313794957,-0.0659931302096379,-0.12033924659203414,-0.0486318741865047,0.046149380894079946,0.13737050933649197,3.125
-0.022076260351258533,0.4594300374195865,0.11220751571864415,-1.1106347678204556,-0.12007597179074432,-0.08594584369511174,0.11953075514415949,0.17844461437736914,0.48935111059347697,-0.027727261186405547,-0.050542300374440303,-0.020451132366065106,0.01925311900185126,0.057179414248352364,3.1328125
-0.005808451310742073,0.13470052476176422,0.0335849896763045,-0.33066351053979626,-0.03511907219067066,-0.025806107771922344,0.03668635748520141,0.054326233275639624,0.14613924757427352,-0.008470137838067451,-0.015395732988142844,-0.006232754991182844,0.005711410034990419,0.016846539019235128,3.140625
-0.03192867518172286,0.6651435072740249,0.16082738861673637,-1.596331952143449,-0.17299498766100102,-0.1231822132870634,0.1709965922798091,0.25514124821686623,0.7053079968281105,-0.03970865478072516,-0.07241036192364209,-0.02923535164129402,0.027696820736781685,0.08234852673622642,3.1484375
-0.04991035487741909,1.0305336253821042,0.24836289901902459,-2.466907917519398,-0.26791767909330144,-0.1900507471444454,0.2633555373654518,0.3929306431539893,1.0897543032857384,-0.06118071174051383,-0.11168733363537052,-0.045062065872897475,0.042847644920081536,0.1273616421846086,3.15625
-0.026074133698617698,0.5517200349056213,0.1327440304556687,-1.3189102561045505,-0.14312758893363467,-0.10165157543113637,0.14116484980336755,0.2095199914257448,0.5824572883643594,-0.032783546753100905,-0.059971983379394384,-0.02410049544793893,0.022898764249413187,0.06785306728292136,3.1640625
0.025164209280964116,-0.4775449121382237,-0.11567480789185766,1.1458205522539384,0.12449057011745318,0.08796763334199459,-0.1211892352894828,-0.18309680794987807,-0.5070165374435986,0.028157918341816763,0.051105444724954534,0.020970726187479704,-0.019994241211041045,-0.05976045264411014,3.171875
