AF3,AF4,F3,F4,F7,F8,FC5,FC6,O1,O2,P7,P8,T7,T8,time
-0.50752925950587,0.1021639481915262,1.4108124477396793,-0.6990582044303699,0.046967020354487715,0.07976451853723279,-0.25480210559485367,-0.1482432989222396,-0.0494622012924658,-0.036694507397865825,-0.001457807372243167,0.0029051115948709816,0.0062025072111408395,0.04830860159172407,0.0
0.5611893686599689,-0.1126913122817447,-1.5576389980156058,0.7718985086294687,-0.05108932004537851,-0.08922101079618798,0.28169206941810027,0.16377122333373156,0.05307825137361778,0.040955605064068985,0.0011199652148158777,-0.003241389446381272,-0.006471809384456378,-0.053355989882259654,0.0078125
-0.004388444894685772,0.0009540101516417297,0.013128970902972409,-0.006141098101788436,0.0007986919027276912,0.0001971449215009765,-0.002151674766841644,-0.0012599102813192443,-0.0011970243510606732,-0.0001185659139864611,-0.00024398507260266726,1.0674583874271146e-05,0.00023338225137966917,0.0004359822483962661,0.015625
-0.9530432461206619,0.1916147208273699,2.6477082532617526,-1.3113945139141518,0.08783041069190915,0.1501636014891161,-0.4782581862370808,-0.278131990180376,-0.0922209001151061,-0.06902323992747168,-0.002531673801947386,0.0054658266280696805,0.011481143457799325,0.09066346649127169,0.0234375
-0.13726731390875505,0.02763262622585664,0.38151422838862437,-0.1886476104205523,0.012980420902123275,0.021153094540104656,-0.06872362955757426,-0.03998937119391623,-0.013939008171885968,-0.009755250788838538,-0.0005638150880404107,0.0007740748284916799,0.0018061529366504832,0.013057930136203702,0.03125
1.935224884884786,-0.3889275925503872,-5.374772477103876,2.6632204710685885,-0.17715280825125768,-0.30650206757091064,0.9715194413890439,0.5649606899139605,0.184915136371401,0.14079615272389517,0.004434477871906694,-0.011144147729520408,-0.02276967551990494,-0.18406805529217035,0.0390625
2.6281519222284118,-0.5281596241003316,-7.298668716855965,3.6162033899754733,-0.24069661701031234,-0.4159772113806833,1.3191968713356037,0.7671734728036425,0.2513857506096832,0.19111765847489304,0.006104917532025629,-0.015127485814765258,-0.03098416111431172,-0.24994887461935522,0.046875
1.1396253909961298,-0.2289131356430753,-3.163512461633174,1.567117534561488,-0.10410850946982074,-0.18056284856980223,0.5719152163486743,0.3325927983998701,0.10855372616539301,0.08296524208629975,0.0025142466318627105,-0.006565463842236823,-0.013330229193882166,-0.10833743811564979,0.0546875
-0.5419292133795537,0.1091081345398653,1.5072427847935668,-0.7472191506758429,0.050161906424874135,0.08530553148535752,-0.27219203464175634,-0.1583184314634872,-0.052781616493653906,-0.03920511797029698,-0.0015414672231521967,0.0031053581544054822,0.00661131105983555,0.051611165070169156,0.0625
-0.9307254847162735,0.18727575874163857,2.587042590727553,-1.282169143758334,0.08581738113067647,0.1467515108439509,-0.46740718382792573,-0.2718418357924861,-0.09007837757386762,-0.06746021012948455,-0.0024792658244434137,0.005340761609327009,0.01122274031495677,0.08858920644065761,0.0703125
-0.7935102110550867,0.15971645610027346,2.205939250716296,-1.0932099499696715,0.07322346903663575,0.12504185971412682,-0.3986022342602742,-0.23180125006185606,-0.07691575735045258,-0.05749900556226215,-0.002148567946074962,0.0045512847419719804,0.009597086952057677,0.07554266039280191,0.078125
-1.0317535796565684,0.2075935669491732,2.8675278133346884,-1.420899103242546,0.09507659847811956,0.16268467832049924,-0.5181535255579055,-0.30133032843734164,-0.09977356801196578,-0.07480000208009709,-0.002723006863661942,0.005920925611104358,0.012422227457440753,0.09819972283975785,0.0859375
-1.1208197615688507,0.2254421931047441,3.114354502351378,-1.5430685128300141,0.10323165965063952,0.17672229019547814,-0.5626904973588426,-0.3272755696509626,-0.10830702681679029,-0.0812501854326779,-0.0029371511116032807,0.006431906870067192,0.013475817044662651,0.10664761345994292,0.09375
-0.4395371414849021,0.08845141973336873,1.2215862105742983,-0.6050683341257654,0.0407113590129938,0.06898433181937089,-0.22055838362052657,-0.1283447023309677,-0.04293221081382094,-0.03173834854777024,-0.0012935495282567556,0.0025126457375414467,0.005394547241009265,0.04182515562426998,0.1015625
0.5479901231544733,-0.11005975853874485,-1.5212340242308071,0.7540652835635092,-0.04989023703467174,-0.08713742366936642,0.2751720500442541,0.1599471374134305,0.0518136315789042,0.04000951776598116,0.0010881317164193709,-0.003166791071105684,-0.006315690817835398,-0.05210622780762094,0.109375
0.99978335527398,-0.20087257300621905,-2.775849606358685,1.375678847794656,-0.09133280498733276,-0.1585632308913249,0.5019222207122176,0.2918307232057303,0.09515795110893226,0.07283126477739887,0.002177717486536087,-0.005764522986883879,-0.011672370412882386,-0.09507480141792816,0.1171875
0.6003276995919207,-0.12058538248242032,-1.6664101319002076,0.8258788881001496,-0.05468251574351448,-0.09542512420574252,0.3014080925772803,0.1752400960808443,0.05683322095876241,0.04381256042609982,0.0012146020099056585,-0.0034668180816134126,-0.00693680273936755,-0.057082190924857515,0.125
-0.22293836967711067,0.04489744572386894,0.6200635047613097,-0.30705498020647987,0.020848023346213166,0.03473198999609483,-0.11183205114821357,-0.0650544947057148,-0.022160036454041483,-0.01599585795273544,-0.0007707034969989517,0.0012681400454475085,0.0028234816565564976,0.02122453338428699,0.1328125
-0.5527971785749098,0.11120962060488719,1.536355707315271,-0.7610528144301859,0.051119916216596666,0.08690671662368069,-0.27745721507866555,-0.16133862103839536,-0.05381991251387629,-0.039963096837881816,-0.0015664421885587213,0.0031657024227081105,0.006734916576394376,0.0526069249772717,0.140625
-0.021904132115201327,0.004500599827402611,0.06205897772317305,-0.030667300649926083,0.0024320275828723526,0.002998987030783459,-0.011064459144347014,-0.006392012478156297,-0.002889534040905433,-0.0014016204580978744,-0.0002864731834984487,0.00011309324874623822,0.0004415557700813116,0.0021165470458350028,0.1484375
0.48036553044925,-0.09644221866734733,-1.3328092021786258,0.6602500111213991,-0.04363330746043544,-0.07638209498060143,0.24099571556193014,0.14017528526108783,0.045303152998668814,0.03507740574163262,0.0009245468072955835,-0.0027751552775809813,-0.005512574846308716,-0.04565032207487982,0.15625
0.15542719113946088,-0.031085689209140753,-0.43022000688698736,0.2129019405387137,-0.013824075799024801,-0.024978163308307273,0.07790894292439948,0.04526779127831631,0.01413158619532891,0.011460503766871345,0.00014068014481899855,-0.000906527863725759,-0.0016588925107922936,-0.014732008760877633,0.1640625
-0.27421923998231323,0.055301343784863365,0.7630077181673972,-0.3782542085887715,0.025577451266096077,0.042947646430593484,-0.13770836434099998,-0.08016799598525304,-0.02708554409141769,-0.01975562052272686,-0.0008955671500332095,0.0015638507331443604,0.0034356139758096207,0.02613560867119528,0.171875
0.07745239832322508,-0.015410673000485037,-0.2140137079522938,0.10595340952449747,-0.006696511804178313,-0.01269580586415373,0.03882019949004195,0.02252913493632546,0.006660787065080597,0.005800758853285559,-4.730593996391369e-05,-0.00045902928579153335,-0.0007351612837734333,-0.0073281192883698516,0.1796875
0.5386593268609586,-0.1081447251736358,-1.4950244418682153,0.7406578698156034,-0.04900358401049187,-0.08563989418530069,0.27029210690625904,0.15720779328593984,0.050910453821848896,0.03931496210096544,0.001065133771529094,-0.003111097049953391,-0.006204731316998325,-0.0512021828217623,0.1875
0.26942414285455213,-0.054015934435129025,-0.7468985670646459,0.3699531579703434,-0.024298794696964634,-0.043056011823487436,0.135142755024914,0.078611607496058,0.0250738063625302,0.019754642994491204,0.0004158324696039555,-0.0015622440211022547,-0.0030119817087091933,-0.025581318257694406,0.1953125
-0.030449314948407354,0.006273725040756271,0.08611757896674542,-0.042644307962743294,0.0031970821664779616,0.0043573514478235376,-0.015333724810307094,-0.008952606344292844,-0.0036945524400082003,-0.0020334692279039683,-0.0003072920130906546,0.00016173741174611064,0.0005445280241035566,0.002944830726988574,0.203125
0.29328228218356295,-0.05882134412251664,-0.8133575655669671,0.40319240917229177,-0.02652166128215317,-0.0468606404246664,0.14720577029001228,0.0855466334049715,0.027376246009535806,0.02148877320803424,0.0004736790943190524,-0.0017011968241852388,-0.0032940725539957008,-0.02786427320960244,0.2109375
0.24822573437923995,-0.04978635196058409,-0.6883750382070237,0.34118867721905416,-0.02238118182335684,-0.03974665965505047,0.12458032265848802,0.07239718465820583,0.02305473393080056,0.018219617287130382,0.000365053135774538,-0.0014420575706894341,-0.0027597503276860463,-0.0235870943637158,0.21875
-0.7998844542231498,0.16090076534069636,2.2230024827026265,-1.1015086121545201,0.07379820719024194,0.12599625885768212,-0.401547710124528,-0.23357754160665373,-0.07751820283810334,-0.05792480608479373,-0.0021629300651628707,0.004586698835034327,0.009669242143195608,0.0761168951301972,0.2265625
-1.424800000444005,0.2865168746600256,3.9588140703117545,-1.961477328767795,0.1311348332265771,0.2248056880030111,-0.7152269684128768,-0.415995706572519,-0.13748620907426554,-0.1033232321164739,-0.0036701613091775845,0.008180921418076921,0.01707980152598158,0.13556040966633387,0.234375
-0.5543102636454208,0.11152709098045886,1.540797760297292,-0.7631758823329235,0.05126209332082058,0.08715318284817816,-0.278283988050945,-0.16185106541288266,-0.05396766703749594,-0.04008060062032831,-0.0015706582654036857,0.003174229680604634,0.006757042607767327,0.05275183324872468,0.2421875
0.4092566817132437,-0.08214128038535638,-1.1355223379451342,0.5628047449071844,-0.03713671380150837,-0.06517572487146307,0.20534781524381338,0.11943002402384101,0.038483500670428265,0.029915275175358733,0.0007531676874948816,-0.0023669614124027555,-0.004669312789808269,-0.03889552324186593,0.25
0.07597052005458015,-0.015105381541179113,-0.20956753771734613,0.10369816512917263,-0.006547177341476025,-0.012436362345926837,0.0380325542164293,0.02210095776959028,0.006507500018940101,0.005691366042406946,-5.077676396035338e-05,-0.0004492825293951869,-0.0007172119687130128,-0.007176774510072127,0.2578125
-0.34727438540047706,0.06996240980953962,0.9658601933854064,-0.4787249134307263,0.032275724001477456,0.05446726964040517,-0.17437037861831184,-0.10143224893514911,-0.0340939671485659,-0.02505394505246605,-0.0010712813118052085,0.001984518144457015,0.004300510141511695,0.03307625489694254,0.265625
0.617280440692114,-0.1239835107267103,-1.7136352999165225,0.8492389514675092,-0.056239027928212004,-0.09809080040959631,0.3098670747155613,0.18021524877427672,0.05845894050171261,0.045035989694545295,0.001255437284766718,-0.003564135913422499,-0.007139144636670266,-0.05869432258970403,0.2734375
1.687028599333748,-0.3390333207162328,-4.68479660018061,2.3215339530739754,-0.1543827905734596,-0.26721986617168675,0.8468480899816917,0.4925040997269889,0.16109387206815023,0.1227574500254351,0.003835287885396443,-0.009716765061225494,-0.019824237183179542,-0.1604476060439391,0.28125
0.8866971396246877,-0.17811049421327646,-2.461372552887367,1.21961030626358,-0.08093152158839337,-0.14062519292991071,0.4450671991033263,0.25879526492725663,0.0842949674393026,0.06460306830883497,0.0019044962498590062,-0.005112977912335771,-0.01033173657055335,-0.08429638730991809,0.2890625
-0.8003774664823464,0.16104155237229473,2.2245158685281123,-1.1024110293809775,0.07386164391930262,0.1261166796394483,-0.4018061355940262,-0.233732660575673,-0.07757441849361227,-0.057968253084732316,-0.0021644723741174833,0.004590079716739702,0.009674570557523353,0.07618481732051795,0.296875
-0.8791027408337725,0.17684220558800992,2.442723668492213,-1.2104690683375603,0.0810688907416032,0.138510644297384,-0.4412988514792529,-0.2566828192306325,-0.08511597252718557,-0.06368233820450488,-0.0023539516166779803,0.00504195084647619,0.010606961593476414,0.08365615580483883,0.3046875
0.4668881565589595,-0.0937393628076039,-1.2958975418064236,0.6421046039903242,-0.0424360415307201,-0.07432059777895642,0.23436544467679388,0.13623987570779436,0.04403768940045458,0.03410530250919111,0.0008923984673247699,-0.0026999688467291274,-0.00535401868003077,-0.044384213797963146,0.3125
0.8058657607581994,-0.1618642172755522,-2.2371572762016614,1.1084692964202811,-0.07353165913178265,-0.1278911055321787,0.40449300512093,0.23515788001204135,0.07655921964981717,0.058726007812906905,0.0017096495579150544,-0.004649242338314813,-0.00937215793963949,-0.07662130805662642,0.3203125
-0.32470118756801875,0.06540606324786946,0.9030545559792197,-0.44755147875330625,0.0302071793783254,0.05087276301353418,-0.1630822892026099,-0.09486158037916871,-0.03192691768336632,-0.023412133445687808,-0.0010171208784850695,0.0018539122114290788,0.004034475628982861,0.030922614883412632,0.328125
-0.8814545061644218,0.17731547611729354,2.449424144051372,-1.2137545661492637,0.08129310433534855,0.13890209633643041,-0.44260543004212405,-0.2573411415771504,-0.08535656945309847,-0.06385874469008566,-0.0023596900053718902,0.005056873860301826,0.01063538162424823,0.08388095456939246,0.3359375
-0.08449092874725567,0.017120452379454996,0.2362016400596591,-0.117039264360759,0.008169667172376854,0.012917129405614193,-0.04254913505275625,-0.024706927560341787,-0.008893098626485386,-0.005961797419274418,-0.00043756297157508455,0.00047373361026584453,0.0011851665587547266,0.008079902868139206,0.34375
0.42422944942781005,-0.08512339942873491,-1.1764285469562594,0.5829837280588406,-0.03851220530679463,-0.06750264608431762,0.21285527954787983,0.12374574518550106,0.03992093873026704,0.030994221475394608,0.0007891876747961107,-0.0024522527851862123,-0.004845641241346117,-0.040303983822284416,0.3515625
-0.3098453766740308,0.06243351353972833,0.8623058776121423,-0.42716935510269743,0.028831701498412785,0.04854126133262149,-0.15559234973492297,-0.09054516557020675,-0.030507893961686426,-0.022331124951480628,-0.0009812391039373358,0.0017692138984632965,0.0038595618390213876,0.029515234350505192,0.359375
-1.0846051033382669,0.21815229605596972,3.013915215098843,-1.4932753181706935,0.09991262061306433,0.17102198899232016,-0.5444727815553693,-0.31667819138947784,-0.10484392565820724,-0.07860980421672477,-0.0028496098713569314,0.006224888393079455,0.01304584482934882,0.10320146331198972,0.3671875
-0.8433575747855045,0.16964689186856693,2.3438363052950093,-1.1612201373865394,0.07777842635524078,0.13288478037543539,-0.42333464695923373,-0.2462451394716426,-0.08169743221782971,-0.061080366868870535,-0.002267683728484087,0.004837240694053681,0.010184323437109887,0.08025250378387706,0.375
-0.15148189299798248,0.030568248760322568,0.4219750114206211,-0.20893859671267495,0.014302313306716252,0.023482164396116362,-0.07599940598762533,-0.04426640281235602,-0.015311709703424171,-0.010814108153440992,-0.0005990552822962969,0.0008576303104928277,0.0019788975191216075,0.0144401254445836,0.3828125
0.21742510256565958,-0.043590074743243716,-0.6032495483746285,0.2989221945395283,-0.019536718390452235,-0.034879547800282934,0.10916685242617649,0.0634593601490335,0.020089013227802717,0.01598924912596799,0.00029066492037301694,-0.0012644925782737259,-0.0023975029291381073,-0.020656814559178012,0.390625
0.4209278388670048,-0.08449973729470359,-1.1687702198349776,0.5789786598476377,-0.03820350281412924,-0.06706758143565167,0.2112691605803638,0.12288396585530116,0.03962170025578847,0.03077093885383318,0.0007815080048623196,-0.0024351215712544376,-0.0048113775548462075,-0.040016512526401295,0.3984375
0.8401101615714647,-0.16876281653450462,-2.332603939690087,1.1557467100370524,-0.07667227617874597,-0.13332519676260826,0.42165559353427423,0.24523365451394158,0.07984667075789759,0.061216750085865766,0.0017925342131206827,-0.004846322241143388,-0.009780658757691975,-0.07988188089225816,0.40625
1.3142794849841242,-0.2640781981801674,-3.6490745875797366,1.8083141834309315,-0.12018770830165224,-0.2082764642056522,0.6596743807399623,0.38364027309087856,0.12534017141248124,0.09565987946391953,0.0029361437085554274,-0.007573857106525399,-0.01540192587066776,-0.12497535136085833,0.4140625
1.2840429468091992,-0.25798956812836665,-3.56504331663664,1.7667000873326486,-0.11740651849840075,-0.20347781889937455,0.6444937850711626,0.37480521234539965,0.12243036343068495,0.0934613767416133,0.0028630938929634178,-0.007399716471403374,-0.015043177194628193,-0.1220933830798688,0.421875
0.42451462325529904,-0.0851898211499071,-1.1777702809193666,0.583543170305066,-0.03852833157735906,-0.06754931568893487,0.21302282600648448,0.12385194547413339,0.03995290643994004,0.03101480425706042,0.0007898388669452616,-0.0024551868827013207,-0.004850443318989557,-0.040331935429270174,0.4296875
-0.6785159107006016,0.13654393891491695,1.8861020159903639,-0.934771188329372,0.06267966071984031,0.10686690370152724,-0.3406692964152212,-0.19818587411955235,-0.06588357525175914,-0.04911878603244266,-0.0018705968780080857,0.0038898009617158963,0.008230593276714111,0.06458751752059687,0.4375
-0.9207472072044809,0.185221545329503,2.5590668622612536,-1.2681420437168742,0.08489959959161766,0.14515256109751082,-0.4622488027564361,-0.2688920753601677,-0.089127254100947,-0.06670933043543502,-0.0024547344718690877,0.005283385277711384,0.011103540093124082,0.08762301034633349,0.4453125
-0.2981568320927677,0.060061386548458766,0.8296661755673267,-0.41113324086359615,0.02777449743788102,0.046698802377793364,-0.1497003538299571,-0.08712607121417057,-0.029391987952117546,-0.021472475400653075,-0.0009530204137655218,0.0017025294260601712,0.0037202351456503634,0.02839701072329724,0.453125
-0.07229703090396794,0.01466597863348041,0.2020849698764917,-0.10016842648284724,0.007046814783474632,0.010983074339321943,-0.036297215791132466,-0.021201945164645335,-0.0077166699016176345,-0.005065454158189602,-0.0004082185023465317,0.0004029895464241681,0.001041427339078516,0.006910323859893299,0.4609375
-0.5812834185515295,0.11697746731153527,1.6156217118141531,-0.8005411497229868,0.05373503593469221,0.09143596132728184,-0.2917993272899454,-0.16977787554351978,-0.05654512421589042,-0.04204590786084122,-0.001635729615935576,0.003329616978328557,0.007076534764306387,0.05532010055250629,0.46875
-0.6641197485053133,0.13361541525121337,1.8455613379149718,-0.9144340173806886,0.061332619293045156,0.10449218081095081,-0.3334387885803198,-0.19389887792616367,-0.06448994611981987,-0.04806316271224769,-0.001835363365353648,0.0038058679456479463,0.008057560181115949,0.06319554124241744,0.4765625
-0.11829663758521049,0.02390266482046314,0.32958279277291896,-0.1633275907796741,0.011264091388467854,0.01818348071538006,-0.05950797306762962,-0.03451039953704147,-0.012122636226380252,-0.008410477404204853,-0.0005188226139851682,0.0006673429363557233,0.0015840260751511597,0.011283992989474122,0.484375
-0.24375250237264404,0.049143029707051526,0.6784001626322932,-0.33621625542011135,0.022781377846016516,0.038059417182449394,-0.12248122440617437,-0.071149062586096,-0.02416556348726471,-0.017530025797374258,-0.0008215168574375704,0.0013895165632710998,0.0030721064930937037,0.023231114274562068,0.4921875
-0.9949312479006082,0.20013849558086258,2.7650821030804402,-1.3700746092457936,0.09169804706223823,0.15686477928095052,-0.49952036586521337,-0.2904727810637436,-0.09624424052528498,-0.072105081088503,-0.002633517498419905,0.005709493056387425,0.011980744899306117,0.09468593424941252,0.5
-0.6700714910680274,0.13480965769410874,1.8625521767216429,-0.9227448077352001,0.0618876202569896,0.10549286957243464,-0.33642973388555036,-0.19564254804934014,-0.06507344912485717,-0.0485001392481486,-0.001850109586560791,0.0038401069661565686,0.008128695165213706,0.0637747950523867,0.5078125
0.7107601574953881,-0.14276511805121217,-1.973151384364979,0.9779032381980782,-0.06481099040448647,-0.11285845295637584,0.3567633323306532,0.20746500656277272,0.06742584608928856,0.05182169442066065,0.0014805265840717992,-0.004102639963993591,-0.008245635613414157,-0.06757659681532172,0.515625
1.2239449889217104,-0.24590252425721912,-3.3986175285430122,1.684256532888751,-0.11191051049869623,-0.1940011204596189,0.6144787734859706,0.3572608487106215,0.11667871277738344,0.0891067049909991,0.002718593777469921,-0.0070549450194561944,-0.014330621724046349,-0.11638722142013998,0.5234375
0.7326312811585877,-0.14713376910206383,-2.033819612661569,1.0079742211000071,-0.06683498683415057,-0.11629473771807426,0.36791237557715406,0.21380361779679402,0.06953845598075277,0.05341383929631705,0.0015335335403270924,-0.004229055304837536,-0.008504077357528896,-0.06965215562956487,0.53125
0.8568858365570848,-0.17213003327265647,-2.378926839066281,1.1788108689201802,-0.07821283676621103,-0.13592405094710608,0.4302092311232559,0.25006318410260536,0.08144714698768975,0.062440874973708545,0.0018328358882882265,-0.004942447635514896,-0.009977966008711052,-0.08147817096505613,0.5390625
1.2879851989078748,-0.25880191212919496,-3.576450495162596,1.7720246154817394,-0.11774682246202692,-0.20410089774483164,0.646493131750418,0.3759225551069656,0.12280236735613412,0.09375897403671068,0.002872455072815721,-0.007420960577279082,-0.015090593190062975,-0.12248885989216678,0.546875
0.42149865954142407,-0.08461355823539328,-1.1697243250332336,0.57949167295099,-0.03825176676210719,-0.06712419398714445,0.21149173071287847,0.12298315971387082,0.03966834814354526,0.030806903940821688,0.0007826900912080874,-0.0024377762518581207,-0.0048150531531475855,-0.04006207669303492,0.5546875
-0.8868245638214348,0.17840487999004145,2.4645246915167998,-1.2212737503077056,0.08178518837937851,0.13974731925114192,-0.4452905754891994,-0.25896664134142666,-0.08586575285079594,-0.06424751551740726,-0.002373085910913479,0.005087024725469925,0.010700688329670324,0.08439880389001406,0.5625
-0.6947328562352512,0.1398108723190841,1.9314370391075837,-0.9572733974654709,0.06418279741462084,0.10941706339673588,-0.3489591532510599,-0.20292263798160431,-0.06745155024566851,-0.05030041378436457,-0.0019103161523294629,0.003984032742653704,0.008423621010864146,0.06613689898525947,0.5703125
0.02300178019552479,-0.004465056056531043,-0.06192293364834089,0.030340658440621147,-0.0016596118961112632,-0.00405270154657182,0.011289828068640007,0.006599770544107766,0.001407497229664563,0.0018390922663183919,-0.00017915169293356438,-0.00014267986942416048,-8.792289038895419e-05,-0.0021348612800469783,0.578125
-0.7477109600963051,0.15044197180954647,2.078440300890313,-1.0300378784352682,0.06902147538675515,0.1177658170201426,-0.37546141394554805,-0.2183481448329716,-0.0725222935879629,-0.05414589581497913,-0.0020371696299251833,0.004288518736273931,0.009050161673531624,0.07116377272490611,0.5859375
-1.8825555998546581,0.3785478754697605,5.230040782961069,-2.5913549666070086,0.17310604601064952,0.2971618535190212,-0.9449610803013162,-0.5495924530564325,-0.18139041947166817,-0.1365816007112067,-0.0047736395050318806,0.010813191002465134,0.022506627716917294,0.1790983288655415,0.59375
-1.1837163736817793,0.23806999489332795,3.288836445535227,-1.6293077723738347,0.10898581537719679,0.186677382610819,-0.5941250230898244,-0.34556933057610045,-0.11434396027706557,-0.08580780153960779,-0.0030882451551522507,0.006793570436306799,0.014219471557149354,0.11262259639957191,0.6015625
0.49203069593197674,-0.09878445889963185,-1.3656017870800647,0.6769836492849031,-0.044749495942862476,-0.07826250295114473,0.2470277937614358,0.14363102388336074,0.04643146143533657,0.035934243148453796,0.0009532505581054814,-0.0028438244836190294,-0.005652684626606246,-0.04677232251674943,0.609375
1.0940250650085255,-0.2198160204258848,-3.037920281786521,1.5055497530494795,-0.09998616435470867,-0.17346822693777628,0.5492494041931073,0.31939774302515345,0.1042043008956606,0.07967334535390062,0.0024054650307300304,-0.006306995944532354,-0.012793198164539648,-0.10403890241213665,0.6171875
0.9037384358805303,-0.18158353766125526,-2.509655361780159,1.243696442068754,-0.0825349067291862,-0.14340882579689992,0.45376613320590337,0.2638726007981463,0.08596202153070148,0.06585415167004378,0.0019467684974846617,-0.005213445037974487,-0.010537889761252021,-0.08594546836647315,0.625
0.9523927114792338,-0.1913511085788036,-2.6444539492357166,1.3103798581594635,-0.08697929343963724,-0.1510811834145068,0.4780850833911321,0.2780520323470189,0.09061809970128952,0.06938317807770775,0.002063761076527283,-0.0054919102584613105,-0.011113083629303112,-0.09056579739809328,0.6328125
0.680964426954228,-0.1367527090373717,-1.8898363324921503,0.9363091007313893,-0.06203960684491738,-0.1081159584331555,0.3416526891405103,0.19874941990063533,0.06454996178309817,0.0496482834740241,0.0014084255777754053,-0.003928592346955851,-0.00789094904331857,-0.06472622599203248,0.640625
-0.2836364961474073,0.05718191058142261,0.7896322645799217,-0.3915760569095735,0.026478521447457912,0.04442225083419825,-0.14262015236563863,-0.0829038683553029,-0.028004281982182837,-0.020442239779284915,-0.0009185282340410061,0.0016194953145968424,0.0035494248961773236,0.027041987983125595,0.6484375
-0.8185320683355598,0.1647206631070394,2.2750009979201975,-1.1276612557924106,0.07554070556533632,0.1289839658895126,-0.41103885602514073,-0.23908248167210774,-0.07930944338375058,-0.059303207211743016,-0.002208781348283376,0.004694421237165828,0.009891886489534402,0.07791938607333541,0.65625
-0.4621342310597026,0.09307525737004467,1.2848670063445122,-0.6368663570316211,0.04281904973558812,0.07262202209866399,-0.2320395785141369,-0.1350488431184979,-0.04510843163068966,-0.03340422666187937,-0.0013492665256388718,0.0026436915958924266,0.005665145698399812,0.04400855954985576,0.6640625
-0.23899225058092086,0.048199623296071754,0.6652296898346526,-0.32955316669479806,0.022334969807778965,0.037347832924859554,-0.12000975878571173,-0.06991669511298418,-0.023711095346013986,-0.017185248028601906,-0.000811118091061398,0.0013606671417202693,0.0030198914602532234,0.0227739852778085,0.671875
-0.5584695931896053,0.1123854904979216,1.5526526627419777,-0.7691166506089797,0.05163866381834917,0.08785944179411474,-0.28036947439971066,-0.16317126172926338,-0.05437091144025144,-0.04038618833693929,-0.001581396021903235,0.0031985574978019545,0.006808486359029644,0.053150007363592405,0.6796875
-0.6811529228573173,0.1370048646276118,1.8930829077301996,-0.9377125462140722,0.06287412879690447,0.10721899457962182,-0.341868862326057,-0.1989137701410321,-0.06612981743652252,-0.049285932141988384,-0.0018764680737773539,0.003903681779528113,0.008260616489423082,0.06480207998446513,0.6875
-0.26770229067474954,0.0538671604569992,0.7443470527922719,-0.36842085111895556,0.024922520795548856,0.04180323318525706,-0.13422722912208931,-0.07810794099373305,-0.02644520869256961,-0.01923780530620688,-0.0008783178640409552,0.0015249009808871554,0.003353954192157148,0.02546788348255026,0.6953125
0.4464562393900409,-0.08967437035744132,-1.239183926560703,0.614335436066656,-0.04058536912641016,-0.07110392749407055,0.22424449494448975,0.13040625518291296,0.042074796193921196,0.03264180850612062,0.0008442522186585384,-0.0025823219763121165,-0.005115652988789324,-0.04244742283971021,0.703125
1.296380482018089,-0.26047397676379097,-3.5994584945700594,1.7835622447826087,-0.1185256947435597,-0.20543026160455688,0.6507403270166462,0.378440436649718,0.12360802934171014,0.09437043620087913,0.00289330810965577,-0.007468991074627165,-0.015191362718889528,-0.12327119025459468,0.7109375
1.7410792727945563,-0.34983309276555735,-4.834347989697627,2.3952664800525296,-0.15930523693766058,-0.27571295990694544,0.873828389650894,0.5081894819304248,0.16626551673266288,0.12666224124970113,0.003965237522382612,-0.010025094885101294,-0.020461807570740998,-0.16556607312499177,0.71875
1.1125835334810192,-0.2234930541741022,-3.088792457260521,1.530337277035982,-0.10164259227375448,-0.17635917115229652,0.5582759301897228,0.3247466189632708,0.10596264438704023,0.08099734172497955,0.0024495919710030146,-0.006410070779613996,-0.013008972637374263,-0.1057866799560603,0.7265625
-0.06015208922415582,0.012255868490022885,0.16824755610225314,-0.0836642529779929,0.005964781519035581,0.009054579418185976,-0.030451730454369944,-0.017570658726530734,-0.006557002718477212,-0.004206850369838176,-0.00037882761822771017,0.00033432486820961677,0.0008966116395489362,0.005771553617952284,0.734375
-0.6645184285247897,0.1337637279967392,1.8467384187926605,-0.9155841696290109,0.0614281811176684,0.10462525466170065,-0.33384555381038866,-0.19405788873088192,-0.06454068260241297,-0.048121626435293184,-0.0018370962263679505,0.0038094234584973357,0.008063768005038108,0.06326687257629747,0.7421875
-0.8616732777560262,0.173374543498069,2.394342037161975,-1.186770431543746,0.07948925294966952,0.13578033598800793,-0.43268915732831353,-0.25166557207558166,-0.08344240141184824,-0.062437526795239486,-0.0023128316190036413,0.004941555308218007,0.010402040046074902,0.0820085344454296,0.75
-1.3882111928189487,0.2791565624749424,3.856977534250232,-1.910991594829132,0.12774432036081595,0.21899044647907634,-0.6967674218505092,-0.40532445054233546,-0.13394627241811763,-0.1006653879915529,-0.0035820411240554315,0.007967936012088332,0.016644479466511052,0.13207485751046344,0.7578125
-1.6820664632156275,0.3381989951392778,4.673455786023966,-2.315276111753638,0.15469124200378387,0.26545807962198736,-0.8441625293965634,-0.491043801260164,-0.16214538666920314,-0.12199755291722399,-0.004290271825688905,0.009658006516688309,0.020128067167842576,0.1600277902758603,0.765625
-0.8826621633566772,0.17753467214081814,2.4532108231600067,-1.2152680279413275,0.0813777970761846,0.13910869061829034,-0.4429643073014201,-0.2577018375161154,-0.0854648175399453,-0.0639274112897713,-0.0023625990169619006,0.005062053157436424,0.01064968416769265,0.08399952844839198,0.7734375
0.24054842233089316,-0.04822563576184842,-0.6667720274861506,0.33060459940740394,-0.021661983486388477,-0.03847937195944494,0.12077044925822811,0.07014879672527131,0.02229642043601685,0.01766405049721582,0.00034618251850059484,-0.0013970846539781167,-0.0026684463612820885,-0.02284425441380297,0.78125
0.5109687379855282,-0.10259377613671526,-1.418112337560317,0.7029928165476658,-0.04648964616418062,-0.08126900726891081,0.2565306853170285,0.14910621834281718,0.048250617888051635,0.03731183944590384,0.0009987863303254913,-0.0029528258071328693,-0.005875747438130897,-0.048577327542950015,0.7890625
0.38750195956159766,-0.07777221738882298,-1.075068032203148,0.5329242447013655,-0.03515728774686644,-0.06173854553254314,0.19453727414060343,0.11307044527055772,0.03640391151590964,0.028341370858345902,0.0007010396283930982,-0.0022423212016435237,-0.00441208816097528,-0.03682833661642576,0.796875
0.795332250827124,-0.1597276731137968,-2.207692267182881,1.0938109042849138,-0.07254148194700069,-0.1261789996661071,0.39913411713480834,0.23208696826837427,0.07552153655021428,0.05795975696781967,0.001684097015136753,-0.004586297666707914,-0.009247322603215367,-0.0756107493721854,0.8046875
1.173274524484852,-0.23570003926859734,-3.2577048608912444,1.6139271920536087,-0.10720835895621766,-0.18594726324658384,0.588776712370417,0.34242045622479045,0.11178451375442024,0.08541426479999564,0.0025956122265799846,-0.006759393609589957,-0.013729048960178233,-0.11156756189320494,0.8125
0.6718084170163852,-0.13492650922155708,-1.8652003129633226,0.9240635703259562,-0.06123079454589927,-0.10672098963208984,0.33712664621889277,0.19609983727439043,0.06369017677080022,0.04899332952767077,0.0013869192209530002,-0.003876427557793094,-0.007784394672381081,-0.06388306293104752,0.8203125
0.07046235856608232,-0.014053979723409101,-0.19479050369946357,0.09649176742071049,-0.006079358698795814,-0.011659247685487921,0.03534984466132682,0.020575280286206057,0.00600617290472455,0.005309268688172583,-6.312930441585991e-05,-0.0004189915960166607,-0.0006543596822202684,-0.006680541686204365,0.828125
0.43205233543517146,-0.08671657648583968,-1.19867885514305,0.5938936386722592,-0.03923752298706762,-0.06878492520594566,0.21682476094012904,0.1260704717578383,0.040690713423885944,0.0315671644249747,0.0008083450019237448,-0.002498619324475654,-0.004940537993571725,-0.041057857510928004,0.8359375
0.8899330896260271,-0.1787490912481323,-2.470280134966823,1.223964539690021,-0.08122302624938138,-0.14114593692128222,0.44659283844627523,0.25970315843232866,0.08460612533779079,0.06482469545551914,0.0019121669019565456,-0.0051315218180769595,-0.010368559382486365,-0.0846027846330026,0.84375
-0.031084523550378128,0.006373734234685633,0.08779516527747394,-0.043482081034786145,0.0032804045384973177,0.004467259421970492,-0.015735525910976763,-0.009116895758478518,-0.0037706356092958625,-0.0020798960091976647,-0.0003089884662689481,0.00016595025809114597,0.000552698566402491,0.0030000412824890575,0.8515625
-1.630663478084269,0.3279066729702579,4.530649882021256,-2.244853891584593,0.15002837671847757,0.2573643022168695,-0.8186192577200145,-0.4760370919509019,-0.15724368945401704,-0.11828221666737126,-0.004166669248114286,0.009365534558221025,0.019519895574772708,0.1551488509456292,0.859375
-1.8700304143090216,0.37603422060501074,5.1954601301515595,-2.5742775737762247,0.1719855358388828,0.2952147625758826,-0.9387177304999067,-0.5459495670502926,-0.18020323033595081,-0.1356754679554138,-0.004744176752005781,0.01074123277939025,0.022358388913910364,0.1779203218908134,0.8671875
-0.5734130234024064,0.11540133004788453,1.5938220744498843,-0.7897198373878206,0.05302417644206325,0.09020430533447829,-0.28782972435920545,-0.16747833374406312,-0.055787480754748126,-0.04147966934739383,-0.0016172009994395433,0.0032828128831287663,0.0069831730792937335,0.05458627036205195,0.875
0.47666718103770295,-0.09568257809545018,-1.3230335311575172,0.6555054194997051,-0.04331833403834849,-0.0758337343866154,0.2392651818198109,0.13906897069847235,0.04496882202447424,0.03481107203229539,0.0009154852480629022,-0.002756382113270484,-0.005469103331794956,-0.045302564378526596,0.8828125
0.4090383653582428,-0.08208562033558123,-1.1350837779166612,0.5623169317098592,-0.0371126440718944,-0.06513308310011093,0.20528360288282796,0.11934273584128018,0.03847498185440007,0.02989803658663244,0.00075262977525143,-0.002365967503689581,-0.004667536089753912,-0.038872842194038436,0.890625
0.049535958721313604,-0.0098166746340141,-0.13626695108551684,0.06744906796953642,-0.0041317042138318836,-0.008273907105801896,0.024823202133342208,0.0143952491130366,0.003975905018486742,0.0037765679196395774,-0.00011419035319764136,-0.0002974618266957853,-0.0004047232201494594,-0.004675378849998062,0.8984375
0.028232686799305316,-0.005543047305726559,-0.07702309443653259,0.03827270760479268,-0.0021916307133300573,-0.004913254354496343,0.014181971936043675,0.008187031054702438,0.0019349515953450188,0.00223151716644516,-0.0001653728914101892,-0.00017565662637166043,-0.00015243816133517235,-0.0026494605633958805,0.90625
0.11106159888909183,-0.022210255378182615,-0.307250988816852,0.1525365582771716,-0.009809098847579795,-0.018044485358536158,0.0558013192736094,0.032402233721463385,0.009889122602828197,0.008259262012340838,3.4524887579227967e-05,-0.0006531099899069787,-0.00113493553451699,-0.010533849366305952,0.9140625
0.1680480310037592,-0.03367710096953513,-0.46561143859331405,0.23101134527802067,-0.015038004314235258,-0.027077795313641552,0.08437101235137338,0.04906225476070956,0.015357000386316176,0.012405325531954229,0.00017197280635671908,-0.0009807393837615776,-0.0018104803593456756,-0.015958442097681547,0.921875
0.19289222594054384,-0.038669568940062585,-0.5344467666978255,0.2649187113328278,-0.017297371286992987,-0.03099393992506683,0.09676072952361635,0.05629866404399181,0.01773489496001898,0.014206075494127569,0.00023175745096927952,-0.0011225377165601984,-0.0021044048824742476,-0.018317801554392187,0.9296875
-0.05155259899707053,0.010481719228992778,0.14469307464397935,-0.07181330420984573,0.005149621522522916,0.007684509788835799,-0.025986560103210772,-0.015100867754161336,-0.005723140344174778,-0.003560507340281553,-0.0003580936186244504,0.00028405813710329693,0.0007949873027417126,0.004941457510804809,0.9375
-0.30479247547216837,0.061403324162975954,0.8479936006518227,-0.4203528417457509,0.028389222817601593,0.0477411796257336,-0.153091630865979,-0.08905724254675987,-0.03002167805144058,-0.021962786161300228,-0.0009692029872708479,0.001740229684211884,0.003798341083256429,0.02903278887662669,0.9453125
0.09776461904308244,-0.01951428836472312,-0.27041713459618694,0.13388976946442827,-0.008547666166599313,-0.01591537422285698,0.0490068989988829,0.028457133106851037,0.008603988790197817,0.007282276567443038,1.6178781379525394e-06,-0.0005757882893006827,-0.0009754672607361547,-0.009262058600193385,0.953125
0.7741056159602255,-0.15547952768827272,-2.1491612644485767,1.0648599019214402,-0.07060481570707765,-0.12287022254873299,0.38852327906811435,0.22591351008931643,0.0735006696294979,0.056419465975242195,0.0016330937163930217,-0.004466076679373001,-0.008996230197890798,-0.07360044056235908,0.9609375
0.7182561705725612,-0.1442506404465059,-1.9939468016607536,0.9879597823786499,-0.0654828627426381,-0.11403577490100032,0.3604822002529038,0.20961668840072525,0.06814125783930033,0.05236136212601164,0.0014985133724338103,-0.004144502382141541,-0.008334005417785346,-0.06828730415670174,0.96875
0.26008289300854365,-0.052127837315660654,-0.7212004386589356,0.3573364811919521,-0.023441051247388413,-0.041560900274951594,0.13045607356073508,0.075853667192497,0.02416862280424099,0.019070767013377538,0.0003931174241912484,-0.0015085243387155244,-0.002900191271458497,-0.024700083415338005,0.9765625
0.26341688653446504,-0.052789982407281576,-0.7304982921024692,0.3620045131276037,-0.023740990293102684,-0.042071755717385084,0.13210251066757484,0.07683164132971637,0.024477323546744926,0.019311711308587776,0.0004008761303148948,-0.0015273681629425768,-0.0029396886755199162,-0.025015186570832567,0.984375
-0.03996580594962324,0.008161187651442449,0.11205228372897551,-0.055379566156236675,0.004080017361913011,0.005862491791310811,-0.02011759406506513,-0.011686745529878782,-0.004621438307560037,-0.0027191694492843367,-0.0003303335732731742,0.00021648286900825028,0.0006563236525049285,0.003836368697117974,0.9921875
-1.4415754514534445,0.2898675412492209,4.005220421279085,-1.984357582502857,0.13264715392067702,0.22743333010189984,-0.7235457879276797,-0.42081299754767043,-0.13907840782763653,-0.1045338433588557,-0.0037099805734408663,0.008276107395445029,0.017275534225320997,0.13715257457023636,1.0
-2.1906094033809413,0.44044199610846385,6.086035211119304,-3.0154655872848823,0.20136566019528168,0.34587841449437245,-1.0995016205824333,-0.6395148650254577,-0.21093736200049645,-0.15895465414399476,-0.005516539399399776,0.012583791680329881,0.026158758220501635,0.20840673235343832,1.0078125
-0.6038177041144213,0.12151253594703372,1.6787838650812617,-0.831910768244611,0.055809048135589595,0.09502752515439443,-0.303107956018777,-0.17637623004676828,-0.058699410750535225,-0.043691526938139054,-0.0016902327483314212,0.0034587610639665966,0.007344477499622928,0.05748035504790711,1.015625
1.3621289223726336,-0.273653417599654,-3.7819355140622073,1.8737018979352857,-0.12454395196341748,-0.21581506751427962,0.6836085142534848,0.397509550666601,0.12992099386443845,0.09912497040145055,0.003050955210137101,-0.007847160230239524,-0.01596771863525556,-0.12952071662863143,1.0234375
1.011173286829585,-0.20311870961277637,-2.807343487365576,1.3908726320770766,-0.09235791995409243,-0.16035855546785757,0.5074434845993496,0.2951144118777983,0.09625151803024638,0.07363392635479649,0.002204953138673036,-0.00582887454264459,-0.011807561451483851,-0.0961433856601597,1.03125
-0.5051733948883019,0.10167595501044982,1.4044215542037581,-0.6958747275403427,0.046749174289303246,0.07939041606395723,-0.2536566656408009,-0.14749660731781378,-0.04923876839820366,-0.03652084239016425,-0.0014518429561911508,0.0028918280061803513,0.006172632828736747,0.04809095988251415,1.0390625
-0.3807365385701817,0.07665723109665086,1.0588056192756858,-0.5245642154377474,0.03533878509054475,0.0597347102166149,-0.1911729560962589,-0.11117331833956569,-0.03730717548986282,-0.027476773830958246,-0.0011518572576354998,0.0021763565093917635,0.004697476534890825,0.03625393472534297,1.046875
1.0936364238561467,-0.2197238474115752,-3.0365716671521072,1.504672808962831,-0.0999243973400538,-0.17338934338950895,0.5489404037668346,0.3192300147937995,0.10415342528110112,0.07964415493710278,0.0024039329674385304,-0.006303053603699016,-0.012785663917698852,-0.1039976528182335,1.0546875
1.586857586876532,-0.3188786769231754,-4.406688368097438,2.1835930345478043,-0.14518057354387637,-0.2513937033108273,0.7965702002305535,0.4632308103412803,0.15147937027915537,0.11548602118731488,0.003593542673176796,-0.009139760017661603,-0.01863472731431479,-0.1509211392382503,1.0625
0.5882251660365067,-0.11813089368231222,-1.632717629156633,0.809123384774501,-0.053558162701043695,-0.09347913290076419,0.29528022846383123,0.1716966556376359,0.05565758993071723,0.0429323998337574,0.0011848653950942128,-0.003396105802309407,-0.00679250267842048,-0.055925043821869844,1.0703125
-0.6923954077646934,0.13931350742007784,1.924603946356035,-0.953555194411863,0.06394200372345939,0.10904204205985704,-0.34761368649019625,-0.20218392829993215,-0.06722247213599145,-0.05011824186587724,-0.001904032510933817,0.003969383183167307,0.008394191734744524,0.06590099051253809,1.078125
-1.3925334324145944,0.28006512526660526,3.8692585728090467,-1.9171452584827684,0.12817236868966445,0.2197436781028896,-0.699066064589194,-0.4065772339579652,-0.13439383344141395,-0.10098974742642847,-0.0035925207632077254,0.007995729658530954,0.016696664426939994,0.13250225107464927,1.0859375
-1.0969466302517665,0.22064749406521794,3.047973896501587,-1.510171766322164,0.1010404422057839,0.1729755007930284,-0.550636857800252,-0.32026260757364355,-0.10602091311590821,-0.07951112321333084,-0.0028792640723679015,0.006295062078374877,0.0131908700481763,0.1043803054811247,1.09375
0.11687775736570707,-0.02335771466552411,-0.3236054634375541,0.1604160911702161,-0.010321585881597328,-0.01895809445301838,0.058649530464265145,0.03407842696547291,0.010444506177293164,0.0086737597396312,4.823031221029425e-05,-0.0006861369190684451,-0.0012030053295184453,-0.011083634163909225,1.1015625
0.928329321710884,-0.18648087678115063,-2.5773626638960923,1.2770487141384907,-0.08475443590299762,-0.1472451000738808,0.46587814006719114,0.27092099074270753,0.08829467005000768,0.06761789870515099,0.0020049305773102667,-0.005352746102467398,-0.010824721722112626,-0.08826968379522962,1.109375
0.25536806862541167,-0.05120631413505703,-0.7081409537480524,0.35078444868350156,-0.02300705725001007,-0.04083736701812885,0.12803847523914152,0.07444891904343037,0.0237247817277127,0.018722987373991133,0.0003817247818347855,-0.0014823457793785523,-0.0028443311977380155,-0.024256637275630516,1.1171875
-0.7054911438162736,0.14195019330913416,1.9606599090502768,-0.9716041442870592,0.06514180179195561,0.1110748282886236,-0.3542173606443679,-0.20603224912278695,-0.06846034885187077,-0.051079178665700414,-0.0019355115192220926,0.004043512958340413,0.008549335873931824,0.06714353477258629,1.125
-0.3219785087185167,0.06486188508433226,0.8955393591898955,-0.4438587394567568,0.029952180233956217,0.050434070699711314,-0.16165494784766793,-0.09406428333163738,-0.03165710566996324,-0.023212999233446437,-0.0010103680469281454,0.0018376946589089434,0.0040011477787625475,0.03066863969345959,1.1328125
0.5907758410272995,-0.11862939143651197,-1.6394581030667739,0.8122032778047693,-0.0537888039220535,-0.09387296104016302,0.29651284354845203,0.17239213521990096,0.055920395456503215,0.043099384650550576,0.0011911511941539471,-0.0034115592588421736,-0.0068227024714479076,-0.0561516164373085,1.140625
0.35987134351667494,-0.07223128023826887,-0.9980059750693285,0.49447323056239056,-0.03260893587086518,-0.05735824965770998,0.1806262274793725,0.10501216633583002,0.033761665097592396,0.02632971552305696,0.0006344247079487324,-0.0020831659340647063,-0.004084865478289579,-0.03419293538356376,1.1484375
-0.48605783468696323,0.09781052567379417,1.3515140564926864,-0.6694710526916687,0.04499173462871542,0.0763863841982201,-0.24394253968952076,-0.1418895711176299,-0.04741070397903314,-0.035116693151471055,-0.001405700912229723,0.002782232552755106,0.005946118612489342,0.04626630932194223,1.15625
-0.41321142499542374,0.08317553906807215,1.1490204749707746,-0.5690026936460632,0.03830424619940143,0.06485675924493957,-0.20737410834096875,-0.12060959120060882,-0.040426896613112225,-0.029821597706556246,-0.0012301082971615624,0.0023631840641295107,0.005082373875189411,0.03933579454632289,1.1640625
0.3470399854423721,-0.06963666347439848,-0.9627336433727411,0.47723049486738484,-0.03143769823391936,-0.055350176596529056,0.17416637494685933,0.10129254670035584,0.032517756727947454,0.025401347159835806,0.0006032770903018051,-0.002009356261102681,-0.003932545754247089,-0.03297700546732082,1.171875
0.5830600581610866,-0.11706829525620072,-1.618307066068253,0.801810190101666,-0.053076968880098996,-0.09265109150044534,0.29257870917003287,0.17014539186786656,0.05516488854835809,0.04253796849530256,0.0011722978651190665,-0.0033664984726512266,-0.006730919563202551,-0.05542357505674634,1.1796875
0.25802006172723624,-0.051718680293489645,-0.7154145283131679,0.3543103941123484,-0.023246794591016893,-0.041236657703064915,0.12942653034700452,0.07523196603302136,0.0239764878461425,0.018921422675377417,0.0003881541673454997,-0.0014966575048903218,-0.002876017393100033,-0.024503031911789964,1.1875
0.07172636585512684,-0.014267769353452755,-0.1979591657300705,0.09796034625774433,-0.006158436846201389,-0.011781297072891793,0.03592364183093347,0.020846321302249324,0.0061028174828746075,0.005387633967031906,-6.120762833990304e-05,-0.00042537714828183647,-0.0006664288493051165,-0.006782963723860497,1.1953125
0.09855253353068177,-0.019663317452379904,-0.2726053081516236,0.13501997900328272,-0.008628702423486664,-0.0160404340660034,0.04937146388858134,0.028687500689732567,0.008682415811893414,0.0073345421688947015,3.6562939058327544e-06,-0.0005803800443297368,-0.000984297154892171,-0.009336405599904058,1.203125
0.041255621672009295,-0.008148198584693558,-0.11353311895720437,0.05625352677683245,-0.003374802531327586,-0.006984177984854428,0.02062296605520208,0.01197630570031948,0.0031856429021860666,0.0031726917526755023,-0.00013434395963264324,-0.0002511418055854493,-0.00030500314418438083,-0.0038857016530620715,1.2109375
-0.12667495344902457,0.025597658335991008,0.35304950571608934,-0.17485200867877432,0.012035507666291011,0.019577656972122003,-0.06361360903364544,-0.037020940840302115,-0.012935162281740369,-0.00901880662271896,-0.0005392485838070219,0.000715136913045314,0.001685538878933524,0.012089424317108376,1.21875
-0.3290542045922557,0.06624923126094125,0.9152536839915903,-0.453340628459072,0.030601241137641042,0.05155969714026775,-0.16516168578804866,-0.0960614503143665,-0.032356352268389,-0.023710402712626012,-0.0010271337481121221,0.0018792830580576802,0.004083849009574513,0.031334967963093846,1.2265625
-0.5028741528044327,0.10115832870783872,1.3978207932448041,-0.6924500243106574,0.046538647224298554,0.07900048859481285,-0.25241370402086905,-0.1467740995670737,-0.04902349489880637,-0.036333080809575875,-0.0014460570117792145,0.0028782628146330333,0.006143686826441999,0.04785739526254686,1.234375
-0.4867223023919211,0.09791343157065947,1.3527576239730377,-0.670179238281763,0.04505091194673489,0.07643624177980601,-0.24430400238358974,-0.14207445957629647,-0.04746322474308162,-0.03516353637411635,-0.0014071375850823113,0.002784666851043157,0.005952399447448633,0.04631601132833849,1.2421875
-0.20516925399371375,0.04136011214985111,0.5709680674896628,-0.28287344765242617,0.019226368543559993,0.03196270592109664,-0.10298183258596977,-0.05994494767385282,-0.020451750000741536,-0.014720871423930014,-0.0007286196116335666,0.001165725192579958,0.002615664812449305,0.019545368844614056,1.25
0.21885357008418654,-0.04382870467123766,-0.6063664451250741,0.30039622401220784,-0.019666678540590336,-0.035039097296055914,0.10980402468161228,0.06377811004006775,0.02022657655940605,0.016070218939978138,0.0002935152653192834,-0.0012721296385197604,-0.0024105509926850162,-0.02077228428317728,1.2578125
0.5544557463202762,-0.11128661743022772,-1.5384647880420048,0.7621617967830308,-0.05045997198417655,-0.08811180695903706,0.27820877336957467,0.16174425578724777,0.05243324847258792,0.04044717391936579,0.0011029658821917238,-0.003202279616551236,-0.006390143272097625,-0.05269294381914108,1.265625
0.4354083087431431,-0.08739057306516415,-1.2080373823712274,0.5984675163424771,-0.03954837074366727,-0.06932112782969384,0.21847499048258678,0.12703047375656498,0.04101988485683683,0.03180650098548588,0.0008162871629897228,-0.0025183136064083284,-0.004979845654651073,-0.04137917680908396,1.2734375
-0.2650412247011822,0.05339404169141002,0.7374205462750509,-0.36539444282381583,0.024717835790297658,0.041429388293245675,-0.13308114046554873,-0.07742933932900266,-0.026194203953522614,-0.019074328288002394,-0.000872899017092845,0.0015101458409200992,0.0033256707732043107,0.025244602128184284,1.28125
-0.7924661176284233,0.1594429116954167,2.202474185890569,-1.09132115850458,0.0731264801716826,0.1248546046792732,-0.3978616081643807,-0.2314262609987519,-0.07681899134456878,-0.0573967583365671,-0.002145262939232476,0.004544592406864422,0.009581175637183716,0.0754225495740476,1.2890625
-0.2520431657195417,0.050839088890025655,0.7014119403382837,-0.347635436334208,0.02355853261105345,0.03942726483321359,-0.12664597517719609,-0.07368735456370239,-0.02497720141570934,-0.018140511956842433,-0.0008421185991631869,0.0014374652672201039,0.003173914055235413,0.02402346245735008,1.296875
0.766370243462024,-0.15389274911206968,-2.127386309932055,1.0540597412901243,-0.06988354283899326,-0.12160584769733239,0.38458489322258277,0.2236427896933746,0.07274027713950307,0.0558550006649514,0.0016143060048744431,-0.004419695642743534,-0.008903072285840894,-0.07285438348732469,1.3046875
0.7954089992751661,-0.15976881704892934,-2.2080192007926995,1.0941765874405724,-0.07256085484399478,-0.12621350230322295,0.39923483490182504,0.23217151451890133,0.07553103244479416,0.05797770707782885,0.0016846450400522662,-0.004587235921176753,-0.009248605336751082,-0.0756252862740554,1.3125
-0.04324577098297,0.008794578555093103,0.12142911901017787,-0.0599911863075551,0.004377637758226233,0.006376263254109881,-0.021708735264661033,-0.012633584279179535,-0.004932176523238371,-0.0029464747882932017,-0.0003380173835810397,0.00023554873106507296,0.0006956553821170281,0.004144558413985136,1.3203125
-0.15418552100017943,0.031094849555134346,0.4293976685183883,-0.21266664830053966,0.014552283607561053,0.023897518884448382,-0.0773930411959743,-0.04501731676126203,-0.015566915896850466,-0.011007577094761146,-0.00060556034828772,0.0008729546707716645,0.002010435664634987,0.01469556103027258,1.328125
0.6096177055309157,-0.12244542809835673,-1.6923122955180208,0.838605017834237,-0.05553316722069196,-0.09689064662289135,0.30603734720384473,0.17798122132912308,0.05772762526717461,0.04448541910474384,0.0012369407381478466,-0.0035203563953582276,-0.007048340992025971,-0.057959779049041725,1.3359375
0.5455932288500114,-0.10958141348630296,-1.5143900695891988,0.7505134544151915,-0.04966353595988019,-0.0867672687214478,0.27391756204782275,0.15931382551238676,0.05158247177887651,0.039836410781642864,0.001082819309308351,-0.003151903315034206,-0.006289923755998459,-0.05186870170915302,1.34375
-0.7584522019144019,0.1525560987495558,2.1079350003204533,-1.044339714803474,0.06998499072924928,0.11943486447095295,-0.3807054282209857,-0.22139507251680188,-0.07354437542595853,-0.054908039057951774,-0.0020624923283383712,0.0043485220683068815,0.009174698315513248,0.07217588294287457,1.3515625
-1.4965170680952304,0.3009342942081199,4.158038703695603,-2.0602842191656423,0.13770772833341954,0.2361409032383172,-0.7512481421886302,-0.43690996999673204,-0.14435799418974857,-0.1085384501857109,-0.0038429986091525507,0.008593253703325138,0.01792865142660776,0.1423839060866071,1.359375
-0.7362463039612973,0.14813752583886958,2.0462624699469836,-1.0140260170548356,0.06795885474295152,0.11594436527673539,-0.36965912267679374,-0.21501274374070173,-0.07140709195924402,-0.053314461218867445,-0.002009666514544197,0.004220395385419563,0.0089147015542108,0.0700730922501907,1.3671875
0.1885768194336704,-0.03772904892937632,-0.5224957564952545,0.25872573533281623,-0.01688349892845039,-0.03024808404411084,0.09454101992455916,0.054924771938252494,0.017322686987682225,0.013863602024830474,0.00022054137363754046,-0.0010982860285807952,-0.0020508369069888424,-0.017887089654704025,1.375
0.2992712663299536,-0.05996635628785404,-0.8299343794633784,0.4110350734836629,-0.027029419433022842,-0.04772681966004127,0.1500938166458558,0.08719751150727643,0.027935891268381304,0.021899081279991052,0.0004871762587331154,-0.001734587544408279,-0.0033627960066234153,-0.028415525116041944,1.3828125
0.3293220666174151,-0.06603520845648164,-0.913535506171909,0.45251296682773645,-0.029787871659277487,-0.05250484967498767,0.1652105987803665,0.09597500746607575,0.030821233147054518,0.02408876003747785,0.0005596606103046418,-0.0019078379563418563,-0.00371985395193405,-0.031285754188328206,1.390625
0.6388335708719586,-0.12829218599820538,-1.773408254199951,0.8787360824229608,-0.05820003020742931,-0.10149011381741865,0.3206279515612062,0.18639745046288034,0.060525077461098954,0.04659044408735619,0.0013066182165083046,-0.003688575415452074,-0.00739173960242141,-0.06073835414176762,1.3984375
0.45404839839329525,-0.0911643146711448,-1.260162764396277,0.6245746020428586,-0.041261448797646524,-0.07228856784693868,0.22789677785103302,0.13252186012587272,0.042796453003675586,0.03317659444026205,0.0008614086226202732,-0.0026257719181152026,-0.005201488134392078,-0.043163736813445173,1.40625
-0.16603524363016828,0.03348049532176749,0.46230468284375714,-0.22885234184827283,0.015624798022642826,0.02576276329635157,-0.08335740534403258,-0.04847704452828468,-0.016702092240699653,-0.011869578328062964,-0.0006339661457080124,0.0009409831796930987,0.002151469398683297,0.015820258043346597,1.4140625
-0.20394208923005355,0.041094528738395995,0.5677216054598794,-0.28108931121424513,0.019104520781119523,0.03175137425085094,-0.10236413105679316,-0.05954117415863902,-0.02034078277840629,-0.01462082797774098,-0.0007252694279218117,0.0011593673792406726,0.0026005690346806707,0.019425529531417556,1.421875
0.20297433151034824,-0.040699017448243995,-0.5624277748611456,0.2788532772630836,-0.018223393288304475,-0.032592805697467066,0.10189679200811602,0.059260281491681964,0.0186987927962819,0.014943162542754867,0.00025635269971080514,-0.0011802516340436654,-0.0022252867518287337,-0.01927794444593095,1.4296875
0.040124567091537916,-0.00793676986484833,-0.10999741209452979,0.054525293443752905,-0.003269189564342165,-0.0068170388906508405,0.020091943014914897,0.01171140371877457,0.003066260045050962,0.0031048236115031594,-0.0001364727184648845,-0.00024247149701986183,-0.00029360652291639337,-0.0037788083852120045,1.4375
-0.43586260341587335,0.08777295703869659,1.2121740898827826,-0.6008026222748395,0.040419502151686736,0.06848663175373797,-0.21890949263417517,-0.1272838428023547,-0.04261037370713943,-0.031487196289824694,-0.0012849572265002124,0.0024957678697387583,0.005352120453645405,0.0415066527760586,1.4453125
-0.29667643109473363,0.05979383583259267,0.825572506694982,-0.4093011473024223,0.027657610797428393,0.04649637901906767,-0.14903837003237136,-0.08667845558728263,-0.029254891634859857,-0.02137784041678643,-0.0009497031519384798,0.0016946063780222031,0.0037018741431980693,0.02827072454967669,1.453125
0.05932206731593722,-0.011792298326832673,-0.1632985163407852,0.08078199942752949,-0.0050142053096336485,-0.009806164028980758,0.029728306640742577,0.017261047443612697,0.00491079487296609,0.0044921051453888465,-9.108422924844161e-05,-0.00035427562913159933,-0.0005207192579542128,-0.005594205371571874,1.4609375
-0.11863485883710911,0.02396428551289031,0.3309648829074192,-0.16402467095759138,0.011300064413613397,0.018321290142946055,-0.05956717667924234,-0.03467759686898845,-0.012156751720410426,-0.008433617993699188,-0.0005201170319565085,0.0006682978294609986,0.0015892588365296215,0.011330718226788314,1.46875
-0.1966174999470453,0.03964893290644341,0.5475659016137523,-0.27131017197657326,0.018454702677364685,0.030661172984947797,-0.09873655322758065,-0.057460301184864386,-0.01964061214586237,-0.014103539953199953,-0.000708276460608871,0.001116776784216126,0.0025153595794381494,0.018748789953671928,1.4765625
0.3870153598317233,-0.07766142393219737,-1.0736836927167415,0.5320842143045537,-0.03509237552694514,-0.061623981157884124,0.19423502768646977,0.11291013540528295,0.036356423016710035,0.02829660636508259,0.0006992777782640963,-0.00223995972311242,-0.004404790448410709,-0.036770742652539205,1.484375
0.6095834450743458,-0.12241853953653278,-1.6923110466564917,0.8387230969839842,-0.05553266819163423,-0.09686517279089277,0.30603836283248254,0.1779088665413342,0.05772458623181473,0.04447359757208782,0.0012364292868028144,-0.00352105917849656,-0.007045628778533338,-0.05795796254422116,1.4921875
-0.1517269429698193,0.03059040923644283,0.4218830147237354,-0.20881137304133768,0.014291283067475301,0.023447073802949542,-0.07606385825832845,-0.0443224552144433,-0.015303162388590162,-0.010831668953678727,-0.0005992496597173325,0.0008562413814200447,0.001980433650645041,0.014439971216240898,1.5
-0.6366535746627384,0.12807261092039812,1.768792692740632,-0.8762767482071312,0.05878591216634747,0.10010735722180147,-0.3195632300240585,-0.18590386384983443,-0.06183178389934283,-0.04606962709756468,-0.0017687741176729695,0.0036454567491022638,0.007731197083090066,0.06056646102078835,1.5078125
0.007305168075872384,-0.0013403164876742818,-0.01955321529740349,0.00971199212387913,-0.00026939522371489076,-0.0016798128395020403,0.0035455803295676384,0.002074298048186678,-6.414269360681188e-05,0.0007039008056636834,-0.00021590412039423242,-5.636806889299648e-05,9.607574111675216e-05,-0.0006703199229213743,1.515625
0.6617980031659069,-0.1328851757584605,-1.8371745581824834,0.910233489714886,-0.060301540318782876,-0.10513736291825403,0.3320385514085799,0.19315848767714033,0.06272101785911273,0.04825397302926519,0.001362516356166874,-0.003819009510815505,-0.0076652532540109385,-0.06291371497194129,1.5234375
0.3810935927980651,-0.07647030341099081,-1.0572248398871165,0.5237466104037939,-0.03454649129694767,-0.060739004746987436,0.1911893903000749,0.1112223363013128,0.03578706670024128,0.0278698362630279,0.0006853944557401554,-0.0022041541534060976,-0.00433668457098547,-0.036211747212073764,1.53125
-0.2048677253618128,0.04130884088986461,0.5707389243284156,-0.28285531293030464,0.01921917027273706,0.03194283000617865,-0.10291309873623593,-0.05986409843882848,-0.020440768144005535,-0.014696594414205637,-0.0007281942418623587,0.001166095609227431,0.0026135268204901148,0.019529237107157302,1.5390625
-0.5195892043489743,0.10459026342454489,1.445241932116902,-0.716133150332268,0.0481006647685089,0.08174702439816435,-0.2609137234627849,-0.1517762790878624,-0.05064719015856835,-0.0375664778487722,-0.0014874882678205593,0.0029766339342655714,0.00634743858203094,0.04947643089037504,1.546875
-0.7038100928447186,0.14164461269289189,1.9569178708250499,-0.969699214840723,0.06499694036376773,0.11089233837145238,-0.3533784113349446,-0.20558123828775612,-0.06832153690382148,-0.05095639778822618,-0.001931696797482502,0.0040362230502867975,0.008532001312799976,0.06700430482950777,1.5546875
-0.39997183790033225,0.08056790767682077,1.112760379533599,-0.5514365227157167,0.03711276625592778,0.06284641876532565,-0.20080647243470143,-0.11690226581169773,-0.03916222302322736,-0.028882344669763197,-0.0011988325254638165,0.0022881863070843855,0.004928247817450877,0.03809659070598529,1.5625
0.6572019690470977,-0.1319660764182762,-1.8238410494056188,0.903728852015428,-0.059878458342178704,-0.10432023394282351,0.3298950285944523,0.19173578664764201,0.06227201691259778,0.047927655408487056,0.001350822586422119,-0.0037926146128216547,-0.0076086302597451715,-0.06247176010231207,1.5703125
1.2395350318812541,-0.24905398575689616,-3.441645049927221,1.7054466918297364,-0.11330735842061294,-0.1964297529521704,0.6221989541202871,0.361826205756557,0.11814901231059852,0.09024118841007388,0.002755614046610068,-0.00714241537149017,-0.014515925194423416,-0.11787085110412811,1.578125
0.34846153674640196,-0.06994960775580131,-0.9670730805247321,0.4792800342116506,-0.03156438039945526,-0.055589411516861136,0.17489726249900922,0.1017931625404755,0.03266511718662632,0.025507454611654466,0.0006070968561416614,-0.0020182745902859677,-0.003952095961334406,-0.03311703453393022,1.5859375
-0.7302411503067531,0.14688876828792138,2.0289004197354115,-1.005325584991082,0.06740144829625354,0.11494890701707021,-0.36657666410835654,-0.21310780807272486,-0.07082699011799384,-0.05286243127420806,-0.0019943926643567673,0.004185335399325761,0.00883865179399329,0.06948822144957156,1.59375
-0.5958324464043027,0.11988113627717976,1.6557720676897443,-0.8204947507982853,0.055077485764167725,0.09371854989977335,-0.2991092639389879,-0.17393963099033963,-0.057935115869115844,-0.04310156198256571,-0.0016705234339319346,0.003412521581439753,0.007246417782379687,0.056706830749028374,1.6015625
-0.1787237336069843,0.0360459222795367,0.49744511323189883,-0.2465024528005117,0.016803395308581156,0.027777555386880738,-0.0897337058129734,-0.05221144125504937,-0.017913920284365937,-0.012801607067570888,-0.0006645699845268284,0.00101368102117778,0.0023014026439192436,0.01703411852708419,1.609375
-0.5551814697334915,0.11172526475002445,1.543039761636445,-0.7645063861003558,0.05132473864496462,0.08727711264004967,-0.2787000830496414,-0.1620965594119945,-0.05402644636746145,-0.04015192874113399,-0.001572310165321844,0.0031784328159515404,0.0067653977148259305,0.05284049040279257,1.6171875
-0.7022758717947414,0.1412907959722099,1.9515436303520415,-0.9668413561150191,0.06481837258269149,0.11052314171657975,-0.3525420328452486,-0.20504235159654505,-0.06814264991395451,-0.05083558467048453,-0.0019272705406612521,0.0040242837759737575,0.008510322028676413,0.06682810077638869,1.625
0.20433839500260673,-0.040960777209549146,-0.5664344787293284,0.2808390472319913,-0.018345486244801184,-0.03280056495807771,0.10254221713427884,0.05958004396828201,0.01883240757263945,0.01503381035679371,0.00025882222257402797,-0.0011894871899936852,-0.002238786183839633,-0.019409342544369663,1.6328125
0.9684924343675957,-0.1945667573752859,-2.688615632993416,1.332314468417309,-0.08844559909164842,-0.15359706598980374,0.48611817047473027,0.2826232515187405,0.09214773069597165,0.07054832490830616,0.0021016592465272995,-0.0055838968275986655,-0.011299409710934493,-0.09209083266062988,1.640625
0.7727473917434619,-0.1552023122172302,-2.1448315645360636,1.0627534919608794,-0.07048504290548176,-0.1226391006907296,0.3878321768180713,0.2254755701708174,0.07336969207718444,0.056319795841018726,0.0016296482444356415,-0.004457822414658598,-0.00897858891508373,-0.07346485368175752,1.6484375
0.48081941998276584,-0.0965033257841434,-1.3341218758106683,0.6609699700315705,-0.0436931689280801,-0.07647299014596538,0.24125224168209455,0.14025952328190666,0.045354424595919506,0.03510536951209136,0.0009254754460443068,-0.0027784154409070615,-0.005517317245844813,-0.04569349750208488,1.65625
0.426381583972668,-0.08555858696023022,-1.1830118139618562,0.5860951805546326,-0.03869309632908863,-0.06785005782330895,0.2139300430341811,0.12437449558362328,0.040123587255990904,0.031151758765631105,0.0007941009180307543,-0.0024648345736787143,-0.0048720930603764505,-0.040517297029533494,1.6640625
0.03469426325922033,-0.006825816257423079,-0.09494059303932081,0.04697493733167245,-0.002764366799163117,-0.0059103765664531085,0.01734829478771683,0.010036134502026449,0.002544694069939702,0.0026974005426585357,-0.0001503646368751321,-0.00021186789780975817,-0.0002274614623644159,-0.003260727339598198,1.671875
-0.2227907706394676,0.04494096109061739,0.6204722243378604,-0.3075380443067822,0.020857605682801775,0.03480424052047899,-0.11192708038888022,-0.06513675555658065,-0.022158152649990052,-0.016012847755353863,-0.0007712479712581673,0.001269294542522745,0.0028265607358075114,0.021236960585655825,1.6796875
0.2051493975337841,-0.04107808964935682,-0.5681372115672606,0.28139028928675014,-0.01839402121865109,-0.03286059433080949,0.1028345736569936,0.05979351501803387,0.01889658450771565,0.015075440178975942,0.0002607387664510832,-0.0011917191365029122,-0.0022476857844907078,-0.01946412332887879,1.6875
0.04706447702404382,-0.009327696616794175,-0.12935579483192444,0.06405415693099,-0.0038977912084455857,-0.00789395815318911,0.02354537368469564,0.013701214734507106,0.003734746868709933,0.0036012218843789116,-0.00012031226187731598,-0.00028341479494372826,-0.0003751835078752301,-0.004434986840082128,1.6953125
-1.3352586332751541,0.268497599054504,3.7097430748720712,-1.8380424242692075,0.12289610914726239,0.21061761367623205,-0.670192540686938,-0.3897479759168824,-0.12887553548310005,-0.0968094979216144,-0.0034535643923474467,0.007664954609089187,0.016013536397098488,0.1270367925272454,1.703125
-1.7875892107667866,0.3594109220093704,4.965994937695715,-2.4604198893703506,0.16438860584657125,0.28211782462310264,-0.8972272837725326,-0.5217671296266734,-0.17227133388322205,-0.1296682218314497,-0.00454431639590952,0.010265807724778028,0.021377085409036985,0.17005897696580058,1.7109375
-0.13037888883827928,0.026315297100297542,0.36313759309284,-0.1797926583094996,0.012372918946580077,0.020128576028889258,-0.06547353549475103,-0.03803638194304395,-0.013285796190681418,-0.009280778510793142,-0.00054801024665646,0.0007358507195046681,0.0017279829492975812,0.012435896319866977,1.71875
1.0933112308104365,-0.21963766498317425,-3.035619075522734,1.5041589785955325,-0.09988152619196673,-0.17331676550294395,0.5487484585232302,0.3191397733478796,0.10411570438523127,0.07961410141331296,0.0024028888717518944,-0.006301219486599661,-0.012781767633403928,-0.10395326907999877,1.7265625
0.09570465599204701,-0.019104562237721737,-0.26472956837005684,0.13115967358312944,-0.008372850764327429,-0.015590914196516157,0.04807084009005039,0.027903538975763757,0.008413929367317843,0.007138590432655936,-2.958414082311339e-06,-0.0005645567939609259,-0.0009529719272523828,-0.009063831215931394,1.734375
-0.8035444829713844,0.16165260793551348,2.233030033997235,-1.1064589056423126,0.07411954387828051,0.12657762204747958,-0.4033211175460061,-0.23463131981756702,-0.07785902699884314,-0.05819427128338355,-0.0021716882609390887,0.004606827394167335,0.009711019245519792,0.07646866245701396,1.7421875
0.3803424011788024,-0.0763205104156138,-1.0551458829727445,0.5228093828186445,-0.03448380719567473,-0.06059882771974814,0.19082498891997998,0.1109309025803877,0.03571775795661924,0.027808629872999202,0.0006833388889353664,-0.0022009461232948384,-0.004325471405479062,-0.03614312942629007,1.75
1.7001852476973107,-0.34163427716462974,-4.721127907600079,2.3393183036504093,-0.15557220337104388,-0.26928338921790024,0.8532957682782267,0.4962237317676456,0.16234762559002502,0.12369556058510252,0.0038665214588605532,-0.009791206782981227,-0.019976168384543507,-0.1616918568204127,1.7578125
1.149595401060328,-0.23097624703490297,-3.1920398852172895,1.5817418664470813,-0.10507465233346208,-0.18225404824575092,0.577004853900599,0.3355254460566144,0.10953285602695265,0.08370186242819358,0.0025388410986642448,-0.006625763595528688,-0.013448881876024752,-0.10932764382081003,1.765625
0.010844687069493559,-0.0020622706416584214,-0.028990028910973256,0.01444640230626224,-0.0005961739069768125,-0.0021995272963822522,0.005418379528320604,0.0030747056098223567,0.00027369243551292723,0.0009708045722105735,-0.00020781718780838078,-7.683009334454822e-05,5.5149193594602246e-05,-0.001004593497679264,1.7734375
-0.16981963116369603,0.03429247867502524,0.47331776662765923,-0.23459335977489001,0.016004218715841078,0.026411848998780067,-0.08535496205895363,-0.04972624413090942,-0.01707923291923837,-0.012163069107309667,-0.0006440001696042114,0.0009641246155856893,0.0022000987164283317,0.016196876940210568,1.78125
-0.0946208123480266,0.0191907983730973,0.26469466659320146,-0.1312875457446991,0.009110869866054375,0.014541607181399184,-0.047629841109727206,-0.027751890975596293,-0.009870954675768276,-0.006700470598275516,-0.0004624283634721659,0.0005330453310493003,0.0013081671168183033,0.009051214537601592,1.7890625
-0.37509006273278195,0.07553903004012419,1.0433293652381723,-0.5169787691768468,0.03482442561597043,0.05885397469164807,-0.1883151553626259,-0.10951846331076645,-0.03676665058675293,-0.027066309194767085,-0.0011382042313985027,0.0021448058133854762,0.00463035533630227,0.03572208442365643,1.796875
-0.22398057584573738,0.045133936818859965,0.6231415060465862,-0.3086835956161244,0.020956340874797606,0.0349353271428323,-0.11239925960661341,-0.06534577793008181,-0.02225837367994116,-0.01608220784570539,-0.0007736244209761216,0.0012737817251120298,0.00283612946788747,0.021343237620406914,1.8046875
0.30825724296554996,-0.061857344667335785,-0.8552185673569092,0.4237501976737993,-0.027860831684183983,-0.04920936244101903,0.15472250196588727,0.08999509934463315,0.028805116066913824,0.022581262716460403,0.0005097457882871806,-0.0017874411726918114,-0.0034745145221337947,-0.029281613355687425,1.8125
-0.027244513549801397,0.005584814686505423,0.0767907654784493,-0.038157883561397724,0.0029181581781843914,0.0038395738860924084,-0.013724852908009136,-0.00797485130301084,-0.003383280184667611,-0.0017960025705908828,-0.0002993228928227373,0.00014281996256734682,0.0005047589646772337,0.0026279480939731628,1.8203125
-1.093268451124927,0.2198746410032931,3.0377129214664413,-1.5052120248058778,0.10070258120298989,0.17237676178146724,-0.548808176839895,-0.319165482637574,-0.10565834067080389,-0.07924209064379203,-0.0028701231757789717,0.006273858490407402,0.013145893759898985,0.1040208267211754,1.828125
-1.2517531980360783,0.25175335295140144,3.477938636148609,-1.7231900249793028,0.11523632241907793,0.19744219516699618,-0.628351652079927,-0.36544878908016837,-0.12087013989973613,-0.09075780930576585,-0.0032526311001766887,0.007185285041323477,0.015026302977983401,0.11909767518646179,1.8359375
-0.18751637596067702,0.03784208916241115,0.5221412365518985,-0.258548536774708,0.017604935412570157,0.029193492824961646,-0.09416687478989133,-0.05480911377411381,-0.018771653445103516,-0.013442699794569402,-0.0006862499493855236,0.001065004127986514,0.0024077362139462034,0.017874791346028776,1.84375
0.6932098404402032,-0.13921279099593614,-1.9240941311164428,0.9534927872210025,-0.0631944627650585,-0.1100674908109714,0.34791837039615653,0.20229985757166227,0.06573180498270666,0.05054605761797122,0.0014380883119730604,-0.004000069411914817,-0.008036509302447507,-0.06590111723366225,1.8515625
0.8032796114898174,-0.16135344905759696,-2.2299775110367994,1.1049641318412664,-0.07328903507946588,-0.12748479675237562,0.4031676466163917,0.23444389520922013,0.0762969879443397,0.05854571669126434,0.001703690569065162,-0.004633148252183066,-0.00934226410967242,-0.07637664482750692,1.859375
0.9190974261349713,-0.18461220670172773,-2.551647127183055,1.2642882636406712,-0.08389911791739656,-0.14577133520318536,0.4612703366118225,0.26821472392462237,0.08740000336208098,0.06695502919262436,0.001982461027288558,-0.005298713429408604,-0.010713928685906041,-0.08738967746543122,1.8671875
1.113242478422741,-0.22361482566117152,-3.0906814420745556,1.531393320797023,-0.10170196517413466,-0.1764348208519919,0.5587029334553867,0.32485740103104327,0.1060176049335082,0.08105446086201006,0.002450263702758016,-0.006414773234803999,-0.01301465573846806,-0.10584853485665847,1.875
0.5110154119255024,-0.10257991540342322,-1.4179652403638139,0.7026443885123669,-0.04646671632290452,-0.08123727880919365,0.2564438428900061,0.1491007191435141,0.048247499314632056,0.03730455099585839,0.0009983623488695225,-0.0029520996358551018,-0.005875315956535662,-0.04856592931150303,1.8828125
-0.6524814665695068,0.13126196339034288,1.813450462519008,-0.8984809184993576,0.0602578852016487,0.10267205262981145,-0.3275509664524735,-0.19048399694595827,-0.06336475276732656,-0.04722057104965974,-0.0018069593985803331,0.003737902061836536,0.007918555749750755,0.06209741972160936,1.890625
-1.021234836330227,0.2053812618102995,2.8375622240685683,-1.405989338568445,0.09409236250111173,0.16096203609645346,-0.5126626359625412,-0.2981303545462497,-0.09874222481702219,-0.07401048727288277,-0.0026963284073206733,0.005858555353220227,0.012291008039615355,0.09716971638477785,1.8984375
-0.4856462315086859,0.09773660029687443,1.3500697469845526,-0.6690044726275535,0.04497111921343758,0.07630552411984919,-0.24381871645286943,-0.14180579017835424,-0.04736787946842902,-0.03509617339924109,-0.001405051779147479,0.002779512299572066,0.00594126793632581,0.04622742027024851,1.90625
-0.3064974156041639,0.061731189391420006,0.8526133324097586,-0.4225101247786112,0.02853834289813116,0.047997935607684075,-0.1538428238414769,-0.08950099048505679,-0.030185627254897065,-0.022074214559988304,-0.0009730062171325907,0.001749871448980083,0.0038168443625588985,0.0291905529293894,1.9140625
-0.6361398013823832,0.1279965431776832,1.768283117494188,-0.8762258499003271,0.05877337824656323,0.10012226791087944,-0.31928357936764196,-0.1857307502451294,-0.061807233840523654,-0.046025194385065006,-0.0017678041238467764,0.003645265766892606,0.007725141595297468,0.060550690931192204,1.921875
-0.3380253812120213,0.06808585703074897,0.9403533280502313,-0.4660525969665306,0.03142061403881406,0.05300106523147225,-0.1696944562554149,-0.09874923691545315,-0.03319911177283757,-0.024379644910403446,-0.0010489190399234148,0.0019303803168225031,0.004190943629151278,0.03219928461638986,1.9296875
0.5477567454295961,-0.10995924089242161,-1.5199469288723308,0.7530137546164508,-0.04984508624902683,-0.08704350024936132,0.27487103177335737,0.15980019888696867,0.05178713218008505,0.03996553169560375,0.0010871707552424863,-0.003163800434826842,-0.00631144132948872,-0.0520574876073442,1.9375
0.795955390081111,-0.15986514020019213,-2.2095916339754216,1.0948842438396253,-0.07262500213684707,-0.12631406132994516,0.39946495552605016,0.2322877689225925,0.07560018658486305,0.058003544723707334,0.0016858805259564557,-0.004591471224660608,-0.009254775451674071,-0.07567758562847632,1.9453125
0.5068846946821646,-0.10178134021126646,-1.4070256786993631,0.6974175719497264,-0.04611322623101476,-0.08064569920369047,0.25440958156077065,0.14794663283501294,0.04786423875027154,0.03701256697393395,0.0009888776721414887,-0.002929619209305045,-0.005827764038943714,-0.048193945158742264,1.953125
0.7993014449026608,-0.16056504797679041,-2.219302281647964,1.0999501539304823,-0.07293286917988452,-0.12687963884340708,0.4011990026344903,0.23331030949916978,0.07591279713325379,0.05825992378957592,0.0016939114787634635,-0.0046112875346797045,-0.009295098806133759,-0.07601048084895302,1.9609375
1.1703643029307191,-0.23513264051103563,-3.249714664102316,1.6103729135607245,-0.10695762649920067,-0.1855180664535937,0.5874143998077145,0.3416042052775857,0.11150492497198872,0.08521314794620345,0.0025885014291459887,-0.006744235877649425,-0.013694364974178379,-0.11129613930654443,1.96875
0.21906012644957035,-0.043881385774196036,-0.6071395139415678,0.3007967223683197,-0.019672912947133084,-0.035087220933410976,0.10985324290943434,0.06387452201999755,0.020230803927557908,0.016092619352011072,0.0002941949560610086,-0.0012722244562143265,-0.0024132385491239965,-0.02079642785249587,1.9765625
-1.3692095018742985,0.27539045263059675,3.80449639486045,-1.8852192265637868,0.12603669126064845,0.21603451947619307,-0.6873953301122796,-0.39978695982511064,-0.1321497921038361,-0.09930016868005319,-0.003536116409287796,0.007861987636487456,0.01642061610931283,0.13028525914488645,1.984375
-1.6959461421676982,0.34105495825266013,4.712028144826375,-2.3348348191475785,0.15600855323118215,0.2676945794751911,-0.851366096329591,-0.4951593660804908,-0.16349597934493504,-0.12303326805592192,-0.004324083305485016,0.009740500496356667,0.02029469381960625,0.16136382876199426,1.9921875
-0.8811447544788485,0.17724962176695835,2.4488155954524258,-1.2133722700482508,0.08125691478676308,0.1388696140149315,-0.4423376672160788,-0.25727431939942547,-0.08532207365339134,-0.06382935888141408,-0.002359034502382559,0.005054346587346968,0.010631893600149073,0.08385676304972292,2.0
-0.3882951573913731,0.07817095190144459,1.0798417942776566,-0.5350915934987255,0.036042282270546545,0.06094391757118161,-0.19495041175648212,-0.1133864621957568,-0.03803471790245041,-0.02802219190325878,-0.0011702991488344104,0.0022200719619783157,0.004787035136457749,0.03697379822723785,2.0078125
-0.16255084708275425,0.032791864859978856,0.45284411269696784,-0.22445212829499664,0.01533041191476613,0.025250083305663387,-0.08164542885880394,-0.04749477791559735,-0.01637132061368155,-0.01162641195496089,-0.0006257015816519326,0.0009217081217920644,0.002110196315160816,0.015499865531020837,2.015625
0.5567592604310282,-0.11179907404563198,-1.54500291023201,0.7655118685337592,-0.05066334700078944,-0.08847647727363848,0.2794335442765429,0.162488171549159,0.05264432567787033,0.040630904348958864,0.0011090948114400388,-0.003215292374075291,-0.006419447866677925,-0.05291951054004378,2.0234375
0.9751161586624573,-0.1958900472893268,-2.707055877419988,1.3413213844957321,-0.08904850978043566,-0.1546258399545531,0.48944960371133434,0.28463349660906706,0.09278455979887024,0.07102763340542392,0.00211800931653248,-0.005621374600106745,-0.011381025884100875,-0.09271247099711089,2.03125
0.23845931757411468,-0.047805121526250695,-0.66120738203985,0.3275596193256202,-0.021473017633331634,-0.0381723635864788,0.11967884434602666,0.06959214410103033,0.022113444718036532,0.017508524809782402,0.00034145162350735685,-0.0013852090311976266,-0.002646292686036593,-0.02264463849820956,2.0390625
-0.45394421069619484,0.0913738688570058,1.2617186933298294,-0.6252209789522032,0.0420422692793072,0.0712788754481749,-0.22786973908672392,-0.13254798611931265,-0.04431156863092836,-0.03279603928287858,-0.0013283437441435207,0.002596078402189176,0.005564535411847326,0.043209552092997254,2.046875
0.05001582414018753,-0.009941800871451663,-0.13805109247873293,0.06850760211449873,-0.004194554167761919,-0.008412342230597765,0.02512260308945623,0.01456038823467809,0.004036886632131402,0.0038217408939972912,-0.00011297889108648614,-0.00030241427997022786,-0.0004106254463380651,-0.004733567531493404,2.0546875
0.5849234974808661,-0.11746441366904017,-1.6235341115147672,0.8046368604625056,-0.05326516491204426,-0.09297464578052791,0.2936193266811282,0.17069513359941785,0.05534828780850081,0.0426856849568386,0.0011769041757913993,-0.0033779605405503147,-0.006752680029086752,-0.05561315894509131,2.0625
0.0234901635778487,-0.00458793923112445,-0.06390632995549024,0.031761753617851135,-0.0017560709613487124,-0.004186306744957576,0.011761948543299401,0.00676339322103112,0.001480653616758569,0.0018889592399558455,-0.00017721622536269344,-0.00014866128504352358,-9.437725490476962e-05,-0.0022018563125328623,2.0703125
-0.3794475011844842,0.07641629067882535,1.055264183946702,-0.5228247019922941,0.03520817404385799,0.05952592001030969,-0.19051617677938107,-0.11087495364158577,-0.0371726033201878,-0.027392069915015225,-0.001148939047967496,0.0021681251090297183,0.004683904051281183,0.03612999025456285,2.078125
0.4660534830391996,-0.0935639107349297,-1.2933196032473353,0.6410046953222803,-0.04235740607143217,-0.07417214322423572,0.23389579970469895,0.13599368919057414,0.043945572681080056,0.03404074400862156,0.000890240256666695,-0.0026947254314433114,-0.005342644925566966,-0.044299575326358205,2.0859375
1.0474259158244454,-0.21044641579111203,-2.9081822086693587,1.4412140640993474,-0.0956783696562269,-0.16609675533644383,0.5256896106639273,0.305761783278063,0.09970932966212312,0.07628665801255152,0.0022922644413539174,-0.006037289475034713,-0.012237130481989806,-0.09960382155666903,2.09375
-0.01685186402313165,0.003511924475265638,0.048080465227387306,-0.023773191745040487,0.0019799077886271696,0.002208435895843955,-0.00859691375416583,-0.00493725214719481,-0.002413989786745017,-0.0010400145188457818,-0.00027468648170957816,8.474272788085009e-05,0.00038343111143213814,0.0016415651928152195,2.1015625
-1.228741782224507,0.24716244728233772,3.4144563356305677,-1.6920189459108101,0.11316869255020212,0.1938636545019851,-0.6169341245898998,-0.3587732176480719,-0.11868578109643056,-0.08909829033151177,-0.003197604042544378,0.007054864720803255,0.01475495055929493,0.11693388641851508,2.109375
-0.8197956249821936,0.16497244888322363,2.278666637639154,-1.1293287059547579,0.07564648325894364,0.12921857734118888,-0.41162234827431554,-0.23942967552175354,-0.07944123211604479,-0.05939112745575735,-0.0022113806165784487,0.0047028158013224,0.009906116657808479,0.07803704211238163,2.1171875
0.21139396812830077,-0.04233544974085055,-0.5857704290289,0.2900027461881014,-0.018967146730290735,-0.033844716713449435,0.10603629103101272,0.061610331628166246,0.01950386617073503,0.015533501971835758,0.0002757176937028322,-0.0012280984018651743,-0.002322547571792738,-0.020063543500260028,2.125
0.16053712288714014,-0.03214671426175621,-0.44485241986236496,0.2202709837562919,-0.014319287932622776,-0.025840052791327343,0.08055607421532714,0.046811233093291695,0.014635818640611467,0.011847209762410472,0.000153442338334812,-0.0009367615416412349,-0.0017215085243362386,-0.01523879929159089,2.1328125
-0.5149667540312172,0.10361694852090808,1.4312990939824277,-0.7091802118156969,0.047633300377345464,0.08093296076587861,-0.25846312923573045,-0.15034075260490606,-0.05016525142876127,-0.03722354649881664,-0.0014753207921556913,0.00294685656734988,0.0062869767062463154,0.04901110635521813,2.140625
-0.6086518497085416,0.12244921451165075,1.691711880078924,-0.8380990743882383,0.05622921452662173,0.09573908329932554,-0.30548441728774084,-0.17769188335884883,-0.05915930525213371,-0.04402871028400788,-0.0017012920312755178,0.003485841047511138,0.007398540484923604,0.05792435194099668,2.1484375
-0.3003592029672572,0.06049805953119139,0.8356506784165164,-0.4139578313497626,0.027966546557710813,0.047014459987462294,-0.1507866084461025,-0.0877259038784327,-0.029596402797368918,-0.021633958816503634,-0.0009581051435710301,0.0017141672639308333,0.0037448593017258567,0.028605829107892604,2.15625
-0.08884894175376332,0.017990373673302446,0.2481704378560373,-0.12285974723271055,0.008566689545621493,0.013582625896924343,-0.04462166324594426,-0.025975607957870038,-0.009306391109692896,-0.006268005061707059,-0.00044807227752585293,0.0004978910763457829,0.001237129039873879,0.008490986718706756,2.1640625
0.32430456415827136,-0.06508414834811951,-0.8996014870675301,0.4459929214170219,-0.029358404220010525,-0.05176189906743142,0.16282799432358988,0.0946759804491452,0.03034710070622219,0.0237536353894436,0.0005485984431915783,-0.0018797144706478315,-0.003663675435231039,-0.03081506571019229,2.171875
0.8591729081506507,-0.17262044657991443,-2.385351883683593,1.182180915925278,-0.07843624154649768,-0.1363425161859494,0.43130621923996965,0.25080958244590035,0.08167188090552187,0.06261271205054078,0.0018385362625618791,-0.004956504207970722,-0.010006467281980456,-0.08170007574580823,2.1796875
0.7871334272276584,-0.1581095587305382,-2.1851500089576286,1.0827331535938836,-0.07180502984374701,-0.12492715363255343,0.39503778668821476,0.22970829745022187,0.0747511805091553,0.05736660915879833,0.0016643746419685434,-0.004540981426465783,-0.0091502339765658,-0.07484144167172217,2.1875
0.2005490366554131,-0.04015383034592591,-0.5557889692015532,0.2752256835013359,-0.017977794993442858,-0.03216441781550526,0.10054040465575258,0.058438093069161014,0.01846615450124673,0.014740822441215157,0.00024956287546640173,-0.0011663843433750358,-0.0021934291906983146,-0.019034425683234765,2.1953125
-0.09199778895955414,0.018647309932546062,0.25669090863932803,-0.12723677000422243,0.008846556114303024,0.01406703650459219,-0.04624852343952577,-0.02691502594245349,-0.009596266056478906,-0.006506622446377312,-0.00045559463476771645,0.0005158008249083772,0.001274331397262112,0.008789450379021376,2.203125
0.028326971230474216,-0.005569521620374313,-0.07751546714596187,0.03845878194343957,-0.002195165796608282,-0.004965976515331923,0.0141763557679971,0.008241079134093474,0.0019459609815235363,0.0022436582319869075,-0.0001652451089100626,-0.00017623770000694646,-0.00015315630943341283,-0.0026630407527114043,2.2109375
0.22542495193167097,-0.04517979243459628,-0.6247398246237371,0.30947566269925997,-0.020253127126598578,-0.03608025001403035,0.11304310178121668,0.06572932730555449,0.02084038475571716,0.016556640216190303,0.00030968135280615323,-0.001308697407491897,-0.002488851957262071,-0.02140324158457803,2.21875
0.4270477319227217,-0.08567909368912659,-1.1846604052467238,0.5868245749334301,-0.03874133024695109,-0.06791784581848274,0.21422106586174042,0.12454025816358491,0.040179068452924516,0.031194755345126793,0.0007956357912945532,-0.0024678598548491214,-0.004878714897335264,-0.04057213771045332,2.2265625
0.24860397017835847,-0.04982300714516356,-0.6892489682618455,0.3414993011299472,-0.022395270349898806,-0.03973784466494884,0.12472669862546347,0.07248092968062428,0.023073003733142822,0.018236346183090245,0.00036557084065789644,-0.0014428863405189527,-0.002764077815686087,-0.023607589178820033,2.234375
-0.6888862415330198,0.13857918740009567,1.9144794355492096,-0.9484679986184723,0.06359282904357,0.10842638961030816,-0.3457866726753141,-0.20112781559004392,-0.06686106574112502,-0.04985781123494508,-0.0018949982958477855,0.003947438622683856,0.008351004051249273,0.06555237730908367,2.2421875
-1.4402355709104488,0.28959189189607637,4.0014296182252,-1.9825393656323567,0.1325324401229136,0.22720735170536738,-0.7229336141314963,-0.4204387397451955,-0.1389525560549335,-0.10443704280665012,-0.003707018700964136,0.008268495229179468,0.017260217975867083,0.13702164707932166,2.25
-0.9050881530273294,0.1820380952994628,2.515075697743338,-1.2461272712013787,0.08344916681957103,0.14262206904309854,-0.45431103491892005,-0.2642334691694974,-0.0876146506521683,-0.06556195700047199,-0.002416551234052706,0.0051912298535926535,0.010914685576443565,0.08612624580396236,2.2578125
0.03925003889625111,-0.007759183934771227,-0.10783063238624194,0.053419725534752174,-0.0031856283630178795,-0.006660089210688701,0.019709429027588057,0.011409772192784414,0.0029911520605495965,0.0030366185192365128,-0.0001392251285413601,-0.00023941982083676292,-0.00028289206634874554,-0.0036947990682631273,2.265625
0.11139563874801979,-0.022231276858390225,-0.30793066782093936,0.15242022009121417,-0.009799910869114312,-0.018045172396319815,0.05585016892953998,0.03243358825666039,0.00991438112982136,0.008265876152405224,3.453065565910885e-05,-0.000653621557758815,-0.001137044685908986,-0.010548101164369385,2.2734375
0.06365196979672412,-0.012613929784978656,-0.17504474498475706,0.08652352966780076,-0.005413567149656364,-0.010483776523708518,0.0317930454865853,0.018476377279390832,0.0053291187976097845,0.004787613820670464,-8.074531512068333e-05,-0.0003784052146879094,-0.0005695545523473636,-0.005996854301988773,2.28125
0.7940433306841883,-0.15945664945558746,-2.20400539579854,1.092074049750732,-0.07243337223173428,-0.12598923350864388,0.39845262121583663,0.23172927088954987,0.07540503178441746,0.05785827515343549,0.0016810915209878193,-0.00457949405513012,-0.009231426538693984,-0.07548234009898688,2.2890625
1.130917431092108,-0.22723010500528606,-3.140230789973346,1.5562399489628937,-0.10336230996352666,-0.17930350085385477,0.5676811654794918,0.33014122597882856,0.10773321116134883,0.08235341638493011,0.0024941171287758434,-0.006518115294557043,-0.013228692806711325,-0.1075508805449001,2.296875
0.2583063790951023,-0.051846127171003106,-0.7165939813722998,0.35533626343942926,-0.023313543638252384,-0.04135868276004006,0.12972426215713914,0.07543907769728263,0.024018140518592784,0.0189680574158693,0.00038980830138554635,-0.0015000403737633536,-0.0028825595661144655,-0.024554260982729424,2.3046875
-0.34884827257903267,0.07023427191506146,0.9701446071454364,-0.4806686830595955,0.032403159558989224,0.05466539722360897,-0.17510595275316185,-0.10184081180153408,-0.0342352815965834,-0.025152455822541664,-0.001074813976445515,0.001992393318115232,0.0043182959703591895,0.03321559859514306,2.3125
0.17996495612580818,-0.03603235133107076,-0.49854572073414427,0.246909479036489,-0.016094506650674557,-0.028909674248662448,0.09026607861280024,0.05247143547678771,0.01649431364580574,0.013253760922613935,0.00020015292997004348,-0.0010482237778493692,-0.0019505210255351734,-0.017075207403487114,2.3203125
0.40054194966479634,-0.08038191210054567,-1.1113784808558886,0.5506003243616976,-0.03632470732394537,-0.06378013392276036,0.20097815859192597,0.11683597290824203,0.03765008699273214,0.029279247799392488,0.0007320149969972953,-0.0023166658247513526,-0.004565441888366164,-0.03806514812854486,2.328125
-0.4193074765677821,0.08439977379670893,1.1657958814891514,-0.5776580675715296,0.03888669432381659,0.06583302049628137,-0.2105390225194762,-0.12248984451369192,-0.041010448883279385,-0.03027926152898658,-0.0012451882156721103,0.0023981152307818838,0.005155988702438973,0.03991333988960896,2.3359375
-0.8892355866202876,0.17886828620122824,2.4712145550760085,-1.2244657310589329,0.08199164143549366,0.14012892069165717,-0.4464150628661628,-0.25966064118954274,-0.08609190748274288,-0.0644217306604994,-0.0023785048494693642,0.005100327196146227,0.010727911171490011,0.08461974423232818,2.34375
-0.3373676127253218,0.06794667633841735,0.9383239642146495,-0.46489941552269204,0.031357103568140234,0.05287498802431019,-0.16937782135628884,-0.09854744055655157,-0.03314017419466387,-0.0243290930207179,-0.0010475202468411204,0.001926236442322916,0.004183520934751513,0.03212908597289615,2.3515625
0.12598931716633074,-0.025202362852700524,-0.3489030305176559,0.17296521962835737,-0.011152549874900554,-0.020392766564562303,0.0632351390178439,0.0367360883596777,0.011314506604138838,0.009339069151958004,7.010524693836374e-05,-0.0007385170844788397,-0.0013112850119853332,-0.011952561261719615,2.359375
-0.04663027397375081,0.009487513418334445,0.13053973695304202,-0.06457902760109124,0.004684433043058077,0.006892216439375916,-0.02341331616597367,-0.013634947734482653,-0.005247581698926365,-0.0031992865109296944,-0.0003460583024504456,0.0002543769049001557,0.0007354534966087672,0.0044643651795259,2.3671875
-0.1572182154233385,0.031728062899603254,0.43794086997598203,-0.21692890271259152,0.01483028486472615,0.024385334224518388,-0.07894556540383083,-0.045917858894274764,-0.015855985264800483,-0.0112377369162927,-0.0006128138358166881,0.00089049553148471,0.002047055691546759,0.014991819260525716,2.375
0.11097167730791568,-0.02216543508981093,-0.3068079603436052,0.152038863257765,-0.009770431260447915,-0.01799853505717183,0.055660701435109684,0.032349161205157545,0.009873098323860442,0.008242743467226601,3.374902006070587e-05,-0.0006516174789125261,-0.0011325808726898004,-0.010511423912666042,2.3828125
0.3997513393434296,-0.08021055789097803,-1.1089471368713268,0.5494422868027947,-0.036259486287611754,-0.06364772821849989,0.2006066351465571,0.11662346460988503,0.037576262365322174,0.0292223560364076,0.0007300460810096183,-0.0023121014396093077,-0.004556573447720453,-0.03798193783405791,2.390625
0.5133836101990304,-0.10305104749098459,-1.4245866467578738,0.7057869459893575,-0.046684192406447625,-0.08161723500970681,0.25761512572425477,0.14978083705098724,0.04847997217310555,0.03747456139805918,0.0010041300483359173,-0.00296548417659359,-0.005903848650102811,-0.04879215859798506,2.3984375
0.39543930967034685,-0.07933150473159989,-1.0968593578081325,0.5433707071622866,-0.03586166383418214,-0.06296646642675405,0.19836296136309683,0.11534364828406922,0.03716346272180896,0.028899439340143034,0.000719684275638253,-0.0022869362005136537,-0.004504728374511541,-0.03756811180722222,2.40625
0.0351260539055531,-0.0068989982119689736,-0.09599803535460946,0.04746877159735416,-0.0027972337728194353,-0.0059866571314190695,0.01747151847991168,0.0101564120861021,0.0025846308610168863,0.002721131313634271,-0.00014943961165493494,-0.00021428348494327703,-0.00023151275096552754,-0.003292541155924769,2.4140625
-0.26631825206461374,0.053674551013589845,0.7410784001274606,-0.3672383424299124,0.024860482295957068,0.0416699049453137,-0.13381382612816847,-0.07783010371572807,-0.02634211070913246,-0.01917196202553762,-0.0008764675072676714,0.0015192225950665056,0.0033426458388256535,0.025371905856543538,2.421875
-0.3048729493824999,0.06139515532603958,0.8478676408505923,-0.4200698875070087,0.02838367509828144,0.0477372110380597,-0.15309066354051912,-0.08904779551921073,-0.030030859715280737,-0.021963165037853272,-0.0009691619159512354,0.001739912445458874,0.0037984378699926773,0.029027398090275873,2.4296875
-0.30112084622808033,0.06063399266922648,0.8373835912300781,-0.414791096714836,0.02802157759528327,0.04711714613608389,-0.1511280279429043,-0.08790823680720025,-0.029657414580257058,-0.02168355798168093,-0.0009597428746910301,0.0017174803893666684,0.0037527031660610105,0.028669375362412222,2.4375
-0.3135369509929162,0.0631389748478955,0.8719903715630278,-0.4318966173804136,0.02915522537340858,0.04907350315139753,-0.1573130263511466,-0.09150879064373295,-0.03084557177214311,-0.022582583937930896,-0.0009894735351367342,0.001788904372743029,0.0038991953134446112,0.02985635224595927,2.4453125
-0.16480168650151483,0.03323192591782107,0.4588247505237816,-0.22720335182249574,0.015513296118557252,0.02555539340634712,-0.08264009450801804,-0.0480864879126687,-0.016574949994782272,-0.011776689201819245,-0.0006306224941082812,0.0009334651822558633,0.002134622609018901,0.015707120344086167,2.453125
-0.005228310488689559,0.0011279069303346725,0.015378766704451523,-0.0075371794053562206,0.0008756378126065944,0.00031803055392605006,-0.00255446675346064,-0.0015103782391368086,-0.0012598463621832914,-0.00018479436704537603,-0.0002456990715570228,1.5099747251515762e-05,0.0002417858773049275,0.0005191733573673445,2.4609375
0.057001702911784774,-0.011383120807837302,-0.15747899033217388,0.07806670810916386,-0.004830331068630207,-0.009513740057400901,0.028641131200643166,0.016627598888218242,0.004710249527857594,0.004333022719437722,-9.586556250713785e-05,-0.00034288839173958143,-0.0004952005868738415,-0.005401781871319476,2.46875
0.30756597121921436,-0.06170816359959993,-0.8531006381298457,0.42269473877354435,-0.027807950894430333,-0.049096224995646295,0.15435828834460766,0.08971860023656149,0.028738999751303524,0.022529416776860153,0.0005078797934837705,-0.0017828180464084,-0.0034641200922843683,-0.029222806393379874,2.4765625
0.5404536361914257,-0.10847993220164034,-1.4996459558108237,0.7430099553273454,-0.049163221618092195,-0.08588565645311455,0.2712123110847034,0.15766655618318298,0.051072974450437916,0.039440212668223285,0.0010691725505756874,-0.003121166674190324,-0.006224004522712378,-0.05136086166668965,2.484375
0.1224739329735841,-0.024460804283481803,-0.3386965219815659,0.16779428929853976,-0.01081476455177727,-0.019798382855348486,0.061379203532010436,0.035665646040943445,0.010969078209280602,0.009070929256030508,6.116312184740577e-05,-0.0007174533703601546,-0.0012674811937124408,-0.011600715054437931,2.4921875
-0.520432630647036,0.1047508780426927,1.446848444643905,-0.7168503808302397,0.04816148237764217,0.0818343021470376,-0.26134188489075355,-0.15198634438023415,-0.050713267499550296,-0.037632955939974864,-0.0014892367992119053,0.002979564473376188,0.006355686273894969,0.0495445409941078,2.5
-0.3577031096874006,0.07204604128023935,0.9948775338036305,-0.49291372153348206,0.03322918661551951,0.05610487424090705,-0.17967287816324146,-0.10451124954776733,-0.0351035395656058,-0.025810063879503384,-0.0010968928705534808,0.0020442751181796357,0.004426517303505174,0.03406117542912891,2.5078125
0.25252379721590296,-0.0505845739608868,-0.6998374595714348,0.3466606396871734,-0.022747020969222362,-0.04035698544544367,0.1265888910820601,0.07356646529151524,0.023438701263572954,0.018515365789126062,0.00037463220866654326,-0.0014638898730921595,-0.002808139339793238,-0.023977835844671794,2.515625
0.23199891617635274,-0.046444923591231785,-0.6426870161134252,0.3182559411908485,-0.020851810112803487,-0.03709814654574906,0.11623620567771153,0.06756755840156163,0.021464652670307897,0.01701809165049021,0.00032518283966203823,-0.001345139793857221,-0.0025639308443451145,-0.022018134815089224,2.5234375
-0.09798801099462102,0.01985543233493154,0.2737002015883605,-0.1356850608810581,0.00942097345846005,0.015058886628651099,-0.0493609792776373,-0.02869370517491671,-0.01019384592016671,-0.00694756929949816,-0.0004703282237668727,0.0005518871706993296,0.0013475994710625229,0.009366237481885947,2.53125
0.11213285956233852,-0.022430320525573536,-0.3103119372925625,0.15388213309024068,-0.00987668114278269,-0.01820274474025438,0.05626999462892866,0.03273200282555767,0.009981050088316325,0.008335440156725089,3.6901972593493194e-05,-0.000658403296144131,-0.0011475276813782212,-0.010633707118785429,2.5390625
0.34383386282147216,-0.06902880264622493,-0.9541913569095628,0.4729562820701024,-0.031154083010444106,-0.05486822826137891,0.1727136690407047,0.1004204452472163,0.032231686432409645,0.025179076214468,0.0005960852416429593,-0.0019926043382124327,-0.003898116834005011,-0.032680214146562324,2.546875
-0.09909135367362953,0.020011710285027105,0.27599008968181227,-0.13670310843188704,0.009481040829067613,0.015159643161753684,-0.04961930668868518,-0.028877503771397174,-0.010257122899356395,-0.007002462178402622,-0.0004721055920326327,0.0005542766790582023,0.0013536089942337225,0.009455141802940858,2.5546875
-0.46623471284388407,0.09382284449897023,1.2958878635943103,-0.6421298263705209,0.04317557950713216,0.07322512383554544,-0.23398388552925867,-0.13609040382637883,-0.04549024569089826,-0.033681402886599675,-0.0013578666750687764,0.0026663027324569824,0.005708743702838798,0.04438232567649889,2.5625
-0.025058672447658907,0.005142252511171939,0.07072178546693232,-0.03502254663030188,0.0027024662997679454,0.0034854331873609163,-0.012546964430240783,-0.007348120356594252,-0.003169083479642756,-0.0016303281848866569,-0.0002941537307291163,0.00012957194426381686,0.00047881259782546476,0.0024160899560553254,2.5703125
0.4550973281962327,-0.09137125682354084,-1.2627397036038626,0.625771183451631,-0.04135640768012836,-0.07242778330746528,0.22848780178604775,0.13279465211875877,0.04289902230178103,0.03325341060665869,0.0008638088867581533,-0.002631670276891938,-0.00521408944324572,-0.04325702405292848,2.578125
0.13568137972672842,-0.0271534139777781,-0.37549142682449305,0.18615007720256227,-0.0120509055819317,-0.021925378454942406,0.068100796768264,0.03954808700239665,0.012249549347023263,0.010043305650156164,9.346734465086833e-05,-0.0007942959295542017,-0.001425628431863841,-0.012871597823082729,2.5859375
-0.46496875267833065,0.09359344969150983,1.2927700325384928,-0.6405133703342698,0.04306907698816635,0.07304709323055358,-0.23350286972584086,-0.13580213484249465,-0.045390398413279374,-0.033600057931565515,-0.0013552887362385405,0.00266092649908639,0.005698155158171265,0.04426176106956022,2.59375
-0.48033463397690546,0.09668851495056388,1.335435974164774,-0.6617051801505317,0.044491025956283015,0.07548932603900169,-0.24126939436209036,-0.14030873005359143,-0.046873741844344605,-0.03471986445025307,-0.0013925340591281676,0.0027500983735780317,0.005881382276618136,0.045721647649563234,2.6015625
-0.004174471437527849,0.000984912160611282,0.012989371681393986,-0.006473819800755463,0.0008080343337411752,0.00021714158057113678,-0.0022433329992112144,-0.001314995861917747,-0.0011890684410924778,-0.00012808036652753142,-0.00024419095478028655,1.189998511445947e-05,0.00023499673978643652,0.00043416052330775163,2.609375
0.2565625710707582,-0.051422405934956464,-0.7111917371866412,0.35233887223286975,-0.023115398787227535,-0.041012015715679716,0.12866997879288003,0.07482154964512995,0.023831951548717943,0.01881572697498452,0.00038476325708557027,-0.0014880189664992086,-0.0028579865176319077,-0.024360200527870995,2.6171875
0.048668910217863987,-0.009645079736676006,-0.13390007578790805,0.06631329524415136,-0.0040446205457967494,-0.008160557428014767,0.024349636773487983,0.014160307137286141,0.003889844983209573,0.0037160984687759674,-0.00011648512899484748,-0.0002930588432128319,-0.0003940432408407146,-0.004586429046825092,2.625
-0.1860052266106662,0.03751770034327361,0.5178526222005418,-0.2565723392447907,0.01747974936457645,0.028941730928761365,-0.09341790493222366,-0.05434561349056123,-0.018623616850250806,-0.013331575355998104,-0.0006824130118142487,0.0010562149968474707,0.0023884587465097607,0.01773062469051095,2.6328125
-0.13632784907821707,0.027539189842725544,0.3800005125763273,-0.1882235398088302,0.012914044477893398,0.021109628921658248,-0.06846584765768406,-0.03986331718535981,-0.013856215306151063,-0.009725629289244284,-0.0005626151488238995,0.0007706082887005262,0.0017999281126376626,0.013005252591229853,2.640625
-0.10311176793814893,0.020866161956854794,0.28776467705628894,-0.14252788175908118,0.009863453520457362,0.015866217093821255,-0.05177921559687697,-0.0301647546011342,-0.01066785362916571,-0.007312503996182534,-0.00048243956531604195,0.0005796412650191857,0.0014059642879129897,0.009846866941836296,2.6484375
-0.10838341223189299,0.021911045305281228,0.30214330124590233,-0.14968535698317292,0.010350360240047055,0.016673821612351335,-0.054406251902491806,-0.03166657426087,-0.011171026192686737,-0.007688755497808726,-0.0004950010362813294,0.0006096281438530193,0.0014672498402225772,0.010344321296626583,2.65625
0.49373737628549,-0.09913163807041403,-1.3704831474574881,0.679076239495518,-0.04488745053405653,-0.0785495013387447,0.24782907511045574,0.14412947943325805,0.04660125170280311,0.03605896148972164,0.0009571862692776473,-0.002853536671663709,-0.005673474390724324,-0.04693197841538828,2.6640625
1.4369678398669128,-0.2887179343909403,-3.990177412706369,1.9771111283510392,-0.13142345290038016,-0.2276716925143108,0.7212513699752153,0.419447691631467,0.13709880992451173,0.10457885823457287,0.0032318125813286837,-0.008277953930075918,-0.016857258041755346,-0.13664728897047254,2.671875
1.1257192594950773,-0.22613985408355117,-3.125365119537719,1.5485686563875447,-0.10286876750355442,-0.17844445554122898,0.5649911551814604,0.3285363459994154,0.10723513460380715,0.08196135545302183,0.0024809530970874498,-0.006487566005832763,-0.013164753025429757,-0.10703725394442212,2.6796875
-0.6430448036104799,0.1293944906391156,1.7874865972506815,-0.8857502598011133,0.05940459356468138,0.10120273380943161,-0.32283007662322055,-0.18781447012102484,-0.06246751080189184,-0.04653524398384712,-0.0017848527549833616,0.0036847123972066635,0.007809682769427272,0.061203660971212145,2.6875
-1.6205331454305696,0.3258686146880845,4.50230723372873,-2.2309003436542927,0.14907940050373344,0.2557348811964093,-0.8134514095825537,-0.4731362507678454,-0.15624975221085194,-0.11754349391001427,-0.004142193233548843,0.009305918240495868,0.019399853688223476,0.15417675937045247,2.6953125
-0.6131619119566832,0.1233730024013661,1.7041968745607283,-0.844384760814639,0.056652501352488414,0.09646250605103021,-0.307789252625607,-0.1790374118548337,-0.05959549462384428,-0.04435833360802873,-0.001712580001326839,0.0035121160029772088,0.007453499889884072,0.05835575959736039,2.703125
0.4741537457117786,-0.09519437582634996,-1.3157621652889253,0.6520230049836251,-0.043102066557231096,-0.07543884536312236,0.23798198156549186,0.13838515212953173,0.0447255165919075,0.034632368162239725,0.0009098475052074994,-0.0027410286396173577,-0.005440315314072751,-0.04506672055195703,2.7109375
0.03150808832298441,-0.006225597486352985,-0.08613665239216532,0.04272877850703649,-0.002479752194412218,-0.0054421872786938625,0.015777719415911894,0.009168988778102743,0.002247712871417264,0.0024747045154375424,-0.00015766739992439154,-0.00019465720734269265,-0.00019112820618048563,-0.002961308836187824,2.71875
-0.6731627421055838,0.13543085796264365,1.8712242287789058,-0.9271653827024173,0.06218465638279914,0.10598635420552112,-0.3379698404470159,-0.19656059411003093,-0.0653743974320381,-0.04872066587867136,-0.0018573540719008371,0.003859023833530792,0.00816620603469516,0.06406753758558752,2.7265625
-0.292184831563049,0.05887684517319429,0.8130711986944006,-0.40286031614888224,0.02723606839019608,0.04576408632347398,-0.14678282799995668,-0.0853763454161208,-0.02882745661406669,-0.0210495015027521,-0.0009387918006001431,0.0016685849459762664,0.003650051709116537,0.027831732462342367,2.734375
0.17805571755083416,-0.035639042843238544,-0.49317249785666695,0.24440375320632032,-0.0159151743898816,-0.028594011198621296,0.08926212131082038,0.051905654684320235,0.016297364431942296,0.013109832055302929,0.00019542378049326812,-0.0010364803330532662,-0.0019265857143942763,-0.016896027388146353,2.7421875
-0.19622882366347108,0.039563998821851715,0.5460782158250014,-0.2704787363597794,0.018409497486967394,0.03054687280265306,-0.09851412622735889,-0.05729497219973031,-0.019599297842373797,-0.014072112489127318,-0.0007067439726893391,0.0011144559077110015,0.0025087694277536555,0.018699960898463933,2.75
-0.27020665708204294,0.05439417448168949,0.751184185093449,-0.37202889304085685,0.02518594560971545,0.04220707344164966,-0.13553855866172426,-0.07883793465326071,-0.02668820837140302,-0.019431959332778054,-0.000884768755699826,0.0015386346707715072,0.0033833497429866266,0.025725710510627782,2.7578125
0.7323302181154205,-0.14712403288537065,-2.0334596324008802,1.0077536044373285,-0.06679492635150307,-0.11630583028805794,0.3676762985966055,0.21381003403051466,0.06950116230987663,0.05340140520899281,0.0015329725851257103,-0.004227048051516734,-0.00850446975978289,-0.069638090216362,2.765625
1.3137687838935816,-0.2639476561224263,-3.6480357823647944,1.8076031728521469,-0.12013127505757,-0.20820019552256888,0.6593906218035333,0.3834727764164939,0.1252834105340089,0.095623336566133,0.002934763603158697,-0.007569738590489483,-0.015396358627858974,-0.12493036397056628,2.7734375
0.36019258591298825,-0.07221657466000929,-0.9989072089874669,0.49471218998605354,-0.03262823665178255,-0.05738131315660051,0.18061738820588144,0.10502846449450126,0.03378514756582806,0.026329044406209107,0.0006345058288408759,-0.0020840304393972583,-0.004086042848871398,-0.034207851242073206,2.78125
-0.6252976882271629,0.12588292963839956,1.7385617293641717,-0.8618050444402502,0.05779933369218887,0.09846207975437296,-0.3140457289586914,-0.1826881167486992,-0.06077599264486337,-0.0452645778788462,-0.0017424705298383983,0.003584494557712985,0.007600841158616373,0.05953584595420229,2.7890625
-0.16114227750401086,0.03254978913156465,0.44921654766118047,-0.22278039432686272,0.015211799277502682,0.025066439356168188,-0.08097953073179592,-0.04716852771425784,-0.01624529353796911,-0.011530838173780944,-0.0006229887185212012,0.0009146525870007299,0.0020962115366135437,0.015374851120506303,2.796875
0.5809150087890511,-0.11664167835997756,-1.6120986043683911,0.7988599521206732,-0.05288520316055171,-0.09229119375619231,0.29155086653420875,0.16949626026678613,0.05495632166945638,0.04238733407714109,0.001166896527870467,-0.0033541604735165403,-0.0067039205062382505,-0.05522060483396368,2.8046875
0.16772558036832005,-0.03359690333117548,-0.464585336822123,0.23040407825702608,-0.0149886633608935,-0.026991280460353276,0.08416246812100187,0.04889957096432901,0.01531817587544042,0.012371502497319607,0.00017059795040503717,-0.0009785904949899593,-0.0018045167080376968,-0.015923920671197463,2.8125
-0.4147845269729536,0.08348735743695727,1.1532771473669632,-0.5712686103431224,0.03845624358936544,0.06509715458215685,-0.20821035227799367,-0.12114156514675371,-0.04057115686234839,-0.029943432570421275,-0.0012341874358633832,0.002371583110440863,0.005102553709220744,0.039480707550260064,2.8203125
-0.06690900594350552,0.013550078062394588,0.18700225208093374,-0.09253763934129543,0.006545026625891278,0.010094544296467108,-0.0335600369338171,-0.019565992451542797,-0.007194979711386693,-0.004664979628141452,-0.00039510351619183765,0.000371118919165696,0.000976048409511142,0.00639040659529305,2.828125
0.027743491278083964,-0.005479629625553623,-0.07590834623336289,0.037702625535155014,-0.00214352602642291,-0.004876812189396908,0.013969885559979446,0.008102973830750523,0.0018929568360999509,0.002211929653050773,-0.0001665743442117802,-0.00017354622677303672,-0.00014811525926013806,-0.0026090472896600323,2.8359375
-0.9517044852729841,0.19141252329740727,2.6444672708007433,-1.31029076992148,0.08771138229544338,0.14997054157857603,-0.47768861971013976,-0.2778105394315192,-0.09207284848354909,-0.06895050497636147,-0.002528584135803532,0.005458976099107622,0.011465830239703871,0.09055924734982418,2.84375
-1.329205847707562,0.267316178495659,3.692906556197444,-1.8298680790117625,0.1223554524265128,0.20966195758610912,-0.6672445139940542,-0.38804652032345116,-0.12829685900432491,-0.09638489735425818,-0.00343924559906535,0.0076303447661323996,0.015943737729810926,0.1264691174881811,2.8515625
-0.1462445548776761,0.029541022350650446,0.4073029313797559,-0.20189487124180674,0.01384075644790913,0.022656077552233624,-0.07351940253501146,-0.04274609691739481,-0.014809814711427791,-0.01045034949469575,-0.000586606236939961,0.0008277887521853108,0.0019175880686606332,0.013951020521047117,2.859375
0.7282589725742215,-0.14625333805679688,-2.021452073542589,1.0015921363237297,-0.06639132750109303,-0.11558703591537833,0.3654473962021133,0.21255402103658183,0.06909213712394208,0.05308217563610748,0.0015225185412402905,-0.004201383553138073,-0.008452725916396824,-0.06922836684514569,2.8671875
0.12883248997592725,-0.025783801182039184,-0.35656837772702893,0.1767401442036612,-0.011413128399863573,-0.02082302494106475,0.06462436551390005,0.037599572681898265,0.011587688657791612,0.009540733568800879,7.720000320196866e-05,-0.0007545560795645315,-0.0013459888260410997,-0.012218141105972078,2.875
-0.2916506370615107,0.05873205193942098,0.8111310120619075,-0.4017823630979738,0.02715818931719128,0.04564204932548587,-0.14641820851302645,-0.08515418981928216,-0.02875605061048942,-0.021002453395713733,-0.0009368870232329874,0.001663506869076185,0.003640322027528831,0.027769131232367936,2.8828125
0.5444383112136856,-0.10931205872824473,-1.5110167682533007,0.7488141495234897,-0.04953642251141128,-0.08653456408470207,0.2732272790398144,0.15887476301582093,0.05145227626746375,0.039737043734882294,0.0010791446715444186,-0.003144310701426803,-0.006272281192497482,-0.05175370046260135,2.890625
1.2597750989016383,-0.2530790987596452,-3.4974670198807853,1.7329902734179994,-0.11515429086564669,-0.19960103290699302,0.6322818952392251,0.36765865071550347,0.12008259191006132,0.09170097046965937,0.002804076823130943,-0.007257792880450511,-0.014753430279302902,-0.11978026829991203,2.8984375
0.9102502550600574,-0.18281009155032402,-2.5265450401631293,1.2517972044357002,-0.08308928774425609,-0.14433316958257067,0.45684445442224375,0.26561182855249205,0.08655551009477651,0.06630433179759856,0.00196114159694697,-0.005247822103063375,-0.010608668496784013,-0.08652846079633268,2.90625
0.32729775895445457,-0.0656347972550448,-0.9078028024983495,0.44967300258990145,-0.029612237785854006,-0.05220043915327433,0.16420300162817067,0.09543917535331985,0.030630451281789057,0.023952181909178038,0.0005553081893993735,-0.0018955575468954954,-0.0036965178306297237,-0.031090911884815383,2.9140625
-0.007300008594907898,0.0016003422546222433,0.021122216597093745,-0.010573453144122393,0.001077574131730252,0.000654371801760332,-0.0037548235956431763,-0.002215356751450912,-0.001468058086315527,-0.0003504298232379144,-0.0002514696342749258,2.833733355700611e-05,0.00027014046331433,0.0007191654825852851,2.921875
-0.43101812962347447,0.08673982470738179,1.1980187730436997,-0.5935980360309442,0.039936615006596864,0.06762473622581262,-0.2163525227305303,-0.12586687733389346,-0.04211372817828568,-0.031121015663581008,-0.0012730513256067853,0.002464431967828213,0.005293175928363507,0.04101594691152599,2.9296875
-0.6921562423765345,0.13922172186936493,1.923631244851713,-0.9529788786512198,0.06388660025101063,0.10892901365905616,-0.3473509044928499,-0.20206775461261417,-0.0671694592045069,-0.05008493544816639,-0.0019027907387664156,0.00396599900156982,0.008389216948881483,0.06586065550629797,2.9375
-0.4765185373398948,0.09590401222049881,1.3249596050960926,-0.6563279948327466,0.044118382705744856,0.07487509521549496,-0.2391752177582511,-0.1391263577994183,-0.04649710755380066,-0.034426059301761326,-0.0013830789607558887,0.002726976422835519,0.005833165404240033,0.045362387549047194,2.9453125
-0.38861890057312426,0.07826693060919938,1.0809505728747582,-0.5356166918614266,0.03607661184963721,0.061007650343631876,-0.19518258470321934,-0.11349943061868269,-0.03807499912599912,-0.028055366947617705,-0.0011713148870543713,0.002222754569931166,0.0047919740852013625,0.037012710946530705,2.953125
-0.714457237182433,0.1437685083493257,1.9859551299338007,-0.9842036314149071,0.0659732579390648,0.1125277257980173,-0.35876469602950783,-0.2086432262030259,-0.06932849426035062,-0.05173587855339921,-0.0019570112863803537,0.004096406579937784,0.008656011696134804,0.0680080900458655,2.9609375
-0.6833958147404244,0.13751501332885077,1.8995145395516253,-0.9412894391930537,0.06311335309328651,0.10760560856646516,-0.34311119032068305,-0.19957928029891006,-0.0663399669981165,-0.0494763737429158,-0.001882063605785157,0.0039166871376080424,0.008287675817134074,0.06504781915830125,2.96875
-0.004915773836203377,0.001123027241684662,0.014819771616248995,-0.007249142612350971,0.0008654151546480911,0.0003237532266216814,-0.002502956672515239,-0.00150091625902928,-0.001251549798060385,-0.00017626265159271517,-0.0002459160386583161,1.4511049832746167e-05,0.0002420859112643561,0.000504216887359901,2.9765625
0.5352358885906627,-0.10747450709866278,-1.485580951356556,0.7362433326717914,-0.048688017132123854,-0.08509030817637163,0.2686529854742193,0.15621102755650818,0.05056839016558654,0.03907419847322246,0.0010569606459456967,-0.0030917000813937556,-0.006164105060092954,-0.05088089429700286,2.984375
0.4888170512299737,-0.09816632946709558,-1.3566852271302703,0.6723351661578316,-0.04443915581482878,-0.07777079937154287,0.24538926132113775,0.14269026960685402,0.04612790361134305,0.03570584090173533,0.0009455059517298442,-0.002825302692611406,-0.005614920523074365,-0.04646915661261683,2.9921875
0.27401234571538247,-0.05497996451914589,-0.7600478558216265,0.3766963463861215,-0.02474428087309307,-0.04382348578495447,0.13755994904454405,0.07999690172880472,0.025530317970290116,0.020097221593580242,0.0004275828648023767,-0.0015905418915196068,-0.0030678003544146364,-0.0260341080378008,3.0
0.30656959069336936,-0.06149463114067107,-0.8504141904846767,0.4214475723425063,-0.0277279474930398,-0.048966957171082647,0.15383740402328444,0.08949439718939224,0.02864908484145074,0.02245587990597461,0.0005057890660753492,-0.0017772162442009443,-0.0034532061823993056,-0.029124354168274122,3.0078125
0.5777595725622429,-0.11599840781768322,-1.6035333181144702,0.794524314297509,-0.0525949490694752,-0.09181938878380107,0.2899262093094706,0.16863758864992506,0.05465883881243451,0.042153767674957855,0.0011596365430177884,-0.003335876733719162,-0.0066686756375196315,-0.054917380216933175,3.015625
0.7219389087672408,-0.14499117913684587,-2.003850489503408,0.9928275471038904,-0.06581532120734619,-0.11458377028303826,0.3623136489393434,0.21068954987781552,0.06848855809663977,0.05262750102618493,0.0015073463894199309,-0.004164830452389434,-0.008377692240516927,-0.06863219859363498,3.0234375
0.2782058859171907,-0.05578978986870592,-0.7712783737842237,0.38212138610566676,-0.025105375286303723,-0.044413832965092236,0.1395765446091456,0.08112078095017967,0.02591226652832861,0.02038962030546201,0.0004370017006669694,-0.0016130173564978315,-0.0031145289205166972,-0.02642200388930343,3.03125
-0.48362967329854195,0.09736430294483885,1.3446910973628878,-0.6663271699490146,0.044787463293831625,0.07602121863813274,-0.24285471765856126,-0.1412833868989657,-0.04718385742948586,-0.034957520053248495,-0.001400532298311714,0.002768468273717926,0.0059197034352522545,0.04604487759352839,3.0390625
-0.6060470706973563,0.12196384113175839,1.6845655617238253,-0.8347628731653941,0.05601634614772305,0.09535604798046313,-0.30427962711916606,-0.17700889439951925,-0.05892606028279321,-0.0438482206266129,-0.0016956510637797509,0.003472442317095651,0.007370138314339742,0.05768331902636902,3.046875
-0.09723285163745266,0.019666878716733616,0.27125196574791755,-0.13442312117828395,0.009329541227535546,0.014907942428420617,-0.04882324768573771,-0.02846677548253714,-0.010103063859870252,-0.00687995522648164,-0.0004683138267341674,0.0005456805500389217,0.0013359145141021694,0.009279403998868556,3.0546875
-0.1669994996729264,0.03369512127083355,0.46506291116244086,-0.23034615949378756,0.01572116708167665,0.0259377338925821,-0.08383088562430509,-0.04882395648466999,-0.016793614723081624,-0.011948642453254743,-0.0006365347788717171,0.0009463839473758446,0.002163861883123765,0.015918111240926378,3.0625
-0.9212266823301911,0.18531649883698031,2.5599320811807855,-1.2683393201129765,0.08491266121395354,0.14516807564983844,-0.4624452481910288,-0.26897852103866415,-0.08915405122075054,-0.06674400900117836,-0.0024555164284638196,0.005283922136751963,0.011107659349435466,0.08766300574081057,3.0703125
-0.7970636584152483,0.16034519679067047,2.214996782665169,-1.0975555620694972,0.07353101616997232,0.12552997758697323,-0.4001399245759307,-0.23271698914041283,-0.07724073427162063,-0.05772203864101151,-0.0021560260590287594,0.004570260587345317,0.009634356286641912,0.07584880055910066,3.078125
0.6331126010750597,-0.1271574084624777,-1.7573009252247145,0.8706083491814842,-0.05766197505871181,-0.10056667247573693,0.3177276652593329,0.18478003153064765,0.05996962749892076,0.04618132184029496,0.001293064505541887,-0.0036541770695048704,-0.007325051196101131,-0.06019082974901685,3.0859375
1.4967441387282876,-0.3007474562205841,-4.155887481762132,2.059170229159408,-0.13689240997951188,-0.23709361733733014,0.7512153786274066,0.4368941273842489,0.1428246875042109,0.10892150788502353,0.003375788749873242,-0.00862082314100977,-0.017565320532272367,-0.14233121201840002,3.09375
0.49436270879383354,-0.0992319900197118,-1.3716650219264508,0.679751817584416,-0.04494566383248272,-0.07862100844445448,0.24808620430829237,0.14429331570156978,0.04665588609123875,0.03609524036917718,0.000958443110870062,-0.0028565934079116356,-0.005678919178381457,-0.04697744828900401,3.1015625
-1.0529296980604061,0.21179383213179281,2.925909261054498,-1.4496029332713682,0.09700068777597148,0.16601005281690964,-0.5285355294802914,-0.307396025598507,-0.1017963706416609,-0.07631453748604776,-0.0027730815443497733,0.0060415847606888,0.012668480663456796,0.1001973895388904,3.109375
-1.2224261196780442,0.24585008201736272,3.3965637511380407,-1.6828305977447526,0.11256066408901126,0.19282377689491004,-0.6135977984498309,-0.3569070940138438,-0.11806724748773596,-0.08862409144802845,-0.00318203169816777,0.007016665147535268,0.014678881699805134,0.1163116626200248,3.1171875
