AF3,AF4,F3,F4,F7,F8,FC5,FC6,O1,O2,P7,P8,T7,T8,time
-0.05698340935200802,0.011577503047337158,0.15930262165313103,-0.07900865823110256,0.005648632191801428,0.008549525748165452,-0.028654866378072543,-0.016673637482364657,-0.00624221259151117,-0.003957400928111676,-0.0003713129103408176,0.00031390379254221207,0.0008580477807843152,0.005457704224144129,0.0
0.21352530832158237,-0.04279658127422521,-0.591870149002039,0.2932733616907866,-0.019175185666511167,-0.034214903692084714,0.10713165715199478,0.062267071473607105,0.019710176657575275,0.015695137677297133,0.0002810127888955058,-0.0012415013412588058,-0.0023483246822540885,-0.02027643407253705,0.0078125
-0.1816954127709556,0.03665612033816311,0.5059478079402525,-0.25070710808402447,0.01708223227037306,0.028265783929362725,-0.09123869431220498,-0.05312148073147158,-0.018209741764094456,-0.013016807690510564,-0.0006721136699785927,0.0010319117400924686,0.0023384874684020864,0.01731579868266688,0.015625
-0.23326363624582755,0.04702739075078321,0.6490824125120483,-0.3217085452780719,0.021810468677708424,0.036403994201539974,-0.11710743723588064,-0.06814692322555939,-0.023148068393882334,-0.016765608297807332,-0.0007961930655179271,0.0013280285727979675,0.002948347761579287,0.022225667319573886,0.0234375
0.15921998764472947,-0.031862581610130496,-0.44101449578663254,0.21844329985813332,-0.014201815854679684,-0.025643588752587904,0.0799028859277705,0.046444373601797706,0.014513946450815975,0.011745022359031505,0.00015038637013643977,-0.000929763417930274,-0.001706222783837424,-0.015100760557423609,0.03125
0.09342616192136331,-0.018631806792406714,-0.2580614662027466,0.12787600191399354,-0.008161129494420842,-0.015209895830810992,0.04686975057200981,0.02721267883662954,0.008189764162765565,0.0069673344425862285,-8.736040423910376e-06,-0.0005509272330666046,-0.0009242804058773872,-0.008839663282822107,0.0390625
-0.33124092821700435,0.06672615755708478,0.9214712237323696,-0.4565344533183329,0.030808614787877404,0.05193955524794246,-0.1662995215148795,-0.09676489330012017,-0.03256759782051092,-0.023878468413927167,-0.0010330912163514902,0.00189207145109203,0.004112279652049927,0.031551352135566736,0.046875
-0.11427137189560203,0.023090142221414457,0.3185447951415832,-0.15777572304291107,0.010897081666270545,0.017591483375019805,-0.057400160034229444,-0.033385093893689315,-0.011742723794757536,-0.008114197749766409,-0.0005092541602010758,0.0006437728998392653,0.0015377400038956053,0.010905107803744301,0.0546875
0.6363326779215438,-0.12781328065547018,-1.7664916493443164,0.8753870989765672,-0.057985619216188396,-0.1011264084267985,0.31936185279150947,0.18576417125134545,0.06029253158613517,0.046413175696840794,0.001301597795571731,-0.0036741425631310618,-0.007364503219386226,-0.0605013639175755,0.0625
0.8454270062788689,-0.16984869917376294,-2.3471883805858647,1.1631382686974305,-0.07717384226080506,-0.13417110138105454,0.424325328557291,0.2467793588709288,0.0803559941271018,0.06160295857558134,0.001805718419767191,-0.004876700153031409,-0.009843171827793856,-0.0803953769707172,0.0703125
0.35531619411242316,-0.07131588409622923,-0.985715865290629,0.4884715553292399,-0.03219082165396477,-0.056634101524954114,0.1783053952813976,0.10365980229715198,0.03331569845487924,0.02599815174279741,0.000623094072451707,-0.0020568740430910305,-0.004029658616905634,-0.03377287148542269,0.078125
-0.1395248595623117,0.028181672372697635,0.38890054984026423,-0.19276316878536615,0.013225030175764126,0.02162776520831119,-0.0701338472052298,-0.040827306874313726,-0.014172537810113777,-0.009957582821474744,-0.0005706705211237586,0.000789895685636346,0.0018392754290656747,0.013307965527979557,0.0859375
-0.46155882001241566,0.0929446872472434,1.283568912571316,-0.6361518071367454,0.04276812936934715,0.07254050751306512,-0.231823524462617,-0.13485811489149238,-0.04506492594590235,-0.033363273519309546,-0.0013473446790056892,0.0026419175505091536,0.005658483775602785,0.04395248277674368,0.09375
-0.71945545577354,0.14479299414438404,1.999926650089577,-0.9910722971836433,0.06641928789241881,0.11330940764522494,-0.36123452525087923,-0.21013997420909264,-0.06980333264505953,-0.05209755730391075,-0.0019692854335079074,0.0041247734502812584,0.008716436105741604,0.06848575339993714,0.1015625
-0.6134584881300549,0.1234627925922983,1.7052457750536658,-0.8449185053839469,0.05669138657372272,0.09653924308421921,-0.30794664626734936,-0.1791475832532132,-0.05963790712193161,-0.04438235026181413,-0.0017135415182661525,0.003515021599750103,0.007458127973795224,0.058393326060519196,0.109375
-0.1348822864297083,0.0272358743960411,0.3757509028980364,-0.18604519727463162,0.012787803900876062,0.020855305367289346,-0.06771720605559901,-0.039393671593602325,-0.01372728775069439,-0.009606129316541676,-0.0005591857412295954,0.0007626624925401821,0.0017819161097370549,0.012862521961264771,0.1171875
0.20546926326944126,-0.04118513283914068,-0.5694819935532456,0.28229458637789234,-0.01843191790573089,-0.032959232458256056,0.10306217264947616,0.059949672493401246,0.0189272837273154,0.015113931488371998,0.000261625225134567,-0.0011948000801077327,-0.002253542880316657,-0.01950999116025454,0.125
0.3856012188767859,-0.07739762281961533,-1.0697510094459008,0.5301137504060441,-0.034957328181764766,-0.06143088957101781,0.1934884731511938,0.11251105081463243,0.03621641071205671,0.028196754874515766,0.0006960255869020507,-0.0022312736072638132,-0.004389232747427395,-0.03664262541084625,0.1328125
0.6369104834970597,-0.12793690853717216,-1.7681153746160665,0.8761748181460715,-0.05802723728780602,-0.10118021755992965,0.3197442439640539,0.18592168692511643,0.060341933661637995,0.046463372166842425,0.0013025466319469235,-0.0036776587514149037,-0.007371476204031274,-0.06055566169312724,0.140625
0.43850323722818113,-0.08806926516122242,-1.2172278230417615,0.6032552156956797,-0.039843022237080326,-0.06984008243381123,0.22021430711341047,0.12807130704728914,0.041319036988356976,0.032056306050707625,0.0008245992402045805,-0.0025371692301534364,-0.005021109041970989,-0.04168861109679991,0.1484375
-0.40111107361986553,0.08073279740971791,1.1152908191395061,-0.5525651533111133,0.03718789171520671,0.06291976008618928,-0.2013139731143819,-0.11705606967139867,-0.03924007870683354,-0.02894948327578917,-0.0012005189882216354,0.0022924445452396397,0.004936684414231139,0.03818762550021746,0.15625
-0.6254519435974447,0.12587530698560787,1.7388472169706657,-0.8616556650649373,0.05778917072239775,0.09843439067432165,-0.31402418857794817,-0.18264272007269108,-0.06077894789006948,-0.045260946529076654,-0.0017423296711907433,0.0035838678348975926,0.007600697110518845,0.05954227003274141,0.1640625
0.35174019317138344,-0.0705413438036696,-0.9757032098864403,0.4833503139579851,-0.03185403206244672,-0.05605888614691462,0.17648792177857786,0.10258230776155401,0.032973753897980705,0.025728304028833866,0.0006142067221071221,-0.002036239520235248,-0.003986280403060194,-0.033412532862458176,0.171875
0.8487046731255485,-0.17045896798515375,-2.3565814469923336,1.167604310518816,-0.0774556373111533,-0.134667741011307,0.4259835381060743,0.2476867194453304,0.08066272137935136,0.061835602713721016,0.001813224056735501,-0.004895059400646739,-0.009881261745373779,-0.08069920939945456,0.1796875
-0.23350894287939314,0.04707397421854537,0.649612295600628,-0.32190890043016196,0.021831994638807785,0.03643800766493489,-0.1172746120181733,-0.06824646662996486,-0.023175349259482888,-0.016787802257893347,-0.0007967926215231805,0.001329479768157784,0.002952436779609017,0.022240572635185266,0.1875
-1.1941119967391303,0.24018341435236967,3.318429699649565,-1.6442587573896565,0.10997597571871398,0.18836966196461805,-0.5995055132280485,-0.34872805900932036,-0.11535916494100672,-0.08657765455367765,-0.0031142029164659166,0.006855224980901962,0.014346454206871207,0.11362638817713903,0.1953125
-0.5586926165629276,0.11245188873520505,1.553503601465156,-0.7697186900256929,0.05168207368487517,0.08792848836348313,-0.28051609025402136,-0.1632317886890221,-0.05439696354426369,-0.040410147477368846,-0.0015819549979103646,0.003200594457163844,0.00681148111503286,0.05318762863886892,0.203125
0.35688916564211187,-0.07162201370369642,-0.9901318147660325,0.49063696498259757,-0.0323319758403123,-0.056877151641823914,0.1791194672402065,0.1041297972314153,0.03346531063979225,0.026113898270393305,0.0006268020553752043,-0.0020662160478957187,-0.004049230362647226,-0.0339142446155715,0.2109375
0.23863086138663953,-0.04786300419854528,-0.6617536510677021,0.3279092910844685,-0.021487996087698996,-0.03822040342306065,0.11970911801401261,0.06965034864707391,0.02212535105049954,0.017521727142736372,0.000341942781177827,-0.001386081996496055,-0.002648380558052609,-0.022670157124644662,0.21875
0.1256013790411211,-0.025124144383453725,-0.34741747470944667,0.17215222853249143,-0.011106172518204232,-0.020331435362323944,0.06288010649933581,0.03661459255765198,0.011268063774419787,0.009302831901680604,6.893946730694391e-05,-0.000734996437364651,-0.001305886723805241,-0.011910599366076177,0.2265625
0.7670168700867108,-0.15404428192679023,-2.128882597931414,1.0548615262573404,-0.06994492907790958,-0.12171456621981422,0.38484709084619645,0.2238316565518236,0.07280256480189433,0.055899243859274986,0.001615610067803083,-0.004423670557919621,-0.008910538644169304,-0.07291658570185303,0.234375
0.8056727736987555,-0.16181716634962234,-2.2364513777550497,1.1081702393048674,-0.07349897211195398,-0.12783075218604797,0.40433742401554335,0.2351450866580062,0.07652038911545327,0.05871203655831557,0.0017091819444471656,-0.004646683389869912,-0.009369924044178017,-0.07659429328393694,0.2421875
-0.34241182903570777,0.0689773006947163,0.9524591335035071,-0.4719081035582652,0.03182456775791622,0.05368499762210311,-0.1718997019063665,-0.10000198953350484,-0.0336281974825492,-0.024694847881823374,-0.0010595266133456307,0.001955935807440486,0.004244058013630036,0.032616083842804906,0.25
-0.9440970204949269,0.1899471434207874,2.623803357727871,-1.300070268600691,0.08702803433201521,0.1488320008197756,-0.4739147066100845,-0.2756901341290536,-0.09136120638204505,-0.06840991035501937,-0.0025109485366164295,0.005416593236068177,0.011379854504199394,0.08985378917408761,0.2578125
-0.11685982782497292,0.023637680081273944,0.3258027105036065,-0.1614346793465354,0.01113054734908943,0.018027358278226456,-0.05863776785544379,-0.03419174010694445,-0.011986975271123305,-0.008305361661869773,-0.0005158229458149824,0.0006585357753829908,0.0015689157138383933,0.011155290937565598,0.265625
0.5079940823887602,-0.10203721398180939,-1.41029196220187,0.698887711342297,-0.04621317672783636,-0.08083114268120918,0.2550964201864324,0.14831972853067565,0.047980898467241045,0.037107538499960735,0.000991965830933412,-0.002936321500232628,-0.005844573896267707,-0.04830489971048256,0.2734375
-0.12824837414173149,0.025814984400330334,0.35671791618912563,-0.1765094300998599,0.012142724001804078,0.019711569692184426,-0.06421819474234122,-0.03732211285221597,-0.013053452352744271,-0.009103400315414406,-0.0005417689286461248,0.0007220021927175241,0.001697800388837046,0.012204629445741959,0.28125
-0.7084129881262313,0.1424637478500389,1.968284386954717,-0.975048838156373,0.06537217319308514,0.11145676185343698,-0.35546752716913466,-0.2066942274939475,-0.06871954206746818,-0.051259082544485184,-0.001941078357150874,0.004058638169040132,0.008578453366022004,0.06740275699452211,0.2890625
-0.19388283800013656,0.039082803850045776,0.5393039560937098,-0.26721198269177077,0.01818602084740697,0.030159616123782103,-0.09728839763848857,-0.05656543477657758,-0.01935841434196439,-0.013896530492927212,-0.0007007907955758927,0.0010999193298747891,0.002479218106845593,0.01847754516096711,0.296875
0.4713717127910716,-0.09462192654041361,-1.3082106132320508,0.6480275447020158,-0.04282662515990354,-0.07498418242889887,0.2365329926081374,0.13755750761235877,0.04446266084594188,0.03441877303309947,0.0009029922877067365,-0.002725339855808466,-0.00540735822340453,-0.044794411451809436,0.3046875
0.4198731732063734,-0.08425313093039621,-1.1647231162566636,0.5768988957860378,-0.038090682440992764,-0.06682077704456786,0.21058765709960403,0.12244004268872478,0.03950923389153272,0.03066716666791442,0.0007782039144743628,-0.0024279852062010893,-0.004793818488257318,-0.03989374863626106,0.3125
0.1423693174585447,-0.02843513029066894,-0.3936091555638397,0.19487606798934268,-0.012630460896077752,-0.022923427455418324,0.07122249526295357,0.041353420812148996,0.012869163646545924,0.010499368567626467,0.00010844650694787696,-0.0008306723164164487,-0.0014999485917964923,-0.013494624227885393,0.3203125
-0.00203585883507537,0.0006158989875345831,0.0075427148603120315,-0.003808795616555314,0.0006134808573456517,-7.838688401183893e-05,-0.001282770077278563,-0.0008204312652565788,-0.000995844011752324,8.810954947351689e-06,-0.00023995919687894315,6.812076629686387e-07,0.0002139083160362073,0.00024245934338660194,0.328125
-0.3030084730271139,0.06109505391172902,0.8434884349023616,-0.41790229885966546,0.028221121277941217,0.047499873272957335,-0.15229921466507698,-0.08863217108827394,-0.029874640182564673,-0.021845075041212723,-0.0009655578697425138,0.0017315552644949514,0.0037818181122297213,0.028868443616968605,0.3359375
-0.4781523303106177,0.09625984480923715,1.3299005349265292,-0.658833928091871,0.0442858798963075,0.07517334446144225,-0.24010449655416732,-0.13970189808613373,-0.04667366429478636,-0.03455448518253304,-0.001387532139084337,0.0027380620320538365,0.005856410786170716,0.045523577144211284,0.34375
-0.01071895405436839,0.002279832820512181,0.03132971889265266,-0.01543276979939813,0.001400420812781184,0.0012574500476515845,-0.005402772652817186,-0.0032190036149719547,-0.0018175799130728742,-0.0005901697121905247,-0.0002598371820861329,4.907516435654406e-05,0.0003116782685469428,0.001057211831780226,0.3515625
0.5049827413313598,-0.10137690365855516,-1.4013943667120323,0.6943674053454238,-0.04590975697255284,-0.08028306155510705,0.2534531902785864,0.14734565642387457,0.04766780864354412,0.03687118444391562,0.0009841674157186348,-0.0029170430403076845,-0.005804675734840198,-0.04799732011183494,0.359375
0.24049285163913225,-0.04821019356105913,-0.6669540953585432,0.330398308054292,-0.021642802351278953,-0.03847712943426571,0.12069026115711587,0.07017677243153325,0.022297685238983574,0.01765413432965584,0.00034651761346965194,-0.0013963339208904703,-0.0026696389588933647,-0.022836922616165815,0.3671875
-0.27498733403018766,0.05538553742333038,0.7646772239335116,-0.3789327149985627,0.02564218994251294,0.042994541099963264,-0.1379933075336672,-0.08024150714529088,-0.027148356716413257,-0.0197880105644256,-0.0008964032487692165,0.0015670742000857365,0.003440730314649611,0.026194996143922337,0.375
-0.10621022141439625,0.021429165004218376,0.29564462743203146,-0.14643366576627848,0.010141115019555749,0.016271380755005258,-0.05320329172965451,-0.03091184373593497,-0.010941406561363448,-0.007516691370243561,-0.0004890595876601066,0.0005950931671007174,0.0014369711632954655,0.010133019050380884,0.3828125
0.4315909825692308,-0.08669263767501666,-1.198286138615548,0.5939330376229139,-0.039217194239256715,-0.0687873850940008,0.21675464060128535,0.126117582533607,0.04066455020594907,0.03155811170083719,0.0008081102615106005,-0.0024983662170765903,-0.004941259720834139,-0.0410335314402398,0.390625
0.4348290632497731,-0.08734543390828625,-1.2071070188218025,0.5984227809421064,-0.03952501617736803,-0.06930727059436578,0.2183472175334212,0.1270513391346938,0.040973626122648335,0.03179236116215584,0.0008158016161107477,-0.002516758705551103,-0.0049786019755043934,-0.04134634799725649,0.3984375
-0.1528872970004784,0.030806859132509763,0.42571180948278287,-0.2106391013765111,0.01439969967142373,0.02363580276089795,-0.07669101693112151,-0.044576609029705776,-0.015422254042679594,-0.010908561121939045,-0.0006019320502014614,0.0008639206182806503,0.0019929537577478046,0.014563433868725412,0.40625
-0.6463409851278433,0.13003572280723386,1.7966615795207754,-0.890135634676347,0.05969615898342726,0.10170933133772059,-0.32444348939557544,-0.18872188007981774,-0.06278181493822617,-0.046768120672095695,-0.0017924979944911664,0.003703252876070567,0.007847325477753193,0.0615145493780072,0.4140625
-0.4961737730552927,0.09989952469120326,1.3797160893055285,-0.6837938611667052,0.0459490977386243,0.07802803358613601,-0.2491659055662791,-0.1449800530337588,-0.04839171416585899,-0.035874375990350135,-0.0014308913920242868,0.0028414130610214653,0.006069517373916279,0.04724149222836147,0.421875
0.13567978914252232,-0.027086952045300847,-0.3753165393800688,0.18571396150537606,-0.012010085439472112,-0.021854325393065442,0.06792963702001303,0.03941764821752692,0.012226135725419205,0.010020049084744626,9.263298207099828e-05,-0.0007918097185418755,-0.0014212598944263403,-0.012859870734031015,0.4296875
0.3803288483769289,-0.0762689604355967,-1.054883426970159,0.5224791759302141,-0.03446521856864019,-0.060555920913490595,0.19072936736626545,0.11083000410051275,0.035706144423284535,0.02779473717284918,0.0006826422495594087,-0.002199447123329845,-0.004322012985452848,-0.03613371121787777,0.4375
-0.17874311774819485,0.03611363972374865,0.49804809727305516,-0.24698043251277915,0.01682472741695468,0.027837666819147955,-0.08990230025111429,-0.05236981630307663,-0.017934294601568777,-0.012820602888993945,-0.0006656998537661972,0.0010157395562497599,0.0023073145468882794,0.01704983378344598,0.4453125
-0.5570153597089003,0.11216259033695548,1.5488045547971945,-0.7676580444726071,0.05154355300865012,0.08767688480066634,-0.27979929640023127,-0.16279462730892116,-0.05424094025573042,-0.040304644686972854,-0.0015781247298064047,0.0031920991097979393,0.006792801326593321,0.053037559231764266,0.453125
0.08260313376885417,-0.01642941001535655,-0.22790037160934057,0.11279672668873675,-0.007135234698826815,-0.013455135933577146,0.04129588540864958,0.023964455004979086,0.0071231158810686965,0.006168511298206072,-3.537963325958199e-05,-0.0004865220515454977,-0.0007930343928750388,-0.007808668592021698,0.4609375
0.7342772808866054,-0.14748292539335126,-2.0382597479054456,1.0100685444247144,-0.06694802288515368,-0.11655421053542744,0.36852179400910223,0.21430846536080966,0.06966655171418794,0.053528995660689235,0.0015369939370530482,-0.004236246847550812,-0.008523893448420899,-0.06981108894831234,0.46875
0.3580074800787834,-0.07189392529307193,-0.9933617453892033,0.49247868811558093,-0.032456741806002394,-0.05712151503695641,0.17975563767410324,0.10457512825270857,0.0335883074517531,0.026207039710536714,0.0006303375961273803,-0.0020740036075798016,-0.004065712075787681,-0.03402923998331496,0.4765625
-0.09730831275922004,0.019626982796209676,0.27127516643228256,-0.13416443115153914,0.009307764750756911,0.014867080235312281,-0.04875637757837513,-0.028310243738001322,-0.010090876259527561,-0.006869122797252788,-0.0004674538121126121,0.0005443981592268558,0.0013320138546395793,0.009281807623662867,0.484375
0.21167887493973395,-0.04246867743110422,-0.5869021648387609,0.29103821434463645,-0.019033474549252447,-0.03396146061692524,0.10635287495067726,0.06185706761945325,0.01954774132800057,0.015577793543406328,0.0002775333572190295,-0.0012321990598166222,-0.002331058736168233,-0.020105668488031223,0.4921875
0.16882934804320673,-0.03384380153699768,-0.4678475947229532,0.23207836719828803,-0.015095879120332853,-0.027180194009110543,0.08485197758303074,0.04931225729050284,0.015430048398237013,0.012465907265800111,0.0001738073718323439,-0.0009856799266205122,-0.0018214560620708057,-0.01602831568509831,0.5
-0.681661669717248,0.13713529200303476,1.8944543605061592,-0.938522922586573,0.06294022505187871,0.107288593638166,-0.3421138986655071,-0.19900019511043912,-0.06617359089517517,-0.049327616558600046,-0.0018777093478667209,0.003905982705141989,0.008265167760007686,0.06487248048294748,0.5078125
-0.730907207752508,0.1470636157404351,2.031281803158117,-1.0065785669898033,0.06747308343645315,0.11509039756523466,-0.36696266344405065,-0.21343688435905056,-0.0709012133581162,-0.0529213354598548,-0.0019967313779515185,0.004190225519114812,0.008850936696248209,0.06956042974017004,0.515625
0.33279580332288666,-0.06674053643878021,-0.9231125930937564,0.4570948023176428,-0.0301050089141035,-0.05307036173634031,0.16688587288311083,0.09703162756073928,0.03115719263139365,0.024344023889301958,0.0005686047031836127,-0.0019266765585952428,-0.003761421484379726,-0.03161501854252295,0.5234375
0.5531800413537135,-0.11105486652583997,-1.5352151459990193,0.7603913302371972,-0.05032990372773255,-0.0879171993935602,0.2775573932144941,0.16138668878338758,0.05230919746367144,0.04035956305298787,0.0011003086399425336,-0.0031946425396494394,-0.006375806574823183,-0.05257761238804024,0.53125
-0.31145770964058056,0.06273122835911667,0.8662144325550379,-0.4293185455206504,0.02897962591847195,0.04876881421448425,-0.15636521381658575,-0.09096274985439116,-0.030646076816635868,-0.022442390495662802,-0.0009848171186273517,0.001777455000973124,0.003875539139608098,0.029660071418765727,0.5390625
-0.2689407322464666,0.054192693689168354,0.748038730571935,-0.3705326326789014,0.02507160275174331,0.04203836349429906,-0.1350360215254008,-0.07854568659700208,-0.026579349099974788,-0.01934938129398826,-0.0008824612451228557,0.0015334474026142267,0.003372294453953403,0.025609234594023353,0.546875
0.6287511622733123,-0.12623483182990383,-1.7450903635718507,0.864926070457704,-0.057277937799212336,-0.09987455224147614,0.3154835378342119,0.1834634282611895,0.059532412030573204,0.045859533980716016,0.0012821770633740842,-0.0036284382851221823,-0.007270062291187245,-0.0597742347657742,0.5546875
0.3757074641197542,-0.07537441983418901,-1.0419321131416783,0.5164535388667825,-0.03405122233122962,-0.05984369781522924,0.18846163701158059,0.10958429826371817,0.035253303873727694,0.027470859801318005,0.0006718872601320486,-0.0021733553007416504,-0.004269444592547008,-0.03569325459133355,0.5625
-0.6712229025916626,0.1350432970370157,1.8658875692809775,-0.9245219180058035,0.061999689732610205,0.10568055624746785,-0.3369548155981593,-0.1959876787986586,-0.06517803299698285,-0.048582326821174665,-0.0018526135959191612,0.0038466299583343852,0.008142061810894344,0.0638926646808966,0.5703125
-0.5385187700283594,0.10835943588719986,1.4970084957181584,-0.7418441317540788,0.049820417216645096,0.08468360264745957,-0.2702801135093748,-0.15722344961427567,-0.05243471067455812,-0.03893612257045367,-0.0015323126154360058,0.0030830429413521315,0.006566683268285362,0.051263569196001856,0.578125
0.3068476822826573,-0.06154270275059858,-0.851035909750073,0.42159731600482947,-0.02773633952099831,-0.04896767121616574,0.1540065835116483,0.08950628225648284,0.028668770861311494,0.022472489457923354,0.0005061863149883324,-0.00177817471587675,-0.003455806248533091,-0.029148240396005734,0.5859375
0.27961137249604584,-0.05604678735670981,-0.7752388925088238,0.3840230055827643,-0.025234344108912315,-0.044640035943586766,0.14025760032857795,0.0814932143637605,0.02605031709118342,0.02048267883072541,0.00044012718354535834,-0.0016211849788571227,-0.0031303848481965746,-0.026554914222323707,0.59375
0.001302891862370508,-0.00011864220336379933,-0.002382440420655311,0.0010278466627496516,0.0002957741171748086,-0.0006431066816592444,0.0005580720069701555,0.0002567496564598918,-0.0006452263279830224,0.00026407662003923444,-0.00023093748862005757,-2.103169962945945e-05,0.0001694031134824885,-8.811374312180853e-05,0.6015625
0.3385477198134113,-0.06793467313991813,-0.9393814258909007,0.46536352192361313,-0.030652855618135896,-0.05399861998760765,0.16989973573833286,0.09877552144418338,0.031717754402931786,0.02477758680765458,0.0005828467699089521,-0.001960934954128244,-0.0038318545857765583,-0.03217513344276201,0.609375
0.21011721419461984,-0.042127512595167685,-0.5826060451901605,0.28879517651518,-0.018876901588115284,-0.03371700557176903,0.10547672907051599,0.06134897671100762,0.019388569040785706,0.015459892635635034,0.00027329326845633114,-0.0012221788415625657,-0.002310076362855064,-0.019957289473835804,0.6171875
-0.6018326875679527,0.12108033601415055,1.6728844720728557,-0.8286030242520942,0.05561329194595926,0.09466218384400853,-0.30208741715619697,-0.17566009350677428,-0.058524171380273375,-0.04352410498838477,-0.0016850269286498322,0.003447509236333855,0.0073183536528642545,0.05728101123763349,0.625
-0.41826683343866833,0.08417612277149744,1.163077002421231,-0.5760230050046287,0.03877778896467442,0.0656522536916486,-0.20997004432405572,-0.12209879630435146,-0.04091349482639605,-0.03019200146776635,-0.0012424535773084655,0.002391684849716482,0.00514214290091154,0.03982060101922964,0.6328125
0.6262594163656904,-0.12577473435266096,-1.7382427355752383,0.8613930028409232,-0.05704193007387111,-0.09948930652023633,0.3143107036639582,0.1827891511448338,0.059307120082741284,0.045685984444358584,0.001276589213847318,-0.0036152919958608114,-0.0072435382980502415,-0.05953444507968795,0.640625
0.42645572226416245,-0.08558942500948859,-1.1832770504963588,0.5863014808090264,-0.038709114715199146,-0.06789926759019078,0.21400457817407378,0.12444963871425707,0.04014024361970427,0.031165095467089777,0.0007946988375130827,-0.0024658754811253854,-0.0048738590125555125,-0.04052568602050327,0.6484375
-0.7837004212671396,0.15766904601163187,2.1780330850450316,-1.0792032637143385,0.07230619685180052,0.1234352826458665,-0.3934360172242258,-0.22882516659043894,-0.07596294057919377,-0.05675514237726669,-0.0021237901947072455,0.004493660211384561,0.009476440907499746,0.07458272543792438,0.65625
-0.7902263629224439,0.1589678240457385,2.196126335582222,-1.0881715598166455,0.07289829689044917,0.12447152914921146,-0.39669633843217234,-0.23074567169259683,-0.07658391481451111,-0.05723021804377456,-0.0021394426806133136,0.004530844572945539,0.009553698261870195,0.07519731444389437,0.6640625
0.3047168865394931,-0.06112316710810643,-0.8451559211735,0.41869561469659333,-0.02754931144379516,-0.048639632341245055,0.15292388319888922,0.08887495206586116,0.028468699267731563,0.022316853743269603,0.0005011886754111493,-0.0017659801275831488,-0.003430256564600398,-0.0289526958321001,0.671875
0.7238959977520603,-0.14535918994467134,-2.0094406274476175,0.9955373088824168,-0.0659969909891582,-0.11491113308407193,0.36331756093623624,0.2112413801686059,0.06868077763805736,0.05276911627038506,0.0015119585688858873,-0.00417612411664413,-0.008400646955395516,-0.06881777701197425,0.6796875
0.5148970777231922,-0.10333902128802255,-1.4289831667605475,0.707953269053451,-0.046823052464275546,-0.08186609377050885,0.25838292042316413,0.15023606263578385,0.0486259299458058,0.03758306360134969,0.0010078120250768899,-0.002974144601942734,-0.005922057823769395,-0.04893617231442179,0.6875
0.5005682915212065,-0.1004717871821208,-1.389175054285807,0.6883022818719867,-0.04551176297156865,-0.07959282473090692,0.25118263118005096,0.14605270010780044,0.047250654415656554,0.03654082146795427,0.0009732194274425626,-0.002892143161524362,-0.0057520697522391,-0.047575756154303865,0.6953125
0.09426650887123081,-0.018812093986119955,-0.26043792927318865,0.12906077200204638,-0.008231601663908784,-0.015338549642628723,0.04724948507029431,0.027442285424963624,0.008264124164784592,0.007025152427874846,-6.7505394470257215e-06,-0.0005555415596053677,-0.000933931599375335,-0.008924685158222572,0.703125
-0.8501438833863868,0.17102187254208845,2.3629189612882113,-1.1708192715691748,0.07841807908374286,0.13398428363091708,-0.4267999918415943,-0.24824948240645123,-0.08234974003071212,-0.061582734707494376,-0.0022844521891877564,0.004876004034097256,0.010265276573274659,0.08091340869014836,0.7109375
-0.9705656071848212,0.19521721788501656,2.6972764623852075,-1.3365229243749865,0.08946168069579497,0.15300365038971311,-0.4872493104192937,-0.28339015656211836,-0.09389773055286638,-0.07032805573368398,-0.00257468783368047,0.005568357695955073,0.01169288274348984,0.09236338344025795,0.71875
-0.04430167138843884,0.009006403106008191,0.1241820169547143,-0.061517492867792886,0.00447089361815828,0.006519600921647503,-0.022270850065237515,-0.01295683403140363,-0.005018810991935168,-0.003029064227712858,-0.00034040703165854426,0.0002408139697555802,0.000707643638268915,0.004244697560658047,0.7265625
0.4778285068748888,-0.09595887802013134,-1.3262394392970367,0.6572793325526082,-0.04343833134559492,-0.07605360047994006,0.2398699659147432,0.1395022429012443,0.045077995467857276,0.034909658301925245,0.000919068654963859,-0.0027622650962387378,-0.005485130042849112,-0.04542668032829289,0.734375
0.20876723999058228,-0.041859301277394116,-0.5787998076306466,0.2869708402953494,-0.018750798085830533,-0.03350178952096323,0.10479894955134184,0.060941120146856376,0.019256630152994027,0.01535859575210602,0.00026997701408439583,-0.0012145998660129974,-0.002293856032809013,-0.019829503673417632,0.7421875
0.00403151059988043,-0.00067679866220224,-0.009999910255357267,0.005041713053297434,3.8623550208787445e-05,-0.0011060804903310793,0.0019473192472701539,0.0011124995611189422,-0.00039226165167970003,0.00047285766580819425,-0.0002242010665555894,-3.6623645649559687e-05,0.00013585022547947165,-0.00034915252601994617,0.75
-0.08385368219127858,0.016998553708213713,0.23408714723029675,-0.11598908688878073,0.008102332414489854,0.01279706984420979,-0.04219255531110178,-0.024566287154995467,-0.008823814658394998,-0.005914894772682468,-0.0004362730371770735,0.00046902345199115815,0.0011784210862895734,0.008010988106150337,0.7578125
-0.31363828758803447,0.06316891025716595,0.8722533946399957,-0.43217674499580494,0.029178535744528545,0.049115284755926525,-0.15745070704272116,-0.09160743694791326,-0.030864398858716457,-0.02259860998143768,-0.0009901631916673858,0.0017901421830155701,0.0039017773295890843,0.029864761593936737,0.765625
-0.09214549387242774,0.01862860849826451,0.25704544233723786,-0.12730970771993474,0.008854522261036071,0.014087526087585525,-0.04620261880619692,-0.026924698086582002,-0.00960699795383538,-0.0065013080987277256,-0.0004557326617404148,0.0005158056577921888,0.0012745011108323784,0.008794371266830534,0.7734375
0.6426066152561313,-0.12905317053479576,-1.7836968955819283,0.8838374068010442,-0.05855121872659301,-0.10207515031355169,0.3225669760885028,0.18754430365516164,0.06088836316507883,0.04687070477072048,0.001316207999331189,-0.0037096230861709085,-0.007437258997962728,-0.0610927598711828,0.78125
0.7976533874889385,-0.16019062383951538,-2.2141913544671956,1.097121026313432,-0.07276876835382155,-0.126574584351863,0.40031346903613874,0.23279167417485572,0.0757558233410793,0.05812590857217025,0.001689912223338784,-0.004600393362159612,-0.009274652561407857,-0.07583344505999712,0.7890625
0.10092797042526351,-0.020125500076663406,-0.2787688289607261,0.13814201182163988,-0.008841621189100698,-0.01639751783538162,0.05056457689333241,0.02940900966002931,0.008899220989291232,0.007507602349844222,9.43138243279309e-06,-0.0005927622094659,-0.0010125652283695086,-0.00955186463282322,0.796875
-0.4464022890346047,0.089889265288412,1.2415228956424633,-0.6151870102941434,0.04137726266786018,0.07015519814918882,-0.22416249406824404,-0.13037923568749588,-0.043615992158320405,-0.03225556265717027,-0.001310680976017183,0.002554795261117301,0.005477609712703706,0.04251322072146503,0.8046875
-0.419015253118047,0.08437181265945072,1.1651372858745814,-0.5774089650895614,0.03886349104789713,0.06581333356134472,-0.21041127538170606,-0.12239894548485963,-0.040981907036169274,-0.030266092731552043,-0.0012445974144282036,0.0023965832235547124,0.005152425853142322,0.03990045116254592,0.8125
-0.21507230640307548,0.04336598718892409,0.5983691700610417,-0.29657509301929175,0.020145669985068324,0.0335353891101957,-0.10801708063654177,-0.06284845503689825,-0.021407500719428763,-0.015445102159700339,-0.0007525831915684191,0.0012232468145104449,0.0027332842388173967,0.02049127290407298,0.8203125
0.04202494897747393,-0.008321847484183709,-0.1155334360554473,0.05722398008338806,-0.003445505044637721,-0.007123162177433007,0.021061211960750746,0.012211930187916014,0.0032610943460763325,0.003238007937796443,-0.00013250541337619563,-0.0002552915633461093,-0.0003152679470946059,-0.003963972243626698,0.828125
0.17455208609181194,-0.03497015782709446,-0.48325098462498883,0.23942907592497847,-0.015599044201729449,-0.028055011811668307,0.0875557744620545,0.05087375071077761,0.015973891291542523,0.012863481218304829,0.00018698694271024002,-0.0010173758141615032,-0.0018856846422448423,-0.01656382662181639,0.8359375
-0.2644028622684502,0.05325286692626646,0.7358248639863423,-0.3646496440890456,0.024675494112940687,0.041350133928637504,-0.13282214737218473,-0.0772601695071912,-0.026141769588260446,-0.019029611774417077,-0.0008715572313225988,0.0015068059611184805,0.0033190978986086654,0.025187833094606853,0.84375
-0.7706405298537355,0.15500674216346105,2.141405254185397,-1.0610317446093847,0.07110915759255913,0.12135798751083464,-0.38688627888443616,-0.22497271928862841,-0.07470973017624244,-0.05580041179175124,-0.0020921051440879533,0.004417806356883418,0.009319680917612882,0.07333235271522531,0.8515625
-0.2602616181153922,0.05242670196244293,0.7236844375906162,-0.3583971460679719,0.024269898460862877,0.040645095339544274,-0.1306016954230562,-0.0759454590446375,-0.025740611822070755,-0.018712046663606725,-0.0008610797055089691,0.0014825659978540302,0.003266522306305149,0.024782557935842938,0.859375
0.8201877717393059,-0.16473943211892955,-2.276981571692855,1.1284673296179204,-0.07485663825151768,-0.13016065740789537,0.41175052816312113,0.23940409581991332,0.07792063391223776,0.05977914359941614,0.0017444309096872512,-0.00473084668441363,-0.009543461706372276,-0.07798565183492692,0.8671875
0.983355689525463,-0.19753859813236258,-2.7300224494786156,1.3528178298521376,-0.08981472845595602,-0.1559338523272124,0.49357789568395427,0.28697150459019954,0.09357504114709993,0.07162165446658528,0.00213777223728311,-0.005669074329039641,-0.011476333821755044,-0.09350502895910513,0.875
0.2939688946166776,-0.05897082730627797,-0.8153194251470822,0.4039445324174223,-0.02655712108220675,-0.04693394011457315,0.14749288552124348,0.0857358206175385,0.027433223981896508,0.021533582730752183,0.00047520529798648214,-0.0017043605897628029,-0.0033022102843456667,-0.027929787604134414,0.8828125
0.0016919707966046643,-0.0002083372878802,-0.003486331518133828,0.0016631454436852827,0.00026050117207347917,-0.000726732194351822,0.0008101548452414914,0.0004584190315608057,-0.0006118675895988209,0.0003052426095279043,-0.00022970393265614195,-2.3092515446359896e-05,0.00016228828196675568,-0.00012123721994835726,0.890625
0.026985393449814044,-0.005274327109324945,-0.07363573747297886,0.036473963579561584,-0.0020590302484578106,-0.004727043082700344,0.013521033209065673,0.007849411165612611,0.0018079498157095061,0.0021473413237700677,-0.00016882122567834972,-0.0001678906232999902,-0.00013735021550301607,-0.002522405932065253,0.8984375
-0.5334409571744949,0.10737443354535607,1.4829001404354192,-0.7347753027057308,0.0493580437941125,0.08387497992184934,-0.267821300140404,-0.15577539689865597,-0.051964385929366606,-0.03857005474671395,-0.0015204009512287387,0.0030553425028687084,0.006509159402633449,0.050778850970671315,0.90625
-1.0720690576793332,0.21562638941439097,2.978887908774265,-1.476060344540117,0.09876947260609253,0.1690295882652143,-0.5382071347568725,-0.31302598008066085,-0.10363513480328602,-0.07770593732297047,-0.0028192764731889484,0.006152397802794455,0.012896238502345808,0.10200622176437861,0.9140625
-0.39663983304058553,0.0798481359566898,1.1029657111131903,-0.5465128084969839,0.036791445953431715,0.06223565952355015,-0.19914160969298725,-0.11583738944519631,-0.038820867503865035,-0.028635287192116575,-0.0011902209838657576,0.002267152903203644,0.004886355549492996,0.03776213281012701,0.921875
0.7362574748456435,-0.14787677130278964,-2.0436562779597893,1.0127244236967214,-0.0671511370872199,-0.11688793201133396,0.36954652256038706,0.21490615210644415,0.06987518794468395,0.05367522739038425,0.0015419820230278963,-0.004248443084323967,-0.008547725191241685,-0.06999540591626802,0.9296875
0.7293880174983712,-0.14649199467993537,-2.0246764456469015,1.0033265331751815,-0.0665101998259882,-0.1157932250108759,0.36606203786250213,0.21288770989925093,0.06920572384921145,0.05317617585623695,0.0015251622756326272,-0.004208508119956474,-0.008465407372822765,-0.06934328631205698,0.9375
-0.007254341216850208,0.0015966464216344025,0.02145647023272084,-0.01068906614856186,0.00109083134412169,0.0007093453250085444,-0.003765204814906367,-0.0022212368830477076,-0.001479621879591199,-0.0003522258002506816,-0.00025177789733565274,2.8582293891947184e-05,0.00027111424885212807,0.0007294538858010036,0.9453125
-0.015968671729733163,0.0033675234191026283,0.04591245007478733,-0.022965994819238465,0.001896464835794503,0.0021156630856359847,-0.008150519106136058,-0.00481079993050873,-0.0023133505047229453,-0.000995444931917229,-0.0002728505527140304,7.901983041913794e-05,0.0003747993012657584,0.0015673863640752466,0.953125
0.33191652040261077,-0.06656303817395817,-0.9203400454704526,0.4558768273542168,-0.030029460577838802,-0.05290088926099729,0.16654063367591423,0.09678990803536193,0.0310686363228544,0.024285239132966794,0.0005664997738337075,-0.0019217182940634626,-0.003751984257074348,-0.0315223544289939,0.9609375
-0.21284196445479553,0.04291688481735522,0.5925213193041103,-0.2935104016908027,0.01993873947914583,0.03319571639001337,-0.10683214233559742,-0.06215603737024272,-0.02120224345012683,-0.015274853684751292,-0.0007470457463107482,0.0012110591596178999,0.002705928841235935,0.020286242849334047,0.96875
-0.9133467077273648,0.18370568994559705,2.5380846516167224,-1.2574013427125295,0.0842013105895576,0.1439349805151624,-0.4584481263293599,-0.26662587412070343,-0.08841495681647601,-0.06616017251262384,-0.0024364780272310748,0.0052393265758711146,0.011012124900844078,0.086911327490773,0.9765625
-0.2549535083929787,0.05134796521060673,0.7093084037436717,-0.35129557863846916,0.0237900989688196,0.03982917721807718,-0.12798641440013078,-0.07444402567331197,-0.025233684568400007,-0.0183329843934379,-0.0008484567120558363,0.0014520444118009195,0.003205101037901163,0.02428120489205285,0.984375
0.8759020973178326,-0.17597629433780235,-2.431919002331594,1.2050994933592334,-0.0799674578976484,-0.13898896008521283,0.43965609690655794,0.2556843544255877,0.08328127106615811,0.06382134588351751,0.0018791919751570572,-0.005052290084312454,-0.010204869718288993,-0.08329203933924904,0.9921875
0.5193700682172092,-0.1042997856445463,-1.4417684608987027,0.7144335739040893,-0.04725060759038384,-0.08262519591310558,0.26068254756630577,0.15161301818508796,0.04907071589043692,0.03792038889559852,0.0010192396054796323,-0.00300144256717019,-0.005976847119312811,-0.049379924893293826,1.0
-0.7058081511622364,0.14200612016034453,1.9614494804261886,-0.9719555236655438,0.0651720199721267,0.1111124823304383,-0.35435890037474504,-0.20608046322240947,-0.06849461299456285,-0.05109350338700705,-0.001936065698102549,0.004045895620563628,0.008552601808797033,0.06716980927505535,1.0078125
-0.67611639826085,0.1360565378042065,1.8792044286592666,-0.9312842191078923,0.062452633882419124,0.10644127693649025,-0.3394712499706926,-0.19745170094126144,-0.06564956194447427,-0.04894130643424445,-0.0018646188569632174,0.0038756304931937546,0.008201044008246132,0.06435396449195388,1.015625
0.3816700602916923,-0.07658314861755243,-1.0590047181132305,0.5246983916204923,-0.03461317125599215,-0.06081741236165302,0.19157237330184357,0.11135521110731456,0.03585041652076284,0.027912799461,0.0006868018305701634,-0.00220859161264536,-0.004343095224616342,-0.036270231024926346,1.0234375
0.5676920730228275,-0.11399043577957453,-1.5758905642950096,0.7809910933142358,-0.05169561746196763,-0.0902497331588445,0.2850126204615727,0.16569024599451074,0.05370312398287979,0.04143519483882558,0.0011355739118035606,-0.0032791162469228996,-0.006549431297269837,-0.053974669592704395,1.03125
-0.045875150236263026,0.009350609404466638,0.12853541944073935,-0.06357945008266454,0.004607560244668101,0.006774707442757002,-0.02302855071875908,-0.013439776341602252,-0.005173386061147043,-0.0031457481288172952,-0.00034447582010473164,0.00025004086007276126,0.0007271137930797854,0.004393669872704952,1.0390625
0.08956848809201569,-0.017865612504728463,-0.24725983071294916,0.12244695094827836,-0.007796839652438692,-0.014604806243100132,0.044870123444062104,0.026058239500701106,0.007814641457609756,0.006683138878910576,-1.808201662443761e-05,-0.0005281484607431456,-0.0008780662491709442,-0.008476225923578905,1.046875
0.7193702073012683,-0.14446927415106622,-1.996455975702669,0.9891513500193737,-0.0655737641024507,-0.11416713072900013,0.36100525134595024,0.2099062265581505,0.06824098895941386,0.05243812918914397,0.0015008332250936183,-0.004150242394761282,-0.00834607560146011,-0.06838003702609749,1.0546875
0.34275847914525287,-0.06877033122709929,-0.9505583012757943,0.47105117744401326,-0.031029156553828926,-0.05463209527982418,0.17199283421228945,0.09999452899533451,0.0321059937308536,0.0250837322280292,0.0005925941060087764,-0.001984597074436261,-0.003880109952997541,-0.03256124537692896,1.0625
-0.7309485191019962,0.14707264280300997,2.0316866016573543,-1.0066241983355793,0.06748062115167557,0.11512521302940865,-0.3670046566621917,-0.21343130330938928,-0.07091677854162912,-0.052923952383599086,-0.0019969264226167276,0.004190861747157404,0.008852235261558957,0.06957236823763067,1.0703125
-0.9109173757850405,0.1832659750116837,2.5317371313707913,-1.2545067690407699,0.08399909482576244,0.14359075665806179,-0.4573949040472288,-0.26598720341976206,-0.08818705212222275,-0.06600785828627832,-0.0024309496602680255,0.005226617451233276,0.010986362736311806,0.08669760352539758,1.078125
-0.1882043029902599,0.0379832854311028,0.524399810444814,-0.2598751070015338,0.017685019070417786,0.02932207103840511,-0.09458441151054084,-0.05501777554011073,-0.018839941371013767,-0.013501831693238167,-0.000687790074963035,0.0010700344101814373,0.0024157461016550306,0.01794885921346734,1.0859375
0.1255261537696562,-0.02511119882730056,-0.34731097076418677,0.1721599992243794,-0.01111601097138975,-0.020311933680349142,0.06298071918535188,0.03660479725302359,0.011272374003468299,0.009302528639288,6.914316656600352e-05,-0.0007353352166177498,-0.0013059348650896095,-0.01190653228209941,1.09375
-0.19304001665196646,0.03890320036472879,0.5371572088770951,-0.2660888039873367,0.018108452229981947,0.030026860263725415,-0.09689572837393065,-0.056351095256796206,-0.019286630219092583,-0.01383320790579105,-0.0006989586472951293,0.0010959656591888885,0.00247027067310626,0.018388958714119167,1.1015625
-0.29313723675234604,0.0590245612024551,0.8150907163470167,-0.40387594212424177,0.027302842634017024,0.04585372329152641,-0.147151331745121,-0.08558338523679078,-0.028893300027544925,-0.021105789986810296,-0.0009404908355257049,0.001671565774499322,0.0036572931604408397,0.027912164429204706,1.109375
0.019077323110277464,-0.0037315148995574346,-0.05202882140676416,0.025801663162796907,-0.0013395377256197217,-0.003499716419555671,0.009582325233376399,0.005517170844961568,0.001059271153018095,0.0015762353115783478,-0.00018776257110598697,-0.00012401540320057639,-4.378852843453061e-05,-0.0017873134444095638,1.1171875
0.28936088058475573,-0.05806127218922484,-0.8027765021029994,0.3978497473121651,-0.026144714945383257,-0.046236840927867236,0.1452778116440639,0.08440545585267523,0.0269947148622831,0.0212139292188564,0.0004640388986156503,-0.001678740942724708,-0.0032482927535637143,-0.02749995615817106,1.125
0.4943533232160501,-0.0992463193563673,-1.3721830758710494,0.6799314910315493,-0.044951254597293766,-0.07864368271842367,0.24815488167953415,0.1442555658331188,0.04666453071061741,0.03610175387507714,0.0009584671110491202,-0.002857631157624379,-0.005679405717591584,-0.04699105957239359,1.1328125
0.7742768003952317,-0.15548285271561055,-2.1495435888210306,1.0650373514497864,-0.07062512649096217,-0.12287914426941811,0.388619756418687,0.22596398349234392,0.07351653648143805,0.0564284721815737,0.0016334977727612795,-0.00446677369364872,-0.008998652922120676,-0.07360607999600628,1.140625
0.7311919678275115,-0.14682884278001168,-2.0297354935447895,1.0057248492029554,-0.06667486525203772,-0.11606414136099778,0.36698410219689365,0.21338713580850294,0.06937954971771132,0.05329782487399916,0.0015296537283526494,-0.004218374749865699,-0.0084875887409271,-0.06951331376837545,1.1484375
0.06103702036818213,-0.012160974772862656,-0.16841896938187162,0.0835279889611931,-0.005202581324915722,-0.010140210724609943,0.030615681398244266,0.017795228046655256,0.005087383659918284,0.004621466681193842,-8.625703221364047e-05,-0.0003643849942738321,-0.0005416563774129596,-0.0057838626682556295,1.15625
-0.6818986345998044,0.1371711607675353,1.895084670141947,-0.9389583728314291,0.06295773514356473,0.10730861538946247,-0.3423189626809129,-0.19905359891284347,-0.06619058168757745,-0.04934849856484613,-0.0018779676419768314,0.003908128044599383,0.008267765414431185,0.06488575168167071,1.1640625
-0.7992560830703832,0.1608062763223685,2.221373036099484,-1.1006978600681647,0.0737400721576521,0.1259049674577916,-0.40129134688555557,-0.23335347336243553,-0.0774619467762519,-0.05788470701862271,-0.0021615343750175514,0.0045836996249945024,0.00966133384486824,0.07606938447197842,1.171875
-0.4509609967805489,0.090821528535549,1.254425391531305,-0.6215901674390925,0.04180200985156373,0.07089070197552326,-0.22651441899800234,-0.1317478258029382,-0.04405969521629593,-0.03259157307806577,-0.0013220499219906289,0.002581510355718079,0.005533746221169601,0.042952637884209756,1.1796875
-0.24329004549289918,0.049051695766804945,0.6776792319047281,-0.33581398190828515,0.022752253333024584,0.03806434452972577,-0.12224823131751174,-0.07113952127371233,-0.024134969295619573,-0.017501689997251105,-0.0008210952985137888,0.001387103873201088,0.0030711608035849896,0.02319322277969465,1.1875
-0.21460412427959083,0.04325897895384121,0.5975932546972961,-0.2961337883376473,0.020108443517653,0.03349379280193858,-0.10776782103114431,-0.06272178215783332,-0.021369569554412417,-0.015408022791792018,-0.0007514553429006679,0.0012210892155411258,0.0027286856456983986,0.02045414821996733,1.1953125
0.04628616340919911,-0.009179802389441424,-0.12745724677022616,0.06317967370090373,-0.00384282621103385,-0.007792483966591498,0.02323955325658199,0.013485748661351892,0.0036722648056465345,0.003550526240833603,-0.0001219799464703891,-0.000280183586084441,-0.0003667960140689327,-0.004366453425488828,1.203125
0.47962174813148367,-0.09628410343420644,-1.3310516057736264,0.6596313811454435,-0.04360229576507687,-0.07631659956127061,0.2407286289921123,0.13999842490489647,0.045247826640303655,0.03503048365224213,0.0009231035659705902,-0.0027723486999301186,-0.005505235411718795,-0.04558588757488486,1.2109375
0.5217291684728437,-0.1047594227605617,-1.4477072077141233,0.7174359635344667,-0.04745386495805197,-0.08295491490114487,0.26181244682969124,0.1522619805784679,0.04927991257596408,0.038084768078615445,0.0010244884681878518,-0.0030141188088658663,-0.006003455667999777,-0.04958895074904287,1.21875
0.059917006069487896,-0.011926216958769227,-0.1649704303458243,0.08179499922283039,-0.0050779784109017765,-0.009918897939036135,0.03000843128194205,0.017408079668501223,0.00496733449933779,0.004530396617928167,-8.94424714365856e-05,-0.0003581623665357847,-0.0005267765952024932,-0.0056603812581602474,1.2265625
-0.29602231606752727,0.05963445379810285,0.8232335617712183,-0.40788340367150105,0.027568083123352034,0.046343692084478805,-0.14859834986007048,-0.08650343101071405,-0.02917694489280455,-0.021326775850405922,-0.0009478094690250447,0.0016884343647685506,0.0036930923559693484,0.02818891221410552,1.234375
-0.15960583054402827,0.0322067185823136,0.443913250629225,-0.21995602368996922,0.015041563249506172,0.024738273902129067,-0.0800933355227421,-0.04664377941504917,-0.016078144819418126,-0.011409314921572147,-0.0006185503486014688,0.000903554036654121,0.0020742216119671933,0.015201945858412816,1.2421875
0.09635349807480299,-0.0192566467349894,-0.2669490425684389,0.13222022250146875,-0.00843795010502967,-0.015743711604597647,0.04835379788628424,0.028104021153788055,0.008482288219090818,0.007190202898450346,-1.138580291227021e-06,-0.0005682511124993881,-0.0009609383866656301,-0.009144254684161785,1.25
0.09689603358882959,-0.019357902002569243,-0.26809434532482546,0.13276351569077122,-0.008478236252644638,-0.015809007930977826,0.048585823362434284,0.028254110729616665,0.00852807605080782,0.007227131596703998,2.2213270762177777e-08,-0.0005708327372288488,-0.0009662707621727386,-0.009184688941028531,1.2578125
0.03458276014245158,-0.006818735937293056,-0.0948277764386012,0.046956521440800474,-0.0027596818584606805,-0.005937864435710158,0.0173025727121971,0.010050011436766837,0.0025439690128625583,0.0026964414498695396,-0.0001503901810626707,-0.00021219715175242775,-0.00022668768058558463,-0.0032513645574802573,1.265625
0.09070626949621145,-0.01809986629648249,-0.2506773137219361,0.1242417745136375,-0.007912321842749268,-0.014806138853477474,0.045480227897591,0.026434656870931734,0.007927307834092833,0.00677293151272235,-1.5052235606240329e-05,-0.0005349595643328956,-0.0008921970363582513,-0.00859087641572741,1.2734375
0.06476352773256791,-0.012882556184815073,-0.17848777949231998,0.08849862019975956,-0.005533793154651323,-0.010694318685969753,0.03245512693388471,0.018859648938077338,0.005436611144241058,0.004887261215313822,-7.76602495140647e-05,-0.00038560213765712417,-0.0005844229791517017,-0.006120899171725969,1.28125
-0.07011572558843436,0.01423915522552915,0.1962824392594976,-0.09719249165679493,0.0068396828811949015,0.01064314029519871,-0.03524331277980859,-0.020519509992323933,-0.007505778610657453,-0.0049134709938911305,-0.0004029668375345409,0.0003903041774950749,0.001015051201661973,0.00671338852379407,1.2890625
-0.05149677577773856,0.01048888104153443,0.14452960178893726,-0.07152950274756183,0.005130175396934237,0.007696145438872058,-0.02588546833931082,-0.015075278195238984,-0.005717942457449633,-0.0035599216525034052,-0.00035797755683255944,0.00028299022153574835,0.0007938208877491308,0.004940952581062436,1.296875
0.061153725486293935,-0.012176350810994963,-0.16842834265263038,0.08356276652980323,-0.005202121380601096,-0.010120616340008524,0.030661660047602922,0.017818420998163997,0.00509096910403964,0.004627200929681918,-8.632672902149709e-05,-0.000365416090787237,-0.0005422587397732813,-0.005777155622138008,1.3046875
-0.004460352044835216,0.001013820401885195,0.01385181112297097,-0.006800562330212062,0.0008242718059270346,0.00026275101429563583,-0.002270231386133801,-0.001352595874697356,-0.0012061073056828554,-0.00013938390540854363,-0.000244787053822699,1.1770383074174308e-05,0.00023599728289080285,0.0004677270528259026,1.3125
-0.1094300212839582,0.022136500313604222,0.3053350860112057,-0.15137376856381043,0.010458154247519329,0.016861674706264474,-0.05495100041055046,-0.03202022492532743,-0.01127457436777366,-0.007769339734055952,-0.0004979756369578826,0.0006157694953111934,0.0014805424907913995,0.010454955958210057,1.3203125
-0.03467696809161144,0.007113200637469625,0.09742443893445715,-0.04845882862585071,0.0035961003979552318,0.00501347317986271,-0.01745022785727294,-0.010197024927212672,-0.0040940281588350575,-0.0023419679994996574,-0.00031738133191427665,0.0001859877770718118,0.000593716084483919,0.00333555814437826,1.328125
-0.03241685044847133,0.006632620480367775,0.0909743844727558,-0.045149645516447734,0.003381629546036263,0.004622000469529879,-0.016365262249338684,-0.009515986074253814,-0.00387559205604553,-0.002175540807196691,-0.0003117097600556023,0.00017273476543982078,0.0005675201137864952,0.003107749050336132,1.3359375
-0.24274235129691174,0.04889172981391409,0.6753129246679574,-0.33447144327138245,0.022676461199095374,0.03787742500065041,-0.12194969759600695,-0.07090297564963476,-0.02406603279357428,-0.01744871485965296,-0.0008191060285744718,0.0013823751502487068,0.003062689487670628,0.02311145600082064,1.34375
-0.2564263770335511,0.05165314126948503,0.7135423514807736,-0.35339863976218927,0.023939746631252937,0.04006755739887358,-0.1287840869812447,-0.07490354357488802,-0.025389006250797975,-0.018439281384195372,-0.0008522935748570258,0.0014617391705129019,0.0032249344146697717,0.024420819323731427,1.3515625
0.08614820330758871,-0.01718526094079943,-0.23797076231410388,0.11789653861841717,-0.007483359498315811,-0.014081886825821422,0.04318166894415097,0.025090716489507132,0.007481997181726287,0.006442857706318746,-2.6033290384539442e-05,-0.0005079815557015578,-0.0008382119725655296,-0.008158058255909088,1.359375
0.34408882113872324,-0.0690187575763678,-0.9545486036467717,0.47291030164882764,-0.03115603842015439,-0.05486432082876025,0.17264110520597822,0.10038060131258728,0.03223925606615056,0.025172906641010028,0.0005961117266355193,-0.001991977574029381,-0.0038970869474238327,-0.0326920965774263,1.3671875
0.25522320702455376,-0.05114905104929804,-0.707758627257872,0.350762829042391,-0.02301590975252089,-0.04080343408473188,0.12806584521380904,0.07443118400835046,0.023716016851165683,0.018715289852880592,0.00038159898260837344,-0.0014818200896442452,-0.0028428860046784085,-0.024238258584555958,1.375
-0.053601876462889136,0.01092807771158814,0.1501336602401096,-0.07429422966893395,0.005321178202379738,0.008042617577039123,-0.0268972884705663,-0.015724762556336695,-0.005918593804026705,-0.0037141544719584423,-0.00036342259374093973,0.00029424867985001975,0.000819254106597216,0.005141664800688811,1.3828125
-0.4399067921915759,0.08856993759367264,1.2232205921275126,-0.6061604449147582,0.040778601321319816,0.0691164647178454,-0.22081179694091185,-0.12848489431328777,-0.042985385191387816,-0.03177315984233136,-0.0012949974698432884,0.0025166797914968017,0.005399744941147358,0.041889626164224085,1.390625
-0.48948109143506424,0.09851557752672825,1.3608111670323686,-0.6743792956480466,0.04532551177729482,0.0769198204479343,-0.24572351389613892,-0.14292744431923257,-0.047736191820953254,-0.035372168848155,-0.0014142064361944093,0.002801875828531211,0.0059868802100157435,0.04659781275427596,1.3984375
0.24122145043943696,-0.048387448636181996,-0.6690069124764577,0.3315677460642736,-0.02173469444235846,-0.038644678493015956,0.12109234342977408,0.07041657178174017,0.02238099048581021,0.017716328149039114,0.0003483680659768902,-0.0014014685123818656,-0.002679176725848241,-0.022920074890697893,1.40625
1.0268430517435692,-0.20632154749621717,-2.851140269529994,1.4129396625890016,-0.09382112716155794,-0.16285737086962285,0.5154744869979544,0.2997720638194557,0.09775962792595114,0.07479326132983688,0.0022431378108913637,-0.005920338550108678,-0.01199591799674877,-0.0976516784840385,1.4140625
0.610917052836314,-0.1227057968065989,-1.6955284962136594,0.8402422543737619,-0.05564366294046195,-0.09706185559886756,0.3066325959351646,0.17833080453164163,0.05784343315303011,0.04457056345393833,0.0012398099633875344,-0.0035275963338755618,-0.007062553711235063,-0.05807520323324882,1.421875
-0.4631463406557995,0.09322609222673658,1.2880191217261432,-0.6382572097098012,0.0429145220037671,0.0727857042425715,-0.2325857353557211,-0.13525410622265885,-0.04521730841528883,-0.03346922858841833,-0.001350863308514468,0.0026505509837815265,0.005675823788668321,0.044103302710481004,1.4296875
-0.45315377221020686,0.09124051082452346,1.260033622679424,-0.6244300620141169,0.04199215228851742,0.07119885235011979,-0.22755117980020836,-0.132355442059915,-0.04425498271528651,-0.03274535709048771,-0.001326871740693984,0.0025931237923316514,0.005557525167193824,0.04314888291480574,1.4375
0.4085425297688041,-0.08197949587687593,-1.1337416645170773,0.5617168523045456,-0.03707551115104299,-0.06506582479062019,0.20503848954575468,0.11920538413028035,0.03842853375885317,0.02986155038138005,0.0007514385045753912,-0.002363182739354469,-0.00466166285479032,-0.038827676236705466,1.4453125
0.2597884636615946,-0.052093641923145514,-0.720467433080977,0.3569422361594123,-0.0234214374415929,-0.041543524854639476,0.13033522112204815,0.07578065829767466,0.024152359919185056,0.019055030022818234,0.00039270323390704976,-0.0015075538904697863,-0.0028974150250115085,-0.024677980157130693,1.453125
-0.834628772570307,0.16790671331428283,2.3196938040491486,-1.1494728235213039,0.07699864103702361,0.13151709502341336,-0.4190863619027177,-0.24374052863250306,-0.08086260867864078,-0.060460491901073776,-0.0022469723414819016,0.004787297273540539,0.010082064577640788,0.07943191411517991,1.4609375
-0.9466491586908855,0.1904404791235331,2.630815709236192,-1.3036115285119398,0.0872734158651509,0.14922980071413666,-0.475300867969438,-0.27647047505256966,-0.091611383344471,-0.06860101835543023,-0.00251727470735511,0.00543163711984181,0.011411162857990093,0.09008619021709303,1.46875
0.15540218806463832,-0.031093253154776523,-0.4305097197515197,0.21331168000514658,-0.013844060892633502,-0.02503443379061066,0.0779458442412163,0.045263911832081574,0.014132957886668011,0.011468505600594384,0.0001407616367803869,-0.0009069850310824383,-0.0016580241795509216,-0.01475018992408821,1.4765625
0.724540895760578,-0.14551390862805944,-2.0113607292490823,0.9966174085172355,-0.06605969395755458,-0.11501924200002586,0.3636429914941579,0.21144998682878216,0.068741612979928,0.05282045117844542,0.001513599920447338,-0.0041803940127628355,-0.008408108846355167,-0.06888595610323846,1.484375
0.15771605834275382,-0.03157455555075563,-0.4367302811494961,0.21639377339331828,-0.014055983608754187,-0.025382402062834614,0.07911888303641001,0.046005127246892534,0.014354980435329743,0.011640436157884163,0.00014664166589626506,-0.0009202825363120054,-0.0016875891091497656,-0.014960441327815644,1.4921875
-0.3971105473554302,0.07995003615974842,1.104376011961728,-0.5470899428464061,0.0368320017805459,0.062322664152718144,-0.19932445970515275,-0.11593506596524751,-0.03887564528621585,-0.02866186377845424,-0.0011913238056270512,0.002270390139484104,0.0048903725172981605,0.037812882265003255,1.5
-0.26353797421479447,0.05307453337478151,0.7331657282582681,-0.36295530570315876,0.024560969589527585,0.04115774959576581,-0.13221874213528825,-0.07690217230172228,-0.026055410319696885,-0.018945639897108374,-0.0008689542781838362,0.0015015962309829665,0.003305717075264427,0.025093665950968902,1.5078125
0.10775172501968429,-0.021571961008322704,-0.29821471801095173,0.14811714281371527,-0.00950018860808486,-0.017556206580065195,0.054123502756981696,0.031482593174721185,0.009567022282307176,0.008029752231989424,2.648075090187162e-05,-0.0006338231669041103,-0.0010961122051425045,-0.010229581955772782,1.515625
0.29313304301045656,-0.05880429035599035,-0.813020290618092,0.4029795201787919,-0.026491342568941628,-0.04682775909981488,0.14709918099112054,0.08552115204236649,0.027350690112442424,0.02148153680324137,0.0004732252291547883,-0.0016995099732142651,-0.003292408994708576,-0.027853943379137058,1.5234375
0.2637860914198619,-0.052869228555950463,-0.7313568857445368,0.36226912473270284,-0.023785154531241862,-0.04215229270562258,0.13233088890133216,0.07687677397265481,0.024535840157451312,0.019334584221415638,0.0004021540777052716,-0.0015304546139926333,-0.002943278484415706,-0.02505003584646522,1.53125
0.07364571368663564,-0.014653472723475858,-0.20313574607760973,0.10045420609542276,-0.006332109704523867,-0.012082895145027363,0.0368930266988291,0.021381075373830254,0.0062926785022705016,0.00552250084100888,-5.640942926187467e-05,-0.00043691610102269935,-0.000689047998286147,-0.006957835118806939,1.5390625
-0.09497132798158091,0.019217920139051103,0.26513371124158047,-0.13154366213183524,0.009141493989329279,0.014572086282535758,-0.047738253376357107,-0.02777055218256466,-0.00988766717528811,-0.006718713896238914,-0.0004629063657440658,0.0005328825600461107,0.0013090478038056924,0.009080224348261216,1.546875
-0.0327863779396089,0.006714405019298459,0.09212676637115724,-0.04577025666466347,0.0034295115187313115,0.004730447903290104,-0.016514434760954003,-0.009577389264643485,-0.00391904330900306,-0.0021990037073783874,-0.0003128309268673795,0.00017504793881618308,0.0005706652892707741,0.0031585007908728133,1.5546875
0.16815318270638172,-0.03367332841258939,-0.4661796152230661,0.230929274464366,-0.01501598103247299,-0.0270535240490321,0.08435976734752418,0.04905837272886371,0.015365450486960551,0.012396226999670506,0.0001717046793805328,-0.0009812086622630308,-0.0018117635088858678,-0.015962042699693462,1.5625
0.2465809806554827,-0.04944606524380285,-0.6838123817759578,0.3387923019641321,-0.02220957163987606,-0.0394518287676905,0.12372488183544926,0.07191632082608652,0.022889630086835835,0.01809365664833046,0.00036066588602621114,-0.0014325721594268164,-0.0027407785301801486,-0.023420368214538998,1.5703125
0.14856377192567272,-0.029745940181217175,-0.4112714896628812,0.20370290726498688,-0.013210280359131115,-0.023937084280085265,0.07452972341751364,0.04330088599291136,0.013481696369927399,0.010974975814958501,0.00012428837168128415,-0.0008684115693309697,-0.0015784974827437559,-0.014089140706403103,1.578125
0.10225718307478152,-0.020423610692746005,-0.2827088286500786,0.1399879373571374,-0.00896919751589464,-0.01661578412104903,0.051312965117703266,0.02980484082881227,0.009040114525121067,0.007611993795620587,1.2923381618165814e-05,-0.0006015018260806938,-0.0010302963702637146,-0.009684654778711976,1.5859375
0.3131921267255694,-0.06281246286145627,-0.8687896083348816,0.4305131567110582,-0.02833517372909623,-0.04998950394501835,0.15719079459637095,0.09138485323559413,0.02927837627702854,0.02293556145738653,0.0005218215147210762,-0.001814369647933906,-0.0035313834907619033,-0.029757902183911916,1.59375
0.4159806168523038,-0.08347740066152409,-1.1541840045845162,0.5720797118364789,-0.0377652325564239,-0.06625216221677294,0.20873350236921634,0.12137294782592874,0.03913181230807338,0.030401760975641436,0.0007694909332060551,-0.0024053462992529658,-0.004748792311351847,-0.03953856241471671,1.6015625
-0.3501239544501192,0.07051086398289931,0.9739789656988428,-0.4823916409383711,0.03252901294189047,0.054885171163211864,-0.17584451960894262,-0.10227059927294446,-0.034378865541748516,-0.025254736125288644,-0.0010783421814907531,0.0020007907768843777,0.004336246589763276,0.033338863649871986,1.609375
-1.6901093441786925,0.3398571428710532,4.695867731420811,-2.3266494550907915,0.155464692253504,0.26674893591321835,-0.8484287569953339,-0.493420469232871,-0.16293915712193044,-0.12260044219376064,-0.004309861629211139,0.009707109671189686,0.020225079755326163,0.1607998155653162,1.6171875
-1.8976881362615008,0.38157640924140934,5.272229827298784,-2.6122866036367047,0.1745065245879107,0.29955601127556764,-0.9526175940226476,-0.5540198881052855,-0.1828509371634963,-0.13767796415370032,-0.004810409076910512,0.010900771412413812,0.022686631693703274,0.1805381209495101,1.625
-0.3071278175079085,0.0618573782650838,0.8542937271108134,-0.42321921410585917,0.028589782919755266,0.04807714644253582,-0.15426341198406943,-0.08973801655333108,-0.030250808244786886,-0.022125717353979935,-0.0009747239286704148,0.001753470843630324,0.0038269303269780385,0.029241092420256246,1.6328125
1.2227867352211634,-0.24565677011661208,-3.3950003550750947,1.6822796830248614,-0.11176377799731167,-0.19379147221105922,0.6136912926204182,0.35685640600289686,0.11653171765817216,0.0890180107149955,0.0027148060811546513,-0.007044990761992702,-0.014314650173334059,-0.11627671991250044,1.640625
1.0592354604686876,-0.21276623390971514,-2.9405694234558286,1.4570745611109623,-0.09676500505320253,-0.16791366684520276,0.5316495130154266,0.30913573446863973,0.10084705308989464,0.07713285947765804,0.002320637199385367,-0.0061045479821598865,-0.012376509393580981,-0.10070930572884106,1.6484375
0.29298499189829097,-0.05874916918880104,-0.812243634471015,0.4024740476388143,-0.026475956024813924,-0.04676723677118603,0.14704870229329398,0.08548943748809074,0.027340468071343316,0.021465000844258633,0.00047302526036538097,-0.0016983050353631163,-0.0032914049836427766,-0.027821208231565912,1.65625
0.45216982631984665,-0.0907773951223832,-1.254642798978038,0.6217077300739147,-0.04108258520234631,-0.07195402063064399,0.22696951821337238,0.1319883757211685,0.042618679300894614,0.033035411360647464,0.0008570563840543196,-0.002614651768521157,-0.005179907857360947,-0.04297105454639856,1.6640625
0.8566921645137788,-0.172118423430986,-2.378690341649891,1.1787018009514425,-0.07819220890114909,-0.13592433709643953,0.4301012047667659,0.2500931701116454,0.08143233786262884,0.06243198446925197,0.0018326286273453926,-0.00494215698434983,-0.009978151756896605,-0.08146063174150973,1.671875
0.44959540791933383,-0.09028755276650721,-1.248257254766344,0.6185146646687769,-0.040838170837751216,-0.07155546444703065,0.22581035484621959,0.13124173848293325,0.04237558316978651,0.03285609615336854,0.0008507218677140003,-0.0026014895026319615,-0.005151549352443052,-0.04274155538662182,1.6796875
-0.05554933230801099,0.011275982113674008,0.15490974292062284,-0.0769079976208254,0.005512224015089826,0.00831906594445236,-0.027830915622896912,-0.016254017662357866,-0.0060889906512494015,-0.003854122098940825,-0.00036775430501666354,0.0003040248957004276,0.0008393609089260968,0.005314053714093479,1.6875
0.045060920548391906,-0.008924053433051584,-0.12423427419185062,0.061281421217688405,-0.0037173298691367167,-0.007590372224640475,0.02254822541492887,0.013100403340662765,0.003565013699436669,0.0034455876712569146,-0.00012522957804281669,-0.0002737379490081442,-0.00035266896468151495,-0.004246586943415299,1.6953125
-0.0830945804891581,0.01685378704008699,0.23201717570785088,-0.11526672401048292,0.008037707512510804,0.012672228416168593,-0.04182657116020526,-0.02430959053731999,-0.00873348855897461,-0.005865424593887216,-0.0004342925510778002,0.00046422266485717363,0.00116738702360239,0.007951111115789375,1.703125
-0.8096193423130428,0.16291581358035065,2.2502597852894763,-1.1152847244199156,0.07469912563350861,0.12755533834974658,-0.4065499470023662,-0.23642801760188323,-0.07845258002312647,-0.0586483029343104,-0.00218662909549176,0.0046438417972444685,0.009784228187375989,0.07706372813097351,1.7109375
-1.0019728254495797,0.20159327585458423,2.784714219360719,-1.3800192025646343,0.09235671288566051,0.15797138091650356,-0.5031859149501151,-0.29262729267258153,-0.09692482804965748,-0.07262601365135225,-0.002650787856299267,0.005751322000829534,0.012068080175409642,0.09535845625903008,1.71875
-0.3123981493196367,0.06294676630311608,0.8693060509662677,-0.43065946989897913,0.029081331177536796,0.04891456777271103,-0.15703848298610407,-0.09130521664397298,-0.030768369080746923,-0.022519659751388154,-0.000987507545828757,0.0017853230601950969,0.003891611208659142,0.029750811256694324,1.7265625
0.054108285264014434,-0.01078900288419649,-0.14885985554843828,0.07422406145782713,-0.004572181015023605,-0.009064976853613552,0.027087521768236592,0.015774551219818047,0.004403308260056766,0.004128032092328009,-0.00010294655556335935,-0.000323933485830115,-0.00045717745379498674,-0.00512857485961525,1.734375
-0.2883090015246127,0.05801924232652695,0.8022477867157324,-0.3968749737823061,0.026831532052069812,0.045085355615463237,-0.14467655551708988,-0.08413938857938882,-0.02844834058539794,-0.02073875392896579,-0.000928522483494331,0.001644604585639639,0.003601326118762453,0.027441867339345772,1.7421875
-0.32543652034543374,0.06552547344039872,0.9055160320774427,-0.4482164640857989,0.03025585714092168,0.05100229674721797,-0.16334372344351133,-0.09502811427935409,-0.03201766492411783,-0.023447866608737353,-0.0010185493630724604,0.0018587354107839607,0.004042806855135659,0.030988371809211213,1.75
0.16782900500920522,-0.03358280659882622,-0.4645658391870469,0.2303536245797694,-0.014979773818753773,-0.02694932900559376,0.08422248280234135,0.0489033880732557,0.01530990760543772,0.01237372682476617,0.00017055612844182156,-0.0009777279714430337,-0.0018051090403690296,-0.015920176719991637,1.7578125
0.35089794030578936,-0.07038676834848513,-0.97323524472213,0.4822036852098071,-0.03177655564709434,-0.055887767896495175,0.17617920186568747,0.10234470070876753,0.032890230927598,0.02567321537003664,0.000612079273923906,-0.0020314999167831247,-0.003977191718022151,-0.033334470838757235,1.765625
0.2154593077322242,-0.04318483240485218,-0.5973190997039234,0.29587434880763247,-0.01936074425622151,-0.03449536401383825,0.1082450989280199,0.06283805312600386,0.019912281357239305,0.01583802092906082,0.0002857002717652771,-0.0012539392442818633,-0.0023728648286848557,-0.02045604248735711,1.7734375
0.43604366569510317,-0.0875246114251195,-1.2103475127894319,0.5996137123772818,-0.03960278410192755,-0.06941085182219713,0.21892695465863862,0.1272362248787524,0.04108385824276806,0.03186134922943899,0.0008177947012950924,-0.0025233243288556753,-0.004988568318709416,-0.04144211799392476,1.78125
0.7332087164330885,-0.14724754568332443,-2.035953297036893,1.0086722032741586,-0.06686456518424921,-0.11642790829215098,0.3680262561551208,0.21397170410816985,0.06959530179281133,0.053445818937199685,0.0015344734535545053,-0.004232218349880529,-0.008511870039193146,-0.06971275919013957,1.7890625
0.42482246688114267,-0.08526015758202693,-1.1791881797715416,0.5840786873740201,-0.03856365964000707,-0.0676688101892215,0.21318428284444918,0.1239533630225563,0.039999783977162966,0.031040932794004352,0.0007908020653105528,-0.0024574408821770523,-0.004855497716097623,-0.040378498016487414,1.796875
-0.14574315352288564,0.02942457970767467,0.4060214484423396,-0.20145664102124095,0.013795669325445138,0.022565048721431013,-0.07327611109631682,-0.042578714759364596,-0.014756274248632305,-0.010409763067744078,-0.00058512093514743,0.000825670132450856,0.001909707971305373,0.013901123405686625,1.8046875
-0.34372591139073144,0.06922047673804313,0.9560418234679232,-0.47396425101106593,0.031963785153138934,0.053871426360681644,-0.17270595467219513,-0.10034810142862498,-0.0337588281663696,-0.024793012995385923,-0.0010624908596101605,0.001964921026631197,0.004257504282517216,0.03273713018799993,1.8125
-0.32662040892649363,0.06577340626575628,0.908261138105548,-0.45016248366490663,0.030382002524873077,0.05114463593156436,-0.16409142890300235,-0.0953412617383518,-0.03211104307274008,-0.023547943904058347,-0.001021128741274337,0.0018654324723630352,0.004054487312532495,0.03110412866743758,1.8203125
-0.27674121513446104,0.055731804922090296,0.7696003504811838,-0.3813291071139817,0.025791431443039557,0.04325027259882312,-0.13897684288459572,-0.08078017884038508,-0.027316924008870015,-0.01992031596082916,-0.0009007688130802581,0.0015772600157877958,0.003462384743120844,0.026354818612393353,1.828125
0.09383968337073699,-0.01875839384882671,-0.25940016531714555,0.12861587216866954,-0.00820779903960469,-0.015312956350431199,0.04707245082851023,0.027375320701773672,0.00823477055786097,0.00700222251405022,-7.139592628042972e-06,-0.000553998277785411,-0.0009312032483191344,-0.008889043359677168,1.8359375
0.5814350735622694,-0.11675017572415058,-1.6133574304027067,0.799566975064172,-0.05293525193280497,-0.09237060256905914,0.2918117575645959,0.16966585666504372,0.055007107675108614,0.04242173485259728,0.001168499932562811,-0.0033575364056450513,-0.00671049257222982,-0.05526160957642126,1.84375
0.4478985217257958,-0.08989199391788479,-1.242407676406734,0.615828644773068,-0.0406824313436009,-0.07124728319575444,0.2247961238807461,0.13065118343471155,0.04219074760625466,0.032719817872324676,0.0008461070002882115,-0.0025893715383384815,-0.005125141079467706,-0.042560814329084276,1.8515625
-0.3445571920647926,0.06940194290338277,0.9585761148595054,-0.4747381460428292,0.032022847246141864,0.05404716337555294,-0.17293604115002364,-0.10067656242165146,-0.03384421974130231,-0.024845884396836777,-0.001065345029653419,0.0019681921119662858,0.004271474413006859,0.03281386445652499,1.859375
-1.0207405553238944,0.20532671074041164,2.836782339017668,-1.4054222205236666,0.09406833479755321,0.16097387886377904,-0.5123455322836632,-0.29806670536728536,-0.09873046047073322,-0.07396672716424049,-0.002696353265652937,0.005857744145676951,0.012289421071886313,0.09713458818245467,1.8671875
-1.0182016855165152,0.20482730964516072,2.829798603839678,-1.4020030856068286,0.09383851901688067,0.16058041946959628,-0.5111266728066904,-0.2973535504322786,-0.09849202542085808,-0.07378716110512545,-0.002690296318623267,0.0058438036702474225,0.01226038543053822,0.09689352604604225,1.875
-0.39341134099355884,0.07922933657129923,1.0940521290391159,-0.5419773159338462,0.03649908169134371,0.06175327935394292,-0.1975427952279696,-0.1149514076459087,-0.03853005880470622,-0.028400586683619878,-0.0011829912716898204,0.0022498497779595223,0.004850810814779793,0.037452324401926036,1.8828125
0.33275402830965,-0.06677432702933372,-0.9235040708598704,0.4576693400416481,-0.03014691721773301,-0.05312883584520525,0.16700218660220217,0.0971257028696629,0.0311688201016908,0.024361278228988443,0.0005692296059264429,-0.0019279170984005378,-0.0037642856757014345,-0.031634595817569895,1.890625
0.5403992481922641,-0.10854041640450998,-1.5003608652877107,0.7434334084391553,-0.04919773692907509,-0.08598079973130317,0.2712682109247443,0.15780630841365717,0.05109916758706347,0.039453492600824494,0.0010704904376642422,-0.0031225031425021225,-0.006229361758183176,-0.051386345009078224,1.8984375
0.31246977774453094,-0.06270639664401394,-0.8667949414371106,0.42942572564398346,-0.028262554290414795,-0.04990069986245787,0.1567962785901204,0.09120230609021696,0.029214120458697253,0.022886740397641585,0.0005203471807580599,-0.0018105515324551022,-0.0035240906660860506,-0.02969284007757031,1.90625
0.363914486108759,-0.07300858744308428,-1.0093610741645973,0.49998247309589083,-0.03296177153411312,-0.057994479298885786,0.18251904383711293,0.10612128106804534,0.03413553156988055,0.026609077555757556,0.0006437513658195397,-0.0021055254477802365,-0.004130547504095227,-0.03457454605255323,1.9140625
0.6750623637170442,-0.13554393566786552,-1.8738067398634346,0.9282451931024167,-0.06150554391933261,-0.10719593618773858,0.3386973256398279,0.1969680309595118,0.06399336166977203,0.04921155450715278,0.0013941012252760353,-0.0038955096564842577,-0.007820973620162666,-0.06416735114093294,1.921875
0.5139022536017059,-0.10317192321726867,-1.426399980637103,0.7065486762136561,-0.04672498228413438,-0.0817316593820945,0.2578928594692692,0.15000522712717204,0.04854206798493103,0.03751388588872017,0.001005758405311909,-0.0029697101157699296,-0.005912978910360669,-0.0488371181473816,1.9296875
0.08568841844716518,-0.017107222376973156,-0.2368555812327403,0.11720028938673666,-0.007441652675875764,-0.014014942734633164,0.04301254481448791,0.025011234847550856,0.007457397388462049,0.006410256316698496,-2.6948878281541316e-05,-0.0005071548367411163,-0.0008353713508096858,-0.008104892590632039,1.9375
0.14373432277602596,-0.028760283938073183,-0.39790583084141296,0.1971125850590869,-0.012771822871550296,-0.023171613746510677,0.07214102461917736,0.04190314540888583,0.013018139131195443,0.010624303092522113,0.00011278397373201103,-0.0008403226918571661,-0.0015216098734838956,-0.013629676421043997,1.9453125
0.11885074584012868,-0.023749356372948952,-0.3288495818430164,0.16300110184950567,-0.010495072594060394,-0.01923644493381863,0.059628988986422084,0.03462437108237972,0.01062438766655171,0.008815198008537698,5.267010987446574e-05,-0.0006967792260332612,-0.0012257311952876843,-0.011268653189779506,1.953125
-0.7938738483731594,0.15970715681411507,2.206295174762411,-1.093101048856894,0.07324273065792347,0.12506660021121363,-0.3985252914597127,-0.23179358714155965,-0.07694863651367731,-0.057491089457190905,-0.0021485146000016896,0.004552255151228564,0.009597127385675005,0.07554937827461562,1.9609375
-1.4151096808269097,0.2845717652682527,3.9319336859541285,-1.9481378147408248,0.13024106175743064,0.22328826099629934,-0.7103604206623548,-0.4131372188363185,-0.1365526895106275,-0.10262147009122248,-0.0036467696921148353,0.008124718357992514,0.01696396519613236,0.13464545091618757,1.96875
-0.4366715886516622,0.08789059896105333,1.2141440671653718,-0.6014375329071552,0.040467483487913083,0.06857512584935384,-0.21919764713880993,-0.12750571009037917,-0.04267298042084072,-0.031533797556477505,-0.0012869859976445748,0.002497286685452564,0.005361207423922795,0.041572758590607065,1.9765625
0.7714130908517359,-0.1549614978568379,-2.1416925678846757,1.0614714204838025,-0.07038385063242138,-0.12246385997099841,0.38727309830280554,0.22519213280010347,0.07324351635229025,0.05624147894095976,0.0016268561636820819,-0.0044508986439761025,-0.008965778589249981,-0.07335360284083027,1.984375
0.3681321725937516,-0.07390993550569872,-1.0215735021807204,0.5064963581658147,-0.03339057498804567,-0.05871534955993169,0.18485741619824483,0.1074845190498748,0.03455543052967687,0.02694389673104217,0.0006544758221827474,-0.0021316609032675364,-0.004183919670799375,-0.03500032733301914,1.9921875
-0.636657537799302,0.12808170290102966,1.7695835315638953,-0.8766527021016531,0.05880703016119359,0.10017310060376328,-0.31959275758221783,-0.18587168992591757,-0.06185204521458366,-0.04606686726200543,-0.0017689325235032756,0.0036476176958159874,0.007732625796944569,0.06058479173560225,2.0
-0.3423193494126837,0.06895460464884826,0.9522480951916561,-0.4718906568037973,0.03182187553965407,0.0536712564326849,-0.1719592464708525,-0.10001400280675567,-0.03362165186832106,-0.024696844213019868,-0.001059478603885715,0.0019560042968954252,0.00424399103294877,0.03260074083437359,2.0078125
0.681362726945773,-0.13679403233721568,-1.8909664655997602,0.9367963371883518,-0.062084597950552614,-0.10815639257346758,0.34183273308829354,0.19875688032039707,0.06458373347897475,0.0496697983394619,0.0014089060016444664,-0.0039302267321530415,-0.007893756154729184,-0.06476749508941017,2.015625
0.7687408589177012,-0.15435328379578442,-2.1334088554977235,1.0569321476041398,-0.07009584074897826,-0.12195620134019042,0.38567746935428115,0.2242123962071211,0.07296000878197792,0.05601676556877431,0.0016193212393973363,-0.004432260984784827,-0.00892818185688709,-0.07307756553155922,2.0234375
0.03202957078332964,-0.0062618703575456295,-0.08705915271789166,0.04297540552832953,-0.0025044806689331557,-0.005475043996946783,0.015887168474472455,0.009153093945100835,0.0022798162057367246,0.0024922022299317136,-0.00015736150703045003,-0.00019575231521042752,-0.00019166814819546651,-0.0029958001502828854,2.03125
-0.35918373802185727,0.07237051830097421,0.9991281986399694,-0.49524210142712105,0.033380391915381655,0.056354411840751226,-0.18040942335439047,-0.10495938370362713,-0.03524112861113319,-0.02592437305504902,-0.0011003503627459493,0.002052899713417668,0.004444165263411985,0.034218968338028205,2.0390625
-0.15827087101714882,0.03195446099171826,0.4405096087060137,-0.21839657627373107,0.014933113182467128,0.024552925052432024,-0.07943918961499599,-0.04619810016491582,-0.01595005282534686,-0.011315052855522076,-0.0006152418677044985,0.0008959922674678596,0.0020570422338366664,0.015099944082154504,2.046875
0.17951966342028833,-0.03597983260682339,-0.4978949361062665,0.24668470379625826,-0.016069193784062023,-0.028876651491871498,0.09018195754206147,0.05244445336664072,0.016466029631206913,0.013233316924651307,0.0001996448121793641,-0.0010474351806059577,-0.0019502153362789868,-0.017043325369449136,2.0546875
0.39027583574826624,-0.07836016380369593,-1.0832299853830858,0.5367962754641317,-0.035411563208116906,-0.06221209667861433,0.19597126807593707,0.1139511529370742,0.036689131948252754,0.028545674190964564,0.0007080044716706573,-0.0022595960866075454,-0.004448399955922076,-0.03709976889945128,2.0625
0.31456691958131533,-0.06314736864175761,-0.873022736961,0.43270812313411444,-0.028471323761591952,-0.05025450176847763,0.15797651891994602,0.0918636555800345,0.029425758438001826,0.023049786077509116,0.0005255816210170303,-0.0018241448269301773,-0.0035502199814995564,-0.029903195974181444,2.0703125
-0.09522570680278844,0.019222638743704588,0.26522566223577215,-0.1312025014228965,0.009126260110741063,0.014544759179018756,-0.04771655629686238,-0.02773679186777362,-0.009899282546070124,-0.006716176302762135,-0.000462751247771719,0.0005328591405365255,0.001309152682357858,0.009078247637729835,2.078125
-0.4696495198422747,0.09449745944161093,1.305593104171312,-0.6466733737530622,0.04349229157158714,0.07377743741738967,-0.23573114251524718,-0.13707227569256658,-0.04583942821253143,-0.033923536153505005,-0.0013662105312513386,0.0026870537752995585,0.0057508586609533625,0.0447029113834812,2.0859375
-0.4087609479905011,0.08228201186313745,1.1368393958795493,-0.5631493120038678,0.03792073169551758,0.0641723020354587,-0.20527488787629614,-0.11937138888358004,-0.04000679310514645,-0.02951315538323352,-0.0012198115235809402,0.0023377838720360115,0.0050312821240300004,0.03891939877552016,2.09375
-0.057282130685525665,0.011647003936521419,0.16059061272529906,-0.07954563432363868,0.005673291985863843,0.008595194051078177,-0.028887729410712444,-0.016807615533587467,-0.006277739782687909,-0.003985591873687715,-0.00037218737666918516,0.00031643424366302524,0.0008641697829495466,0.00548796496819113,2.1015625
0.1212346969185624,-0.02423213730262338,-0.33533504519884355,0.16612756797521513,-0.010712983774380371,-0.019627662883949723,0.0607485982810029,0.03529950232012542,0.010859433046203924,0.00898326201758069,5.8404360105842266e-05,-0.0007107956311370983,-0.0012530366668586426,-0.011491469296611675,2.109375
-0.05881658122626095,0.011964297604652382,0.1648700304671936,-0.0817430410755596,0.005806451808020579,0.008863132480608694,-0.029604116392816553,-0.017274680510728297,-0.00641586188260602,-0.004097704313522462,-0.0003759741467053286,0.00032463527470226553,0.0008822325962852347,0.005638672244340876,2.1171875
-0.32447046694012255,0.06536900326489867,0.9028142186931744,-0.44743211258223975,0.030184942461359034,0.05087485708256563,-0.16294860317295312,-0.09484113308979163,-0.03190885270617971,-0.023397742553958063,-0.0010167607344416492,0.0018531406357924758,0.004032683957399575,0.030905947506488732,2.125
-0.28815384951177153,0.05807685930942611,0.8018286992003119,-0.3974162959176486,0.026854629452150607,0.04511889181577722,-0.1447250133873475,-0.0842380933772285,-0.028427245135084187,-0.020758801886412236,-0.0009290877755214023,0.001644969547902552,0.003601834637175812,0.02744627849287533,2.1328125
0.054420509572022324,-0.010771077066375204,-0.14979535172920827,0.07414638181639863,-0.004574942119466576,-0.009052239331363163,0.02721996295166396,0.01577701580289935,0.004438047224901295,0.004128273342971195,-0.00010287676163994207,-0.00032520310036146234,-0.00046049545233721613,-0.005136008740338963,2.140625
0.33143261479895186,-0.0664532178181438,-0.9192213417841363,0.4554492776571564,-0.029988246293951797,-0.05284858053591245,0.16627392631617285,0.09666295541166037,0.031014839869858306,0.02425473799151793,0.000565162761960282,-0.0019189231558488686,-0.0037455316326593163,-0.031477652977577215,2.1484375
0.36453532020106955,-0.07313656722127372,-1.0112278706481515,0.5010730278346538,-0.03302881892892122,-0.05809599310303588,0.18294000213486936,0.10636706992315102,0.034196767907567115,0.02666834090258585,0.0006452257985709139,-0.002109892026653703,-0.004139356545262562,-0.03463067762023367,2.15625
0.34152305837749714,-0.06853993999753848,-0.9474111527957316,0.4694825169846487,-0.030924693506395977,-0.054473527759661126,0.17143392711231167,0.0996765627352028,0.03199492614626419,0.025002932107045343,0.0005900504090036089,-0.0019776382916542766,-0.003867673319127814,-0.032454362107402386,2.1640625
0.36059720665322464,-0.07236692623891433,-1.000441131189136,0.49578335585773725,-0.03267671047013947,-0.057483885457041535,0.1809946786027309,0.10522779323060867,0.03382363118236766,0.026383147539677874,0.0006360515718789882,-0.002087212888298807,-0.004093550792599658,-0.03427187815374969,2.171875
0.3218287860513879,-0.0645577008010508,-0.8928824235631866,0.442472482491181,-0.029119825084262585,-0.0513519784195563,0.16151183845472403,0.09390006922653664,0.030104681627391473,0.023560147380377705,0.0005424603749181106,-0.0018646308032482792,-0.003633690225577012,-0.030580055961365312,2.1796875
0.2053619200815113,-0.04116375937355274,-0.5695844062728267,0.28223834652639584,-0.018440172211162134,-0.032960806943857966,0.10307746167753787,0.05994253700778994,0.018940450678392954,0.015104496742089229,0.0002618166679690084,-0.0011955478412810343,-0.0022541332446443362,-0.01950425252516964,2.1875
-0.04184775514947482,0.008503002085951174,0.11712139863200013,-0.058029436372978756,0.004236827054033013,0.006114403936245193,-0.02099182769874675,-0.012193689100862179,-0.004773152972381493,-0.002848202492660888,-0.00033417031245930795,0.0002261043288813213,0.0006766007718703886,0.004006418440794994,2.1953125
-0.5181990586541622,0.10426669298937241,1.4405921808229987,-0.7137726455970184,0.04794887971421223,0.08145795509864638,-0.26014920519826823,-0.15129360988477483,-0.05048822830898483,-0.0374606631241685,-0.0014833101250098808,0.0029663691559851106,0.006327270529047515,0.049324028343623934,2.203125
-0.8632124635927019,0.1736404946925232,2.3990849759765003,-1.1886636534536954,0.07961181105428848,0.13602815578304514,-0.43337539439406725,-0.25205177298891146,-0.08360236037325015,-0.06253266354249888,-0.0023157697945516624,0.004950973929088678,0.010420156202904114,0.08215015347087347,2.2109375
-0.5332248517498718,0.10729503134735556,1.4823242554103473,-0.7343628199250495,0.04933112671720877,0.0838317965430101,-0.26768860432741726,-0.15568044339288764,-0.05193755376944306,-0.03855150615031814,-0.0015197367769044247,0.0030527054868112378,0.006505523786948245,0.050757326880588705,2.21875
0.12920909705531186,-0.025886132398030413,-0.35779923617392767,0.17745022787416054,-0.011455828494463763,-0.020924852911580572,0.06489859631959902,0.03775220505268581,0.011629049677768608,0.009584754473060958,7.825706221290527e-05,-0.0007575121544769906,-0.001351829937881299,-0.012260671661498756,2.2265625
0.24911600068819134,-0.049972565556000915,-0.6907246575304548,0.3423499539763243,-0.022454194693923124,-0.039859450293321136,0.1250729408710961,0.07272101775845523,0.023132667564258032,0.018290392795957126,0.0003672933150255691,-0.0014468331655195861,-0.002772778354761594,-0.023661633639254716,2.234375
-0.05539305404916834,0.0112767780285612,0.15519793836093343,-0.07696687015898253,0.005498302462373806,0.00831744638565603,-0.027866789995407804,-0.016257211422053604,-0.006090724143528154,-0.0038472362701061852,-0.00036760196125161645,0.0003051793754481872,0.0008407838370786362,0.005311348046955875,2.2421875
0.02805062565638718,-0.005478288057452929,-0.07660273805223031,0.03778708738321326,-0.0021465669133685908,-0.004876439659990158,0.013943575138770774,0.008057573014114377,0.0019098523904417508,0.002208228743429711,-0.0001666395111252343,-0.00017401569805768118,-0.00014706784132603295,-0.0026267541023595247,2.25
0.32125937705913277,-0.06441206041144856,-0.8909629127839902,0.441339316406435,-0.029046851800865244,-0.051242608364364964,0.16109133057003694,0.09364352815279507,0.030037304784878507,0.023510348738440368,0.0005404182365689861,-0.0018597798510862865,-0.003623091693329083,-0.030519178757058674,2.2578125
0.05515053720451364,-0.010907288271831544,-0.15167971247434636,0.07507629054742736,-0.0046372447731197475,-0.009155336617493126,0.027517817595687426,0.01594919093979581,0.004504133006476982,0.004175504117591466,-0.00010145898696737693,-0.0003292718997066913,-0.0004668936737782527,-0.005202076256161217,2.265625
-0.37890931488609286,0.07634297747512588,1.053913335803413,-0.5222972834859847,0.03517741273464087,0.05947687896291743,-0.19031086632197894,-0.11074301330932013,-0.037133606378515004,-0.02735812154815769,-0.001148147511343526,0.0021664436603421613,0.004679055909543808,0.036087976275808405,2.2734375
-0.04501788760559972,0.00919032209593744,0.12631624864644772,-0.0626023685223582,0.004532251256977894,0.006654691837012418,-0.022616908085954027,-0.013195495722786608,-0.005087021935657301,-0.0030887937453261145,-0.00034237473422668477,0.0002453412879664582,0.0007167377010704702,0.004320036602513529,2.28125
0.6543099471570486,-0.13141779997144215,-1.8161302412622793,0.9000460362142043,-0.05963540306395916,-0.10394363296620691,0.32847986425640924,0.19101739166434772,0.06201079422412008,0.0477301663999603,0.0013445984597564007,-0.0037768362822029624,-0.007577685401266797,-0.062207611232839494,2.2890625
0.6729833564653394,-0.135167278544658,-1.8678818203306606,0.9257404115961887,-0.06134439753959715,-0.10688336467510641,0.33783842152501575,0.19645197766204728,0.06379479619100333,0.049085136597936334,0.0013895343064892077,-0.0038839239164135822,-0.007798292303913765,-0.06398147694693081,2.296875
0.204851483897476,-0.04104885401926817,-0.5677095833943749,0.2813631555287212,-0.018386892212975015,-0.03284073384599389,0.10281702442624009,0.059746873402685405,0.018878292451002716,0.01506535028343376,0.00026033741284180135,-0.001191574925055609,-0.002246336054011418,-0.01944914606597345,2.3046875
0.021644000606351785,-0.004228171574390986,-0.05910241554700811,0.029235699571778948,-0.0015766511030829583,-0.0038791022100902787,0.010852755703965667,0.006266815345742243,0.0013063349358168187,0.0017537619233711057,-0.0001814069638346386,-0.00013833285886443773,-7.473042768790732e-05,-0.0020260132506321467,2.3125
-0.10253408321846894,0.020711201227045378,0.28572613990108153,-0.1415599841063551,0.009813686545021934,0.015726307267887304,-0.05146958059377841,-0.029941934640684065,-0.010606520515769118,-0.007260202471783158,-0.00048073538715520724,0.0005755418381091865,0.0013968543854575993,0.009781272691611435,2.3203125
-0.5521856616459512,0.11108693184316329,1.5347664172811424,-0.7603653701657107,0.05107038581565168,0.0868101705986676,-0.2771986262056991,-0.16118131928954216,-0.053754318005418765,-0.03992329485886521,-0.0015652389993592798,0.003161659629660818,0.006729225359870001,0.05255351651276663,2.328125
-0.6612326984035475,0.13301119049224272,1.837676439935754,-0.9105014238503844,0.06108345776165128,0.10406606993707904,-0.3319712714246272,-0.19302334872507343,-0.06422031416682453,-0.047849503200426476,-0.0018283483743414424,0.003788940166288865,0.008023001410383321,0.06292969164921527,2.3359375
0.0064904398877678295,-0.0012006990339082434,-0.017012330366892266,0.008380793343325628,-0.00017340857476240795,-0.0014947979946100351,0.003189918158053175,0.0018759680247043351,-0.00015119886991822392,0.0006548636106003637,-0.00021798582241969414,-5.129558292465881e-05,0.00010527891794996413,-0.0005827090759092152,2.34375
0.48468562138185844,-0.09731142473619941,-1.3451396207286355,0.6664299165526969,-0.044051822866936534,-0.07710200247959619,0.24324634173939455,0.14144865230252596,0.04573566578884562,0.03539343632334035,0.0009352604354637748,-0.002801543028250297,-0.0055650735023893795,-0.04606723377737877,2.3515625
-0.02003301514374851,0.004158615954360512,0.056932310555324786,-0.028219578775391673,0.0022437127506797854,0.002700893152855834,-0.010068449893184431,-0.005895456969773718,-0.002688592097651547,-0.0012730466864485028,-0.00028213595442418024,0.00010119558653466275,0.00042017449264675406,0.0019454459747582512,2.359375
-0.7214451382300748,0.14516467431718694,2.0052456572307205,-0.9935040394770147,0.06659041878760354,0.11361023454390665,-0.3621364024190333,-0.21064537743971187,-0.06999073322482004,-0.052228868103585215,-0.0019739340320893794,0.004135264056521861,0.008738028890313188,0.06866814276874904,2.3671875
-0.6297730906688144,0.1267493698023132,1.750647238421473,-0.8673489736628668,0.05818385448971791,0.09912062842111069,-0.3161707470427218,-0.18390748298521284,-0.061201087504408294,-0.0455724872809725,-0.0017530123729390685,0.003608454826869505,0.007652344043908472,0.05994933792294641,2.375
-0.011777685517277002,0.00253398574710994,0.034181852765367705,-0.0169733581434148,0.0014930915220416937,0.0014076693770287225,-0.006060006984768285,-0.00357502652683237,-0.0019096818022811617,-0.000685164780147607,-0.0002627142055007853,5.49815160820393e-05,0.00032628793600586985,0.0011611047524986992,2.3828125
0.4224067044571864,-0.08474347303641594,-1.1717367050175562,0.5804549999484531,-0.03833722002668583,-0.06723595967125916,0.21183214833966255,0.12311178861859742,0.039746524332127504,0.03085201208626547,0.0007844130860972903,-0.0024414060423684756,-0.004821108865215023,-0.04014550245805525,2.390625
0.5306347944119747,-0.10651260079580471,-1.472343987416691,0.7295003290901566,-0.048268637905419125,-0.08433724450281177,0.266217102456744,0.154733685959525,0.05012535717188423,0.038722391715858576,0.001045621824944637,-0.0030636264550035694,-0.006105614096647463,-0.05044276712628177,2.3984375
0.38775778212625583,-0.07781259671152954,-1.0755583089076082,0.533081956920533,-0.03516706143388981,-0.06175405811188119,0.19461060747504838,0.11312652860437065,0.036415527979865324,0.028358346337470402,0.0007013755902513414,-0.0022423642865571874,-0.0044141681220902125,-0.036849516935877326,2.40625
0.06929811018529446,-0.013817392125559751,-0.1912078365340955,0.09490549572454247,-0.005956904238611461,-0.011431319121632696,0.034832345396303435,0.02025302597557613,0.005872856511110581,0.005231651006464818,-6.629510112900572e-05,-0.0004118613559533079,-0.0006408882791094124,-0.006556124923377195,2.4140625
-0.06567194351891374,0.013302901237029421,0.18339309143127208,-0.0908816688433778,0.00642566773325021,0.009890528873083818,-0.03289716431596866,-0.019120449943349976,-0.007060257935444385,-0.004576098858009922,-0.0003916065348686772,0.00036334804184800037,0.0009576125658787924,0.006280620524863216,2.421875
0.14341041063698357,-0.028719289704535828,-0.3974801882388415,0.19684005480401046,-0.01274790422885553,-0.023154312686013822,0.07203566031876552,0.041889186174031104,0.013001219902996995,0.0106072698371138,0.00011246418916955268,-0.0008394603458873285,-0.0015214258659793194,-0.01360586225721005,2.4296875
0.22059665484745897,-0.044219881031120324,-0.6117083557165648,0.3030938384666749,-0.019820154869816784,-0.03533875841369074,0.11072391569389675,0.06438109768011535,0.020392163864872546,0.0162100386777508,0.0002982069739199664,-0.001282951772034499,-0.002434223983089895,-0.020943258497356405,2.4375
-0.03961226976324636,0.008091046390187517,0.11125529660364607,-0.055024782527793976,0.00405367126303458,0.00580102242466428,-0.019966367727937778,-0.011608459031467021,-0.004583046048192238,-0.0026978030896697967,-0.0003295265929935295,0.00021414616264844475,0.0006538558931183662,0.003807345382159294,2.4453125
-0.04641776191402327,0.00945250159339362,0.13015623200495718,-0.06445840229164099,0.004673844153919273,0.006866220016674796,-0.023416859487323007,-0.013604662349047492,-0.005230801648903963,-0.0031941579933461427,-0.0003457519043919071,0.00025356206480992005,0.00073484670104541,0.004448746114676117,2.453125
0.3479987779108861,-0.06983727827585909,-0.9654865971864282,0.47832696412714465,-0.031514939194606365,-0.05549409514541188,0.17460795632099535,0.10154324312613666,0.032618772837572814,0.02546349838121261,0.00060567060668255,-0.002014945508483325,-0.003943762986009293,-0.03307047355184215,2.4609375
0.2944216406377341,-0.0590686467097249,-0.816675311380818,0.40465133069266657,-0.026603017956915814,-0.04701684412882402,0.14778590307882966,0.08591382472765263,0.02747771541326436,0.021577402673506444,0.00047637643076664624,-0.0017072682708126168,-0.003309541734165844,-0.027970645855805467,2.46875
-0.4454648503580113,0.08966496233308092,1.2385410538861135,-0.6135873125686088,0.04127314655643497,0.06996832845410998,-0.2235931756597245,-0.13009364893412592,-0.043514048120630255,-0.03217493169947485,-0.0013082743650695426,0.002547681371642935,0.005465023907535293,0.0424100126205146,2.4765625
-0.8083212603651613,0.16261821513742322,2.246512204179016,-1.1130749592179578,0.07456377686441844,0.12734265737936515,-0.40578592320774254,-0.2360633861522746,-0.07832850412928054,-0.058543586530599996,-0.0021835374816265517,0.0046349337377234795,0.009769653422185071,0.07692430137665719,2.484375
-0.2909038848861074,0.058618160838732114,0.8093793126939262,-0.40110599688355214,0.02709932110617391,0.04553787158504065,-0.14610860947628077,-0.0850305169930848,-0.028683856104978644,-0.020957843315103558,-0.0009355927840172927,0.0016598328396392554,0.0036344483253929996,0.027707529276598634,2.4921875
0.1332413627467759,-0.02665015428866172,-0.3687180554589316,0.182633544496483,-0.011810121266183717,-0.021525627904392563,0.06679921967576212,0.0388272997357852,0.012009657303611905,0.009858940600473175,8.751881723546655e-05,-0.0007793665992101765,-0.0013963824149420157,-0.01263547974204043,2.5
-0.16215706771522911,0.03272251349156289,0.4517820481175855,-0.22382896074472325,0.01529094467689315,0.02517904159582496,-0.08147569092139205,-0.047377195462253316,-0.016336309580661748,-0.011600410282350563,-0.0006248777515610921,0.0009193951567124383,0.0021060400456191066,0.015463939489250025,2.5078125
-0.45381543506051414,0.09136194377500766,1.261895198463809,-0.6251979936313552,0.04204818029598216,0.07129618335494196,-0.2278988841017411,-0.13253890162761223,-0.044323783444817945,-0.032792117990542366,-0.0013284131868122869,0.0025971089791261377,0.005565753484633564,0.04320514559094975,2.515625
-0.23185549976507844,0.04674804788274654,0.6453397760694969,-0.3196971673126352,0.021680000371643374,0.036192196092268626,-0.11646600890005179,-0.06774769092140424,-0.02302678718491715,-0.01666305892262657,-0.0007929990360017532,0.0013209261399668199,0.0029338393695250028,0.022088028000843106,2.5234375
0.026633421396599473,-0.005234291210142495,-0.07275143343513621,0.03613719030852619,-0.0020426825524922656,-0.0046964753171496385,0.013361214520797273,0.007758170565200506,0.0017813754584518878,0.0021261526829218463,-0.0001692096322123932,-0.00016620971197704192,-0.000133526850163825,-0.002502971713064668,2.53125
0.17073747445128196,-0.03420977959331662,-0.47313308353809114,0.2345104630183986,-0.015263215991554547,-0.027476990910919468,0.08573274737407442,0.049842989876974934,0.015612479352211061,0.012595457921657085,0.00017838221365650174,-0.0009958876043588717,-0.0018436246970016635,-0.01620729126670733,2.5390625
0.6144351662195272,-0.12337292627308961,-1.7055906225724766,0.8451264868782324,-0.055961006680802824,-0.09760723423049461,0.30841176967888434,0.17931568445424023,0.05818023207687815,0.04481953041903077,0.0012479915162395758,-0.003547908368800153,-0.007103573020679877,-0.05840621768843923,2.546875
0.9774209392060209,-0.1963244190269503,-2.713787461704278,1.3446738803627882,-0.08926040974192406,-0.15499759203584157,0.490597103443709,0.285243935412421,0.09300401941402453,0.07118875213190105,0.0021231272449477533,-0.005635160461269599,-0.011406608097458793,-0.09293501262099979,2.5546875
0.43431431705926116,-0.0871743279564237,-1.2051581735953918,0.5971644304456436,-0.03943886381235791,-0.06914202372261048,0.21801105358924147,0.12672620637282186,0.04089833289479339,0.03174106689863159,0.0008135336078167605,-0.002511351127210229,-0.004967240309874293,-0.04127991568609064,2.5625
-0.49364603561964393,0.09935207474564142,1.3724917923784423,-0.6801372204829707,0.04570010839688436,0.07759008178076442,-0.24781101503925987,-0.14415485169876363,-0.048134818635222,-0.035676617073935976,-0.001424333168115142,0.002825851275945095,0.006036222237691982,0.04699236971951792,2.5703125
-0.5147873881840387,0.10362806620162161,1.4312891412181474,-0.7093491431160227,0.047652162879503024,0.08095806470869771,-0.2585151554384401,-0.15035803991005728,-0.050170391375734875,-0.03722531488908184,-0.0014755854121341245,0.0029478093092566585,0.006288336384944994,0.0490134686917405,2.578125
0.1836147247501177,-0.03676176666380357,-0.5087025737572959,0.2520187362597392,-0.016422965414283685,-0.0294809297735447,0.09203123489634074,0.05353172367961683,0.01683483077233003,0.013512961677074874,0.00020878156877063316,-0.0010690301366482117,-0.001993051783326923,-0.017421644229636615,2.5859375
0.3510935324226184,-0.07047123535642835,-0.9740396094570937,0.48273954254323714,-0.03180198333043478,-0.055995349161151294,0.1761762567591124,0.10248256054145226,0.03291166008158797,0.025693324090932116,0.0006131740993653572,-0.0020329697851934085,-0.003980791065052181,-0.03336547963979618,2.59375
0.03643886090199614,-0.00723555969021923,-0.10000237356286339,0.04957368382960456,-0.0029355992740559235,-0.006233479907663407,0.018269341224481123,0.010625921640538596,0.0027292696144584454,0.002835203936519034,-0.00014555383465320333,-0.00022362307572771156,-0.0002501130468159325,-0.0034361149605387983,2.6015625
0.26386766919650956,-0.05291386417744348,-0.7315400156766132,0.36231567529818276,-0.02378749152293778,-0.04215159736907143,0.13237894798748875,0.07693958381225975,0.02454625158359942,0.01934512657360964,0.00040245687769288705,-0.0015312384048303063,-0.0029451669707676914,-0.02505671522858239,2.609375
0.6734005555554076,-0.1352193272475928,-1.869080336703667,0.9260487682849587,-0.06136061144495944,-0.10691084981575816,0.3379425578684387,0.1964715244816881,0.06383350239577033,0.04909681759848529,0.0013899196695674478,-0.0038865316055019072,-0.0078008080122053715,-0.06401027632615586,2.6171875
-0.01906573240411122,0.003939081427501961,0.054078145704620446,-0.026545225460000692,0.002145724657634207,0.002520144762843538,-0.009553240034928794,-0.005587726561871368,-0.002602260346284688,-0.0011937006546334842,-0.00027961480231103827,9.525634159725393e-05,0.00040842645221276597,0.001842693312494453,2.625
-1.3091241972538603,0.26323668228437375,3.6371897411698413,-1.8018292325128842,0.12048593862516645,0.20646752576712776,-0.6570510900090036,-0.38211989747294667,-0.12637234974556297,-0.09490724930984719,-0.0033904443694415458,0.007514306070483281,0.015704524643170355,0.124545658412724,2.6328125
-1.2686268922575188,0.2551282388311222,3.5247597907407187,-1.7463515073619542,0.11678384411598597,0.20009269385079098,-0.636787700321412,-0.3703462619311732,-0.12248907258162052,-0.09197646576450644,-0.0032930138096859446,0.007282208041103634,0.01522543118505776,0.1207011739395166,2.640625
0.12151168005691726,-0.024278817804650413,-0.3364104385977017,0.16657242824896085,-0.01073422046626918,-0.019680090997878683,0.060924290753396705,0.0353988082409952,0.010884605741968163,0.009005688086173708,5.925802884401986e-05,-0.0007118180287733144,-0.0012577047092220083,-0.011523214641266547,2.6484375
0.6339283157965755,-0.12729651843107695,-1.7597016543932982,0.8718178761095129,-0.0577462517833726,-0.10071015549479366,0.31815306430661955,0.18500781483655687,0.06005085456546266,0.046237954731988704,0.0012951442988467798,-0.003658976160772169,-0.0073347611451405415,-0.06026682873681277,2.65625
-0.5456507546127741,0.10979991324291827,1.516777157662319,-0.7515040952224149,0.05046576556865152,0.08578926410817947,-0.2739042349194683,-0.15928852028577292,-0.05312409279080995,-0.03945066906462534,-0.0015496326614277043,0.003124429283201875,0.006652207084740497,0.051938094339720464,2.6640625
-1.417100369277278,0.2850058213456623,3.9375651202005013,-1.9510016437342137,0.1304259161322438,0.22360807870805013,-0.7113942686395724,-0.41373867901812517,-0.13674662551299463,-0.10277064638871722,-0.003651891936190394,0.008136834564225632,0.016988259890885975,0.13484183242122127,2.671875
-0.5157636689213654,0.10387310704251727,1.4342309222868688,-0.7107705801161194,0.04774966038467879,0.08113589139135835,-0.2590772317364411,-0.15074376966736533,-0.0502803949383339,-0.03730659927254923,-0.0014787779527694704,0.002954571167447715,0.006303688513623247,0.04910986333680487,2.6796875
0.8155882370676498,-0.16374515584696547,-2.2637143070337644,1.121511839103028,-0.07439774282804393,-0.12936348493055289,0.40919028608346103,0.2378752350985783,0.07745715337220074,0.05941376486574635,0.0017322209915224351,-0.00470161527897602,-0.009482909362826336,-0.07753713390580048,2.6875
1.0167913381827265,-0.2042380660562218,-2.822664617544944,1.3986138253270806,-0.09287417490482693,-0.1612030019778128,0.5102969570532969,0.29671813969306166,0.0967734475103092,0.07404827273264947,0.0022183263664377942,-0.005859705868718133,-0.011871834908829128,-0.09668073959098922,2.6953125
0.820432471503184,-0.1648143064233255,-2.2773688679589132,1.1285068180503377,-0.07486402533776261,-0.13017705230370083,0.4118302178501405,0.2395073376376765,0.07794405137849111,0.059796724868038366,0.0017453974528173649,-0.004731883337677246,-0.009546913965270153,-0.07799950228804094,2.703125
1.2574615855792168,-0.252676692632541,-3.4915025239356146,1.7300361586144433,-0.11495157220723966,-0.19928368769853527,0.6312061532118317,0.3670961048791005,0.11988143074428342,0.09154374788919718,0.0027993642612637176,-0.007246421563716236,-0.014730595968972896,-0.11957023251095238,2.7109375
1.389432986547093,-0.27920165298875205,-3.8584134433445163,1.9117785450016371,-0.12706006838968498,-0.22016214384933785,0.697442771070164,0.4055906348094214,0.13255076918402486,0.10112486676150692,0.0031174118648443195,-0.008006254623484732,-0.016295544703894115,-0.13213156141622276,2.71875
0.31649376080593783,-0.0635289404498505,-0.8783588469503564,0.4351949762101461,-0.028632061270912584,-0.05053428384321215,0.15890497139566043,0.09238481804999218,0.029611716642295453,0.023179896177147146,0.0005297868157109419,-0.001835958022184522,-0.0035728095808601123,-0.030077019255176668,2.7265625
-0.613024397265203,0.12331598429777335,1.7036599007005058,-0.8441699657071108,0.05664530317376107,0.09643053265957359,-0.3076684433542535,-0.17894084621210196,-0.059575599567360325,-0.04434331226379381,-0.0017118356062721563,0.0035105462724882466,0.007449481235234663,0.05834312559938268,2.734375
-0.11145889528742767,0.022508264170095292,0.3107129963327119,-0.15394386368148613,0.010630760037973192,0.017135137233649785,-0.05595811930345763,-0.03253592473710452,-0.011461061061133532,-0.00790730496116853,-0.0005022249203299342,0.0006271129112721412,0.0015030165954443174,0.010634557815189134,2.7421875
0.4562564399329187,-0.09159333355001098,-1.2661923458940123,0.6275311185092789,-0.041461992276785965,-0.07262363059771235,0.22897316316401614,0.13317132513610005,0.043003630743013256,0.03333242482095827,0.000866788725563555,-0.0026375031099353835,-0.005227574547489216,-0.04337217956556799,2.75
-0.5863315114746656,0.11798570497084461,1.6296877673517554,-0.807244938594142,0.054184150840979925,0.09222500179375166,-0.29434673569674796,-0.17118781512291006,-0.05703193823069273,-0.042409935749110214,-0.00164784557731881,0.0033583834329354583,0.007136192217553104,0.05579936528653086,2.7578125
-2.10266194447532,0.4227894135000079,5.841641365281439,-2.894291657637816,0.1933091497257127,0.3319862639681455,-1.0554774938109444,-0.6138595563019517,-0.20252315658573117,-0.1525702677370429,-0.0053050445721531505,0.012079208568286613,0.025117498063328938,0.20004134148336608,2.765625
-1.9840730429332407,0.3989633636498953,5.512410452576266,-2.7312946466877337,0.18244175865778958,0.31324563213324447,-0.9959880739883731,-0.5792908388709511,-0.19114788724762224,-0.14396110523935268,-0.005019233265214308,0.011397652869706391,0.023712285658347133,0.18876563079125366,2.7734375
-0.5109749979699846,0.10287031013703152,1.4206525028461467,-0.7039374017834708,0.047294890044885095,0.08033269810737795,-0.25658230361663387,-0.14929035741743177,-0.04980746875282886,-0.03694745471500894,-0.0014665766134824075,0.0029258081041768865,0.006244806114663182,0.04864266183308934,2.78125
0.4819414911667042,-0.09670602046867532,-1.3373509888636252,0.6625608444912202,-0.04379680392770977,-0.07665255460961146,0.2418088373065583,0.14057786132263797,0.04545947657097808,0.035186141840468844,0.0009281376839893641,-0.002784331496622113,-0.005529661619097117,-0.0458011514704603,2.7890625
0.39657001882287196,-0.07954394551721553,-1.1000611295240272,0.5448751686460519,-0.03595195931915904,-0.06313955258881365,0.19892198157950522,0.1156711644864418,0.03726274231618664,0.028982949010569612,0.0007223261129287739,-0.0022925103012970795,-0.004517798260814138,-0.03767361549594646,2.796875
-0.04251614956304041,0.008709820345893644,0.1197143639144949,-0.05954681916282117,0.004337126064134677,0.00629011488825902,-0.021501336169365393,-0.012515572956325383,-0.004869039798640446,-0.0029176853232051815,-0.0003365835384933185,0.00023327068260510197,0.0006889546854044147,0.004092086503747754,2.8046875
-0.24207532952251326,0.048809569376621814,0.6739000258358901,-0.33403812548601686,0.022632251243854658,0.03783437213258565,-0.12161054705592306,-0.07076761630987194,-0.024009386900716377,-0.017410910308103024,-0.000817806788215574,0.0013802850808258646,0.00305494706292395,0.023065601314125203,2.8125
0.0032770778602252255,-0.0005272137002013875,-0.007829398341524246,0.0038929038807280288,0.00010468907409031269,-0.0009674459212109049,0.0016432415922078673,0.0008955873029490236,-0.0004588817146621854,0.0004230599919530992,-0.00022595936211805044,-3.2124715101126805e-05,0.000144125192301557,-0.0002780696156569801,2.8203125
0.6526924226952353,-0.1310906865193945,-1.8117576975923315,0.8978429374112975,-0.05948424273983849,-0.10366084676571899,0.3276572339519644,0.19052330994401728,0.06185521059057034,0.047608539114690505,0.0013404589814657278,-0.0037681494391313113,-0.007558153935442432,-0.06205093480306325,2.828125
1.2339582055719487,-0.2479581548201793,-3.4263510085557773,1.6979549060465402,-0.11281551856355608,-0.1955922040399073,0.6194150925884369,0.36023709663263426,0.11762905650869239,0.08983882555238336,0.0027425661415612,-0.007111956340603961,-0.01445158235382646,-0.1173439745532907,2.8359375
1.3575936393203467,-0.27282344581315326,-3.769905448118225,1.868162530751168,-0.12415922203606503,-0.21515738431769302,0.6814875301413346,0.3963389799267019,0.1294976306399019,0.09882248953347432,0.0030409374379033265,-0.00782346138205053,-0.015918083766662414,-0.1291087066631177,2.84375
1.259339958712109,-0.25305788778750693,-3.4970090730867227,1.732778527064512,-0.11513740070247898,-0.19960365890766796,0.6321808913712627,0.36764851563225254,0.12007242809514733,0.09168303638891026,0.002803963371861293,-0.007257898090382344,-0.014753072522085202,-0.11975864502610364,2.8515625
1.1678341853331464,-0.23463039553779877,-3.2425843506991208,1.6065846215426929,-0.10672817095753076,-0.18509951665336288,0.5861931481011229,0.3409001072852104,0.11128314492128967,0.08502665590929807,0.002582964997359982,-0.006730468739502387,-0.013666802526001132,-0.11104258063645539,2.859375
0.8839610128208578,-0.1775450844381207,-2.4538839780302193,1.2158209352208804,-0.08067593656735403,-0.1402013499084797,0.44362102902156525,0.257979829726254,0.08403406845339992,0.06439446643792879,0.0018978946692723817,-0.005097194591411433,-0.010298492559214863,-0.08403489397901272,2.8671875
0.41738346141919397,-0.08375872027891809,-1.158050631537629,0.57380628059624,-0.0378740531877166,-0.0664452436113768,0.20941579782987815,0.12175187025813185,0.03926706349593432,0.03049862534959203,0.0007724568472808781,-0.002414016502555409,-0.004764840521654354,-0.03966176252350168,2.875
-0.1249814270603178,0.025248320867707143,0.3481741737615792,-0.17251008947948243,0.011872397181774066,0.019282037688321537,-0.0627622919472774,-0.03655082824891185,-0.012761521746426854,-0.008894847404919713,-0.0005353153072567738,0.0007049726946271083,0.0016655563078829577,0.011916221772768534,2.8828125
-1.2605461104678586,0.25350212940007283,3.5023217161769615,-1.7353072771193307,0.11604338703946482,0.19880606750701124,-0.6327347397549311,-0.36801256276773614,-0.1217120109396852,-0.09138664050511978,-0.0032736764318648795,0.007236061162654506,0.01513037626344918,0.1199269154100495,2.890625
-3.1244661479541236,0.6281817064164026,8.679712508140593,-4.300571209208065,0.2870496898648442,0.49350908657999887,-1.56839095956937,-0.9121394789901897,-0.30055807954388425,-0.22680239341285194,-0.007769066580340404,0.017956329437438735,0.037234099703437336,0.29722707652942587,2.8984375
-4.167464687031264,0.8378576853260324,11.576797923703046,-5.736101625370627,0.38275334104297465,0.6584373286147748,-2.0919987934950237,-1.2166504970311736,-0.4006402810316318,-0.30258387778361506,-0.01028488365967924,0.02395531930580729,0.049603671743081695,0.39644331117906345,2.90625
-2.8560989059139166,0.5742718525364751,7.934349636959417,-3.9314419657144346,0.2624533368938145,0.4511220099271703,-1.4337559330401881,-0.8338485995078578,-0.27482062655238726,-0.20731854404440728,-0.007122345041849531,0.016413780856378804,0.034052936965836327,0.27171082843117766,2.9140625
-0.10040443626082983,0.0203447827311437,0.2802862400960273,-0.13894965083223784,0.009630847489747863,0.015433937150602891,-0.05046855348102831,-0.02939218808463448,-0.0104185087520316,-0.007117812984404011,-0.0004761899883493003,0.0005653195699547418,0.0013739586398016338,0.00959295894975198,2.921875
1.9304883326636566,-0.38789142136657784,-5.360519580753132,2.65605106250171,-0.17669488213256193,-0.305660150118755,0.9689654529196525,0.5634603756297034,0.18443933295956103,0.14042522312026567,0.004421791553452078,-0.011114952093345166,-0.022708777510492335,-0.18358121056604632,2.9296875
2.5598309103442998,-0.5143982111922849,-7.108568886691752,3.52210199302295,-0.23442400060059912,-0.405153740787889,1.2848121277976672,0.7471573330175537,0.24482401543398352,0.1861416163037504,0.005939424033052424,-0.014734729909298935,-0.030170234051504048,-0.2434406971425044,2.9375
2.4911160578936533,-0.5006022734710959,-6.917865360107444,3.427518693290199,-0.22811364167378514,-0.3942900032898381,1.2502927776166313,0.7271162907793823,0.23823746299078516,0.18114874014641724,0.00577377679612273,-0.014340090878522577,-0.029355275113095675,-0.23690606782081758,2.9453125
2.094995821078102,-0.42101427803513003,-5.8177742476064935,2.882585738277888,-0.19178837613640806,-0.3316850710936993,1.0515522390356642,0.6115440498119591,0.20024029445040423,0.15238241395368465,0.00481891012904858,-0.012062918315113871,-0.02466026846110417,-0.19923656989302216,2.953125
1.3360408637373224,-0.2684846435863689,-3.7098508711134968,1.8384032634927767,-0.12218514847188014,-0.21172299797878377,0.670720745041581,0.39003953068572356,0.12742790926982053,0.09725939340077926,0.002988969047400416,-0.0076989142766452695,-0.015662661727017756,-0.12705712123919366,2.9609375
0.43673215868847554,-0.0877078542216683,-1.2120421304941287,0.600839438587328,-0.039686060082308,-0.06955304029410583,0.21931240516053416,0.12750965977094522,0.041142555631355826,0.031927054387629654,0.0008200986338880618,-0.0025268310672473373,-0.004998159585825627,-0.04151952344156529,2.96875
-0.3446550294986617,0.0693862250555845,0.958348450778932,-0.4747030998885172,0.03201735909762823,0.05399710958873243,-0.1730170454321698,-0.10062657989132476,-0.03383559881104449,-0.02484920900057577,-0.0010647402357458066,0.0019678103158164953,0.004269634695471063,0.03281202397441568,2.9765625
-0.9013840883354227,0.1813074429137635,2.504794227359433,-1.2410568844978316,0.08310847913841521,0.14203192337669204,-0.4525230838061717,-0.2631616174247356,-0.08725918285798517,-0.06529877829273353,-0.002407665265573174,0.005170263073147011,0.010872044788557607,0.08577450520576115,2.984375
-1.08824186799587,0.21885975900886528,3.023778877390068,-1.4981938861880768,0.10024965266503436,0.17157337644250512,-0.546260861036223,-0.3176903872075088,-0.10518737185478373,-0.07886825256539991,-0.002858199592596243,0.006244902349092549,0.013086413153625047,0.10354675373625748,2.9921875
-0.9292469354066839,0.18690012059688224,2.5820646168203085,-1.2793181913083365,0.08565646277625746,0.1464322728716874,-0.46641600822315366,-0.27127198918028056,-0.08992717441831394,-0.06731773901595042,-0.002474626174617241,0.005330214250477267,0.011200274026377735,0.08842009475324357,3.0
-0.6758912336282096,0.1359982121132106,1.878418037530737,-0.9307453313960791,0.06241721199630462,0.106394476634182,-0.3393078480698552,-0.19736798751001597,-0.0656185371075839,-0.04892554301728075,-0.0018638977682227608,0.0038731472038604645,0.008197779009263237,0.06432574751078073,3.0078125
-0.40432559481324576,0.08143445773936134,1.1243026313578277,-0.5571819001970817,0.037511881662935335,0.06348253095956585,-0.2030626896662669,-0.11815444708124448,-0.03956785735074017,-0.029207797309514415,-0.0012093124976086933,0.0023117619273832755,0.004979558583725107,0.038501224089137254,3.015625
-0.1709199524947409,0.034509555033600245,0.4760068429284978,-0.2359677670789849,0.016097728215389868,0.026572044051577152,-0.08587861234622728,-0.04999423798394046,-0.017174482965116474,-0.012244248626812516,-0.0006462250002807437,0.0009698676567908294,0.002211017915107811,0.01629742386512089,3.0234375
-0.2571662088675533,0.051826176701778255,0.7154426722842462,-0.354550750250617,0.024005438612860835,0.04018513279257614,-0.1291243686828471,-0.07510341401994225,-0.02544885960466625,-0.018496917206341956,-0.0008539096756136425,0.0014662067308399004,0.003231973085487081,0.02449436539542953,3.03125
-0.5039971044131545,0.10144991772345523,1.4011454720460896,-0.6942857469337576,0.046656422653262516,0.07922232163418007,-0.2530622137625783,-0.14717896001545788,-0.049140406908152474,-0.0364299810631096,-0.0014495300049709725,0.0028863517531754644,0.006160065394529372,0.047973701745692994,3.0390625
-0.2962367606948459,0.05971377133897643,0.8244335976310442,-0.40854367983181783,0.02760448162199349,0.046410850060582064,-0.14884801884446788,-0.08661894244285985,-0.029220000662578714,-0.021346218680686653,-0.0009490368654496064,0.0016923544295443958,0.003699223404051994,0.0282183703138456,3.046875
0.19093583463327155,-0.038212590615106005,-0.5285230838048708,0.2618738198787457,-0.017097927147693755,-0.03060833956273689,0.09570539894089541,0.05559041300860868,0.01752329845805158,0.014046582170524569,0.0002260946050461774,-0.0011092979534184971,-0.0020777248313409596,-0.018118331513333977,3.0546875
0.21699801430249646,-0.043478305701678266,-0.6010564852606199,0.29790401590648735,-0.019504633387942436,-0.03475477480428865,0.10886570287838722,0.06328529891730306,0.020039285908183515,0.015947766635337493,0.0002896419887052878,-0.001260440482331761,-0.002389320062323391,-0.020597650420954933,3.0625
0.1276349580782573,-0.0255381705706145,-0.35312710267752334,0.17508163073633612,-0.011306557158308986,-0.02063917898513636,0.06404715943149265,0.037243559398607705,0.01147671312383517,0.009456494447286202,7.429805694326269e-05,-0.0007482640624983765,-0.001330905917117712,-0.012096988138358937,3.0703125
0.7043550303191254,-0.1414817998391195,-1.9552775626828547,0.9688799168974263,-0.06420808066175958,-0.11182888072601202,0.3535441522231404,0.20559225601575748,0.06681451688971538,0.05135348948116847,0.0014650612294115144,-0.004066100219550725,-0.008169923141382908,-0.06695815588092296,3.078125
1.1722818034670939,-0.23556269906797336,-3.2552240974845783,1.6129740554596224,-0.10714319795061764,-0.18584306918868845,0.5884710810874456,0.34222811307780576,0.11171806490702746,0.08535599044495977,0.002593918542825823,-0.006757550510755104,-0.013720532749241393,-0.11147659925978397,3.0859375
0.3864104576944896,-0.07759618201258654,-1.0724919563747084,0.5314662373530474,-0.03505729883460282,-0.06161538601347929,0.19402754580262488,0.11286039436212486,0.036324302575757715,0.028268133484329123,0.0006989302873424129,-0.002237897754259555,-0.004403204817974349,-0.0367277044163648,3.09375
-0.7178090066078406,0.14440331989735675,1.9947478350981938,-0.9883735601380311,0.06625420232148568,0.11300211604422059,-0.36031652286870186,-0.2095461730946849,-0.06963004823836087,-0.05196479319243448,-0.001964675098089569,0.004113358737156828,0.00869289627370355,0.06831339892628549,3.1015625
