AF3,AF4,F3,F4,F7,F8,FC5,FC6,O1,O2,P7,P8,T7,T8,time
0.18032004294585824,0.01782884940119578,-0.9883342287368676,1.0390346382646376,-0.007507609673005253,-0.05048174178660567,0.01594194961969227,0.10295125483573211,0.016587932027075435,-0.03267380044968885,0.018355141554835516,0.005211523704371776,-0.3231935765640831,0.0050675363342257375,0.0
-1.3560729878693698,-0.815059873897166,1.276000360932784,2.203052048170674,0.0010162605228822934,-0.03723811505091826,0.041235721942468634,-1.356285005244484,0.0008150483770603763,0.05419194127464338,0.03250594483239435,-0.02537964820343537,-0.36645210489869773,0.3474303787463836,0.0078125
-1.3023217000349592,-0.6977676707161069,1.8124887681475739,1.165983168020813,0.0037147937759774282,0.005950933066760586,0.022704765237564983,-1.4182324326782911,-0.01156807313183345,0.07259565084262071,0.013384759876362087,-0.022860899686499535,0.058979172899227036,0.2966585685100475,0.015625
0.4411219173518129,0.32978118861265343,-0.1508345125649027,-1.1362492819033918,-0.0027299166305394694,0.03338162137416662,-0.023107508947269966,0.1630420284696214,-0.006257948137314548,-0.005225283284632353,-0.020610164072223387,0.012736549608438383,0.4943530201423396,-0.12983865081139387,0.0234375
1.3676466481722243,0.8329892746689452,-1.6227100023397063,-1.6590016133265335,-0.009449564221261522,0.019563887596785564,-0.03621553969744183,0.9229134194149275,0.004955587888450149,-0.059956844356849066,-0.027330756431914842,0.032964647234591346,0.5634898344427175,-0.3301021689807794,0.03125
0.3842914311783689,0.28196144190523753,-0.6439833518785519,-0.13456802877877885,-0.009500399215965684,4.609792963631782e-05,-0.009342354356170668,-0.34842986712796364,0.003106828315638497,-0.016620551668816718,-0.008398954913840113,0.0184652460639267,0.566224773149766,-0.08303695267264549,0.0390625
-0.6488083433306562,-0.29439802688450456,0.6812540273457325,0.971398278364776,-0.005492291307780295,-0.00372462264510773,0.012631959414134255,-1.3944017401300222,-0.0037559523650787774,0.035912442488053545,0.006023035791831907,-0.00108942486177593,0.486077652977346,0.15914738743733112,0.046875
-0.2791762292124246,-0.15171282929318658,0.16178407671660353,0.6283117875149998,-0.003422403284577803,-0.011779625217476174,0.009289523885987638,-0.5213172595179056,0.0015392886839645078,0.010776062362098746,0.007271884818083348,-0.0013588559377433825,0.07352850068275409,0.07730367652549684,0.0546875
0.42423009063339834,0.1830763358958564,-0.6599915808083018,-0.2800139113083804,-0.001271064676115592,-0.01106397086482571,-0.004046107330617562,0.7687429758218154,0.006821144584174311,-0.027967959682002715,0.0011385077548043195,0.003488314889514165,-0.31246471940126275,-0.09019777433163453,0.0625
0.2346859351300906,0.07610354513483814,0.10643531050791084,-0.9514350159839765,0.006944555677565978,0.016962130818636893,-0.010674795597342973,1.1325265761271102,-0.002905631138657618,-0.006452098282997074,-0.005299993137482783,-0.008395182941835026,-0.5128706859378139,-0.07600052826083083,0.0703125
-0.322977355053368,-0.28650929936601083,0.9868410071882894,-0.6489995135898738,0.014831751896686122,0.018446307327306267,0.0006737908037597546,1.1844275903946024,-0.0076133167101476934,0.02141934451822789,0.004127390159920019,-0.028009588645354806,-0.9835246575018944,0.046818590198153036,0.078125
-0.4670565631496339,-0.4262358743374343,0.4438396052735971,0.6989011334420772,0.008981539864240806,-0.028652419853128063,0.022003247696730222,0.7909417161251386,0.005220397014880596,0.0071438396294041485,0.02416020901372794,-0.026866929322674097,-1.1757829864726175,0.12468185625342428,0.0859375
-0.33550932745167317,-0.19954808199480334,-0.07950509635185579,1.2057609627941657,-0.006568611108385094,-0.03101860846854745,0.017863765321130837,-0.7644089124373036,0.006823078973409161,0.005063669867463258,0.014988476029158955,0.0004097132928662891,0.05755140971254597,0.10919323091946231,0.09375
-0.1075976992385923,0.16984048801032608,0.36785939575040144,-0.18595967997031793,-0.012815600438991352,0.03699029434897976,-0.015803663068753426,-1.8460128804198344,-0.011677303766467046,0.03056027827225366,-0.022614480952116798,0.02363677143311888,1.5676502694414625,0.00472703281910871,0.1015625
0.23101112860877485,0.2847963009426856,0.20448624550122174,-1.0282612591537996,-0.005470092975315955,0.045096325425036825,-0.024421047533228615,-0.5853160877995403,-0.011410518451637649,0.01342507110115154,-0.025552088233202815,0.016540168065335134,0.9706648495841123,-0.08783105324002732,0.109375
0.3766463117839097,0.06403466255256245,-0.9094423366208346,0.2548115864508782,0.0005632092983050861,-0.03842209218723479,0.00850687967508188,1.1918534365748563,0.014590131969789696,-0.040313597531319724,0.015438068028157802,-0.00419477436538794,-0.8761659430332335,-0.05800481338677172,0.1171875
0.30451724381860296,0.017502270752273282,-1.0828582346876998,0.7745836757713722,-0.002500077377872542,-0.0540355958691178,0.015850105090032436,0.8968558577167687,0.01864754140052684,-0.04326744233555718,0.021690212202098012,-0.0022233578375387224,-0.8378479336997935,-0.0254885990505531,0.125
0.5110761208468816,0.4321458788745753,-0.2819099785565058,-1.1187298658242213,-0.007744924793955046,0.03815055236958248,-0.027300765870536824,-0.35432927847698764,-0.0072042067458093694,-0.004461972492707983,-0.026423563442854885,0.022660501311555566,0.9692723911294063,-0.145889735775799,0.1328125
0.7659174208923314,0.6598017315746635,-0.3336406811091953,-1.8220164882871448,-0.010409919456816972,0.06360848976255024,-0.043196229709896596,-0.5433421198431199,-0.012828919252159265,-0.0040018608470277,-0.042424160005645375,0.033923983893231494,1.5105701501246913,-0.22452979399851508,0.140625
0.21014972682569397,0.1296340403616991,-0.7451680434288446,0.5710839989164251,-0.009800435766460962,-0.02438708273113788,0.004119278914283059,-0.38737159518899994,0.009028023106258273,-0.01980380824433383,0.004543377310538238,0.013288160326256017,0.26617159543891783,-0.02161304143106835,0.1484375
-0.7756189460207814,-0.5516373292386237,0.32830296626021327,1.9007556653420095,-0.00010819982100335704,-0.052837360898787836,0.03642894042505773,-0.45680177306094955,0.009945266347684006,0.0150087425962969,0.03332034175286758,-0.01887367431861734,-0.6899194931057576,0.22504498721447858,0.15625
-0.9172454690737459,-0.604445592420022,1.8830557693038845,-0.22951368627536012,0.01815938580097718,0.02517898685182652,0.00978865688309263,0.6059479242229303,-0.014165402642604174,0.05582439201794569,0.00890176364521307,-0.03963922700715067,-0.9780118199128949,0.17783455295251388,0.1640625
-0.3427883780388173,-0.3369329032736414,1.5638844693921863,-1.5632542846804267,0.02527803867668376,0.044496044245334036,-0.008012695151299064,2.077281407392503,-0.01538667634627974,0.03177241311961227,-0.0017833498831067588,-0.04190115928829726,-1.4551194119939181,0.020813451845949356,0.171875
-0.1826721282210922,-0.2829811121158853,-0.17049089638966883,0.8038452557743796,0.0052985256745773915,-0.043108030208979985,0.021974579442599194,0.9470014984815276,0.011701283192607496,-0.01431598688668925,0.025933612497688757,-0.019478518194180627,-1.1773984152602046,0.0731290372777816,0.1796875
-0.3319854576260625,-0.16576855514118388,-1.1589610042326255,3.0079250486222526,-0.02391454789458808,-0.08687783269189762,0.038074600049988624,-2.158825651338433,0.02326476140158756,-0.01704594198220074,0.031009431718252614,0.021241490909231133,0.6531796386709828,0.16969650219887386,0.1875
-0.006610010570698983,0.21618520726226753,-0.9144100391183251,1.6285860499317582,-0.028869872713302908,-0.027349983744140192,0.006265170392970334,-2.860049052650539,0.008040992810072064,-0.0017616177764058062,-0.0028702121403302145,0.04222904544509016,1.8940765789581593,0.048219592129601065,0.1953125
0.40611819100687246,0.34052936337344736,-0.24474976543640609,-0.8542399849820526,-0.0065683081991950495,0.02874663644991361,-0.021143643932437988,-0.27913729257546094,-0.005205130870439463,-0.004140106085719886,-0.020331115010761174,0.018054932059883,0.7567530480092468,-0.11441481920238757,0.203125
0.3191614588931184,0.11487935982098481,0.3278898347740838,-1.5960032325587326,0.01186042977091288,0.03456502489743143,-0.018763070771227644,1.636692389021543,-0.007424154177696432,-0.003917263834974753,-0.011555393906291261,-0.013009653079595325,-0.6802428563577306,-0.11470273987053602,0.2109375
0.29390384510906636,0.19194485577605352,0.4658892349021858,-1.7115633223238491,0.00750117934501214,0.05022745486306395,-0.02556924944044493,0.9370577076812101,-0.01233979222908941,0.00741069780863446,-0.02109162654805598,-0.003691249707781095,-0.062070537853283196,-0.11802206207791265,0.21875
0.4989366103787476,0.4616862471628825,0.3581586219235246,-2.1333581193751088,-0.001237848176985797,0.07648717649600005,-0.0419322315496378,-0.029106867253178504,-0.018654375942893892,0.013512054347275582,-0.0403928950933063,0.01727143870394769,1.0188530961914164,-0.18040615003936258,0.2265625
3.494204313203173e-05,0.05981363443111363,0.7432153590950301,-1.2195280335867063,0.00515210095643801,0.047223382256338674,-0.019131288255380505,0.2617342760732719,-0.013734013150483813,0.022749362602886465,-0.018052303093593836,-0.0036983844712065272,0.17882681126062291,-0.0444863534853753,0.234375
-0.9139241724376024,-0.6785726710470885,1.0221190463106293,1.1658052914244945,0.010972487932674236,-0.030222955527115625,0.03155913333546652,0.3688300364234025,0.002283686247405164,0.0297164851334765,0.030547577250646503,-0.03575846852769455,-1.2323425871690552,0.2292440109935979,0.2421875
-0.5827343040040844,-0.47049340848819127,-0.2974670319041186,2.3124651102584797,-0.004480285130702298,-0.07586384181077116,0.04156835991118224,-0.428056862128529,0.01824733539570217,-0.0056659207270642956,0.03955638330619,-0.012650678784729209,-0.7372531864048184,0.20248264228125942,0.25
0.7218884608311557,0.43363626511514475,-1.9849181382362675,1.0036339886421035,-0.021238505369260672,-0.052759742595149955,0.004153131396877646,-0.6357780248470655,0.021302749879518225,-0.05763606021778318,0.006029236807056173,0.034365462836043914,0.6349504281592373,-0.10860355090149933,0.2578125
0.7667302922190501,0.4648358494224403,-1.0469749424350885,-0.7024399705552871,-0.007751231695728989,0.0029402239588895472,-0.017551155003433128,0.3931398461911974,0.0052369153623016435,-0.036626187063468894,-0.012593191401962333,0.02050914076440972,0.34646505673304745,-0.17678040772608258,0.265625
-0.5725897092621065,-0.4243280105414626,1.520208271208335,-0.7366312942546803,0.01869192031129631,0.029426534615075398,0.0015694822786978377,1.1393268779243606,-0.01273789965865184,0.03907947136464465,0.003751031809468421,-0.03583498174208391,-1.063698413279724,0.09308989867433612,0.2734375
-0.9201686037642276,-0.6533090603484074,1.4266648829230568,0.523353086305163,0.014684001601870306,-0.005417058911573017,0.022026102667244328,0.5247463358364337,-0.005119001859839917,0.041491698735768676,0.021173187468457928,-0.038400577966033585,-1.1592450721056553,0.2070189820058103,0.28125
0.4509788387859709,0.24442455726521375,-1.5590587449308457,1.1518736189634904,-0.016642154088085913,-0.053609124124529804,0.010514099639429973,-0.5055126821072171,0.019512431650884923,-0.045240208000593814,0.011838990302915417,0.02328789243403915,0.3163898137159727,-0.04801898232112683,0.2890625
1.6183330755087846,1.062641101384183,-3.1134464156798263,0.05842688921147449,-0.032846444444724454,-0.03426879015734852,-0.02260784381497128,-0.815171096183254,0.02264460009418335,-0.09198121941665227,-0.018217023305028526,0.0671878390701369,1.625560113388536,-0.3241217036438575,0.296875
1.2147686570129228,0.8921627671056375,-1.5604889166716156,-1.2181118291367194,-0.020194147523054207,0.027325929378500452,-0.03836590575565494,-0.6137328378717576,0.0013232166381525285,-0.04319851550306851,-0.03560048958980954,0.05028934753074937,1.6365676570730847,-0.29131177453365825,0.3046875
-0.18052386435652773,-0.049523990264785656,0.5018037878288069,-0.24013841028724317,-0.00028565797605081545,0.019476732472516838,-0.0050559915844238254,-0.34053327941089967,-0.00695617960743758,0.020377071604875185,-0.0064758974720865795,-0.0008300659468608507,0.2627289262872593,0.025548916468257066,0.3125
-1.3719421930946654,-0.978951098982598,1.4755670975741084,1.8636004290236967,0.01376222397747661,-0.04424530893998379,0.046608859941254605,0.14977672778108608,0.002922214628216916,0.04618924866442623,0.04329663590836136,-0.047961584658740064,-1.5450426889991211,0.34594744276479666,0.3203125
-1.48530022589548,-1.037604142632335,2.092944496441013,1.199378878722961,0.02059974100141534,-0.018077259689763852,0.03906612717646483,0.48866262997723053,-0.0056504180160108315,0.06313392669489595,0.036172205106004045,-0.05689109908630872,-1.6810489907393968,0.3450293674735089,0.328125
-0.6358290198573193,-0.22957042132758043,2.384279200537235,-1.8928616423958355,0.01505383113677758,0.09754409688187134,-0.026194875879652215,-0.0822857093121821,-0.033516437562657146,0.07938946344258843,-0.02949391697738126,-0.02038947332570784,0.31898254756755506,0.05453632153810609,0.3359375
-0.1903558275575455,0.17578591119025833,1.8467233639270373,-2.369584113726188,0.0035510920605798285,0.1180514140676663,-0.045190845847411454,-0.9448231327111274,-0.03629331309748525,0.07056297997253136,-0.05017356355886082,0.00721356008349802,1.4701562412196851,-0.0571849471638429,0.34375
-0.7116428151068709,-0.3789368442860287,1.0075928035245905,0.6090795488848264,0.0014363860203349711,0.00424617867085998,0.01175377250130339,-0.7777335729209522,-0.006506735678189835,0.040551944214512,0.006931770155437957,-0.012281756303378003,0.043653408016851816,0.16137442756855552,0.3515625
-0.5707919836430745,-0.4709670936324314,0.0632742654445999,1.6720821671034827,0.001228912867441999,-0.05594193140049315,0.03405985800001432,0.03588642327375413,0.012478265942283708,0.001708829739733431,0.033479382690282285,-0.019157095085884656,-0.9144098674108153,0.17840407878805636,0.359375
1.0806923471984233,0.6816687634207317,-1.4321142936144573,-1.050323703378478,-0.011431897129532348,0.009542647065809073,-0.02690728101682993,0.3714001260104398,0.005648330417504305,-0.048708516109671376,-0.020949614037738786,0.031395261313461216,0.6637829643427935,-0.25276711993007567,0.3671875
2.1200334651021473,1.3685484682926297,-2.483764105643343,-2.593977704060764,-0.018471461753337082,0.0404514918586904,-0.060837910620430334,0.7967684094080091,0.004427643427462357,-0.08618071359669253,-0.04985204364431854,0.06011818410905442,1.4187371779972173,-0.5163956004347521,0.375
1.041415512986473,0.43561798682792896,-1.7721234571067106,-0.4390978391002516,-0.002203244087756127,-0.03653555335665287,-0.005439522009023896,1.8485524471349704,0.019150956534387153,-0.07429993169229748,0.0062850223803477935,0.008627277722045506,-0.8167271304563489,-0.21328652479798552,0.3828125
-0.19602508227263146,-0.45852615553631354,-0.6650995498269402,1.6120653357084624,0.009105396710395319,-0.08960682993976331,0.04220779932758323,1.8464162680480132,0.025481903964785963,-0.03934326343641185,0.04997740390548949,-0.03288584385951487,-2.2147255363176748,0.11157366493010538,0.390625
0.14850786660183327,0.0009014386573279662,-1.0627902096449957,1.2649396187476072,-0.009026935272410807,-0.056753919239002595,0.01887424488592108,-0.05357169710582303,0.0181995117148493,-0.03359247549442872,0.02072283425902875,0.006469779580500162,-0.2824042474993688,0.019047934481175224,0.3984375
0.5084811641747738,0.41096401899271123,-1.546138676652324,0.9900384845024879,-0.02439497701707611,-0.03382000674246528,-0.0001578008827918728,-1.5101194312775867,0.014013989651760804,-0.03496941343591212,-0.0024303113116032516,0.039888084375759705,1.258121485810948,-0.07127195562164226,0.40625
-0.5142583579192022,-0.3238647348977693,-0.08074673425342817,1.7690397923222239,-0.007560322432351379,-0.04693760096014834,0.02771306383315943,-0.9760375134133595,0.010170190663248906,0.006865738026059789,0.02369438694276398,-0.002444861490223312,-0.052153888082645795,0.16526171517829713,0.4140625
-1.2496479518660522,-0.8077711007291701,1.6630826186448007,1.1953041010919865,0.011432211214402657,-0.013526283132237735,0.03111073818547562,-0.25345296189378186,-0.005277331514435759,0.05644809798966583,0.026422543807962537,-0.03806706998231145,-0.9101764528360636,0.2938590253551895,0.421875
-0.2868934537106777,-0.03122118414782646,1.2284268476944589,-1.0823558659660155,0.003427713266089383,0.060072571912800465,-0.019258768179888013,-0.4997430127476518,-0.019813671361524864,0.045747115620719134,-0.02224258076855256,-0.002289729202560242,0.6120096118792596,0.01359179661070878,0.4296875
0.6503146267250297,0.5980802008543387,0.09755421537595978,-2.16515380157861,-0.006131156452632194,0.07892544081533504,-0.04664233392790904,-0.38957088336387674,-0.018276291488104564,0.008583323037533062,-0.04596905793054287,0.027668889510518564,1.424056620281833,-0.21390249163733305,0.4375
-0.2922426216535565,-0.12950340828614215,1.0298046188959549,-0.7659587106576363,0.006755709024889736,0.038263902263714976,-0.009516923776300378,0.09982804338796349,-0.013348886251144738,0.03336842866715186,-0.010081625573719404,-0.011167681179841175,-0.004541083957510815,0.030137032286040647,0.4453125
-1.7794648517524185,-1.0708171406379878,2.8488618943319874,0.9352418359678515,0.01852910852393288,0.01584213286715536,0.030260360512688975,-0.5419798057263523,-0.01806146084220513,0.09765350625530907,0.022105141181116932,-0.051908844617481915,-0.8902010352522881,0.3879462739390214,0.453125
-1.2965574871446988,-0.6597380673567631,2.160225507250308,0.5841898998719959,0.006429238129264056,0.02924334588653384,0.013403534564608965,-1.342940769828927,-0.018415023131000043,0.0833061440978604,0.004025202684755298,-0.023902980865543263,0.18964993523945894,0.27387833932294436,0.4609375
0.9627897708524921,0.6954029814235446,-1.0481428238223212,-1.2861852311856175,-0.012881810360838571,0.0307112645445522,-0.03371078588157327,-0.18947991002789039,-0.0015459564690542306,-0.030777300500966914,-0.030451821899032713,0.035540767940985235,1.1492795647029204,-0.24134907556665058,0.46875
2.208508499641177,1.2775667081792441,-3.0500574790780695,-1.98912624303114,-0.016051611710318932,0.0007134598170435979,-0.04561158036538131,1.6227026467034331,0.01699066722604877,-0.11274944648395792,-0.030766907699873936,0.0512219944997902,0.5703931365106787,-0.506354825050785,0.4765625
0.9237475695769024,0.40437307826495533,-1.51998318241463,-0.4730182677683521,-0.0025363087996078362,-0.02751305005129,-0.006994099735125883,1.542513665151948,0.015576569937155333,-0.06316917126787032,0.0030661869484985413,0.009122632944195352,-0.6138489292551204,-0.19290044704504083,0.484375
-0.9127181573417488,-0.6598778410379126,1.2055223801536756,0.8631678338481952,0.012393570485896616,-0.018159839224128022,0.026788506924069297,0.4073030760818195,-0.0012738971468791876,0.03535334656524242,0.025704664274326782,-0.03634313755160463,-1.1660266250867228,0.2177548274953395,0.4921875
-0.7187341659783211,-0.4509274482697937,1.3046349296152666,0.11216498417993404,0.009990342907612276,0.012677948476169635,0.009830573113232629,0.10013267232646196,-0.008978997405619546,0.041868758858128075,0.007991313006235139,-0.02544536787097636,-0.5443978052501104,0.14869334564694922,0.5
0.6966500941121446,0.4719990697981036,-1.022674086502063,-0.5002185698718504,-0.01143510877949935,0.0041097669621776925,-0.017343414435310626,-0.14506027534964158,0.004290685071374406,-0.030675505009781154,-0.014530814505161808,0.026018398233526415,0.6968993161179636,-0.15813191575046828,0.5078125
0.6053325528721989,0.37259416455774086,-1.9484123496777657,1.3206559713204689,-0.022688916699467883,-0.058995409225921266,0.008725882199965188,-0.909170453937341,0.02222426478763647,-0.05393096586101314,0.00935409906452283,0.034450764845521356,0.6956466878792132,-0.07465918789193829,0.515625
-0.8350988360850248,-0.6917697603996734,-0.297536978243132,3.0956215961414326,-0.002883148962974408,-0.10343362862303955,0.05813665162540349,-0.33378578454177943,0.024496933407373772,-0.006915795712318923,0.05593941796416592,-0.02244493633781335,-1.2228071412624377,0.2834041984868297,0.5234375
-0.9099815475189105,-0.8841662446121721,0.588870087164204,1.8005840848082648,0.018441788812667444,-0.07648436459125338,0.05201428493730915,1.709691829631144,0.016141796961984256,0.002438781151990504,0.05637621827203478,-0.05507668617159587,-2.580188425563199,0.26029512473776656,0.53125
0.6239255067339612,0.1821203539939214,-0.9324357647055688,-0.5102782733002544,0.005105388105095597,-0.023386694868495685,-0.0016543212113677864,1.9223776616179697,0.012104803985474793,-0.047818514854827306,0.008493110485567215,-0.00661468211577285,-1.1015362383018747,-0.13244167834560588,0.5390625
1.1457479426449946,0.8442100921026239,-1.6844047049672621,-0.7953538535028374,-0.022295436300297285,0.014310318936508616,-0.03199210099094525,-0.8221688416123605,0.004646483596410769,-0.04537115643714969,-0.030124580800589645,0.051091768994599156,1.6333565013851554,-0.2626539589361295,0.546875
0.04330636548037978,0.42424449137317544,0.449113110117447,-0.7434404136126735,-0.020602733943894534,0.07119046614512616,-0.03431246812480931,-2.867434841518636,-0.020803217890086094,0.04338597883505656,-0.04457793883331663,0.04354452159302904,2.708915006667602,-0.05241565850129968,0.5546875
-0.5687918661726524,0.04801004736195806,2.756206789832273,-2.6392017478036682,0.0055643321472044266,0.14908404347844811,-0.050539666051997334,-1.6034683143471407,-0.04844128477823116,0.10644667849414878,-0.059645028398923765,0.003921637537629443,1.8971055438949185,0.004209890667925172,0.5625
-0.17185815467987128,0.11487292309397294,2.5884610397729135,-3.6889887666333707,0.01896478682017875,0.15250079345153594,-0.05721804274408178,0.48455259583759475,-0.04623536318295651,0.08118672068793294,-0.05749576296660241,-0.013308647756119632,0.699230296704907,-0.10332147018617269,0.5703125
-0.31979626688099944,-0.19163775024925508,0.9965867826679633,-0.6392278509558569,0.008944323917404117,0.02936236413588671,-0.004867123370230617,0.40283783001873874,-0.010854954259310564,0.02926828975895364,-0.004361256826138771,-0.01648839953051,-0.3193095656926848,0.042198933969805286,0.578125
-0.9120111702464307,-0.7371204280106621,-0.4161710228858741,3.5400802374942555,-0.0054971209071560485,-0.11593280831072662,0.0643775993278918,-0.6157475615359974,0.027619202475418624,-0.00822568711417802,0.06104072660010827,-0.02083172811715621,-1.1732013679747137,0.31417540296953106,0.5859375
-0.4073848107332715,-0.5113487545363863,-1.4834019747970235,3.6789501833621814,-0.009769208541977067,-0.1433163487441615,0.0653500189106658,-0.0645360269157761,0.039618280379306085,-0.04810260815133176,0.06629293087557654,-0.01172633247227134,-1.3918715340015742,0.2220025793333378,0.59375
0.7226968204441708,0.2531600978543037,-1.6499857173033274,0.3764780318021285,-0.004709469975298229,-0.0539325397605888,0.0074450090333996214,1.268185234025474,0.021829770371205936,-0.06503343576974027,0.01614172385848596,0.0064690890435300605,-0.7780849855359434,-0.12191509605175921,0.6015625
0.8308061308675084,0.4817914769203185,-0.6012693386800203,-1.65991268696212,0.0007126415729493543,0.030225125273511847,-0.02867290717998387,1.1708093701290399,-0.002307426935284724,-0.029351941390288638,-0.021108194878746073,0.011128473504078418,0.0363231403369254,-0.22178104727743483,0.609375
0.29513920903096696,0.245425134758818,0.12517341590235398,-1.1298248204086283,-0.0007498871432692353,0.0372844808375518,-0.02162035780303163,0.13037889325196328,-0.008563507474503726,0.003988796985000263,-0.019857794025629073,0.008247301877008588,0.4325264504069827,-0.10056009209106796,0.6171875
0.27736954074345793,0.21117835233740745,-0.2102739409929014,-0.5211609050589366,-0.004173384984735294,0.014849877526603073,-0.012541032388116817,-0.05326769746488565,-0.0020595163190162058,-0.005328956139896648,-0.01116729458185306,0.010452003548513524,0.3789916834494133,-0.07481448165659828,0.625
0.1610281282247624,0.11958804167549718,0.04202628107252795,-0.576751121753495,-0.0004980162269478497,0.01720325869539953,-0.010652239012337554,0.16768890671595704,-0.0036219637286846735,0.000709976832988829,-0.008992399156938648,0.003272783934021883,0.14176446869251905,-0.052619476076655944,0.6328125
-0.5900237821047625,-0.3050413850314842,1.1314355361517385,0.01580551339157989,0.004576725467497685,0.020815414310893753,0.003082744108669262,-0.41193191400145285,-0.010455215203766736,0.04129931420124095,-0.00022232568774666503,-0.01362130336370389,-0.00047214989017283404,0.11639264052549453,0.640625
-0.6315582857907899,-0.3455834117348707,0.8301697939961301,0.645566311629404,0.000832092530164033,-0.0007724834158460318,0.012196723454852013,-0.6755397410552764,-0.004391624969944873,0.0338532618922967,0.008146362585434082,-0.011052432050206564,-0.007302807614895393,0.14731511266036162,0.6484375
0.36461947374306786,0.1540035818034947,-0.7366731183373824,0.0410336354476649,-0.0034699970362557773,-0.019244897260326774,7.254908196700031e-05,0.5141703431951883,0.008760124444170831,-0.02808087733635956,0.0043192717028008865,0.0052521438037893085,-0.2356246141166959,-0.06758247251474944,0.65625
0.3028921776576955,0.038293088409109916,-0.5989209291642221,-0.020145629040879614,0.0029036358530590443,-0.025135102879094536,0.0047915723054125755,1.2110318222532783,0.010083351507357534,-0.03036438603656098,0.011328800608144906,-0.007028506471966766,-0.8449814369610555,-0.053733817169387896,0.6640625
-1.236682641587226,-0.8561850556344373,1.141768247860672,2.0054324432098594,0.007864074974200197,-0.04751275950115246,0.044402229428503005,-0.2891356991509528,0.004868872225693958,0.03960007921245031,0.040030634560003074,-0.03694867564017936,-1.1393166364157459,0.32206794013244205,0.671875
-1.4282571441804157,-0.8585701977496042,1.0370510884058104,2.8329414661173895,-0.003190539565080585,-0.05614303227236716,0.049780548323537094,-1.7483785449577758,0.005848178191714938,0.05002257211112161,0.03961107104671955,-0.021981606940421873,-0.2828705162879422,0.38376744632273596,0.6796875
0.7255413642052985,0.5662937868305591,-1.109333749877293,-0.4204059350652275,-0.017365413526596006,0.009977369891326629,-0.021314735100872655,-0.8403830656788712,0.002717809797651526,-0.026797888324148488,-0.0209924686113243,0.037162867270732966,1.2785737762088503,-0.16460069922283294,0.6875
2.0961175692235012,1.4606916780088217,-1.7512072218607122,-3.704145407363346,-0.015309156567620236,0.09068216866563215,-0.08072407235195406,0.6000813771722274,-0.010641051992511613,-0.06014214490979257,-0.0712120123646208,0.06196350806684841,1.9372221007333634,-0.5551486360882005,0.6953125
0.8211611188694614,0.6077469218385588,-0.23798586033411104,-2.188120236161809,-0.0028491381133594713,0.06399611703995862,-0.04311473018986837,0.3980641248499949,-0.012423695609394395,-0.009903308753840833,-0.03879323926527262,0.021979640761930173,0.862565512456235,-0.24434268295619013,0.703125
-0.49198251471484666,-0.39317042305415584,0.25893965326531887,1.1019472558562902,0.0029271424083699596,-0.03542258976734282,0.024306742881645835,0.1339400710101501,0.007042518848398349,0.007358822830831746,0.0241150528006345,-0.018030697553636756,-0.7641213644088488,0.141501584415059,0.7109375
0.2527072025007588,-0.04550319219275736,-1.011303933603056,0.8075090743834638,1.3985890180314816e-05,-0.05754213708242264,0.018734921321310587,1.1438941178491482,0.01932655557375151,-0.043351222743955434,0.025304115948699555,-0.0075703407976437246,-1.0884752907080633,-0.012563524310287632,0.71875
0.9384449840853406,0.5378296447246254,-1.0068880665264686,-1.3276474049113614,-0.0032188067910813075,0.015475012636677965,-0.02530577786701056,1.0368992011649854,0.002860228343960102,-0.041279124085484384,-0.017513800832046688,0.016810120625324342,0.1066389441667141,-0.23141721682167843,0.7265625
-0.4206300767236128,-0.023657396450178787,1.329393865687425,-0.7908970024470723,-0.00241501824132562,0.06465542365578118,-0.019609903428931923,-1.4138606956290376,-0.022267897965049466,0.05774906551890453,-0.026380523029131804,0.006581302115156028,1.2161848412945537,0.04627353151161685,0.734375
-1.8244913016650364,-0.8352373698201399,2.8886225269052326,1.104241745588742,0.0014282188036812782,0.04314491998731189,0.016859073377735127,-2.8468488960300298,-0.02667970456102787,0.12121928682933401,-6.178667280140842e-05,-0.019741036806458962,0.9873659653994026,0.39051893555088896,0.7421875
-1.0297550571926517,-0.5700780342960023,1.416479042959011,0.9440932685656642,0.0035603121914757063,0.0015779918652897307,0.01930511084331838,-0.9831080776050772,-0.008157073802639811,0.055620581688632445,0.012570406867975363,-0.02001922760593072,-0.07933685299868247,0.23649764954863992,0.75
0.4464153850343058,0.098661433012174,-0.9474222598261187,0.09280071244718177,0.0012844374028240608,-0.03593273007310989,0.006266652901240076,1.3522160321431063,0.014375080105514837,-0.04306395066482568,0.013952129893161183,-0.00420550141712388,-0.9195555027966779,-0.07715588080422943,0.7578125
0.28186366116035955,-0.07522176812412813,-1.0637421737387394,0.7861716367663231,0.0026479025666772456,-0.06347585245113874,0.021095598039272856,1.549585287342274,0.021309221618697027,-0.049012578589490416,0.02927808697621892,-0.012527247891475758,-1.4110765958667533,-0.016824585951993664,0.765625
-0.649069527270916,-0.6032598305129119,0.598216531664744,0.999763841907111,0.013467006183833685,-0.04189590916910631,0.031784106363749474,1.1704741420116067,0.007821277525913198,0.008300475744719323,0.0348163151265951,-0.03853175464122327,-1.7042413896648565,0.1746716271306175,0.7734375
-0.2801889114989683,-0.27970022753837454,1.029738814851137,-0.8621100241797712,0.01718855127591846,0.022176938043513814,-0.0012677044127957899,1.477589883658199,-0.008335240617995225,0.020055375926118096,0.003336971968705,-0.030883516506702267,-1.137281090013525,0.031711235777308576,0.78125
0.9608419094108678,0.6195749610903237,-0.7040352446432878,-1.8803776242571593,-0.0031333498108605286,0.04134693096831949,-0.03643447599922068,0.8084687807149105,-0.004651440955068223,-0.029062184052801688,-0.0298256600693479,0.020781632967083432,0.49394272000370415,-0.25822214807302996,0.7890625
1.165191870296045,0.8230081240777815,-2.157879791168971,-0.08044303346500715,-0.026654381758468435,-0.01383669057810321,-0.02139876615970438,-0.997210079860384,0.01311340876561295,-0.05929598722564217,-0.019689359569847194,0.054457724878540115,1.5583516935825505,-0.24021838847194985,0.796875
0.11296590087332171,0.11352701288247923,-1.2002856843470404,1.6543495820714522,-0.020138754769059183,-0.05246668129496799,0.01590511952140346,-1.4193479676476932,0.016560965098597703,-0.024982190568722192,0.01268946141949491,0.025294238219355888,0.7309294167579822,0.03340928132695269,0.8046875
-0.6618711609693639,-0.4288885605635439,0.70309707942492,0.9269268835488896,0.002938492249829461,-0.017087712457612987,0.019935171105286524,-0.30831816062949524,0.00028363554760082256,0.02606922845900896,0.017280638634901875,-0.017365318921486815,-0.4294594449235146,0.1662344972032744,0.8125
-0.286618082548855,-0.11507135687223544,0.718795656928853,-0.2640188812314403,0.0016894029260819785,0.022911944061189675,-0.004106091555370008,-0.30891868775941966,-0.008758236084523344,0.02708573055456009,-0.005878271611036507,-0.004892030667268205,0.18172164746384806,0.045991883338138376,0.8203125
0.3603597036452444,0.37792716470479476,-0.7105377295693281,0.09306162264738994,-0.017947900805235308,0.006462909863075335,-0.0129898643149626,-1.4154823957233487,0.0009158151089874703,-0.008534266969832406,-0.016020342331861205,0.03327309794665759,1.3847649442066876,-0.07542363278280365,0.828125
0.11607435122299524,0.14706308370697416,-0.5334109991336033,0.5476148195595628,-0.012748669990149722,-0.012210698428431217,0.0003360882326744641,-0.9913649933691088,0.004642445493374072,-0.007120893138627336,-0.0018551733799732546,0.018894687165248763,0.731757012147341,-0.0070616988997497,0.8359375
-0.5712498731807995,-0.3992623201571029,1.3368465266496339,-0.425007912145108,0.014572961438233499,0.02210415242627183,0.003856485540399671,0.7454533944903051,-0.010599382438674063,0.03689524626323197,0.004776289325956029,-0.02997553040798174,-0.8290319627200086,0.10231090356424362,0.84375
-0.28338085231291144,-0.18186736569906134,1.4548901928597198,-1.5248960828712377,0.01665548520931176,0.05615872487802165,-0.015460755992860899,1.0573379247153134,-0.01849062986640298,0.0381574671466679,-0.01280166494867065,-0.024998544779929757,-0.5643568768983452,0.004638063757778228,0.8515625
0.7696044821962648,0.5595262847021867,-0.7160566643364488,-1.2284187501560377,-0.009106968503357094,0.03150914252209134,-0.029715559132958834,-0.05609274787958954,-0.0032654934304845395,-0.021340494499554646,-0.026707064167928344,0.027039940180197654,0.9029496545904996,-0.19996807496903804,0.859375
0.8304688502261247,0.543590472887075,-1.4408466849307526,-0.2346518881940628,-0.015252820437667614,-0.009303066989036095,-0.01493721353406694,-0.240679007047675,0.009299107159852478,-0.043415466077169375,-0.01182321991080771,0.03201811882916408,0.7691624559929509,-0.17509927206744613,0.8671875
-0.15801882353194166,-0.18997734292750723,0.11629866132264843,0.27472756935398573,0.004562765852081763,-0.016781927017979436,0.010436180379224868,0.625076554647627,0.004063258120990597,-0.001711038952292883,0.0129871313655803,-0.014046649452459732,-0.7147997057179483,0.046105782856365504,0.875
-0.32617272579850554,-0.3224280758781531,0.3624539749464924,0.39138717126446226,0.008163491540872616,-0.019975380270625946,0.01557957167633209,0.8180250825557611,0.003730137780376804,0.004334646343248302,0.018241588813785365,-0.02255315757887508,-1.0159985543777137,0.08513129205686275,0.8828125
0.3806250101701554,0.1616374673615801,-0.9586052318162296,0.3584860279607314,-0.006307249708501088,-0.030436897157590796,0.003970986163078768,0.32967162556756313,0.012186057658443144,-0.033599711528888486,0.007708261429898064,0.008549252410476627,-0.17477974672160945,-0.05961806388211334,0.890625
-0.006077352958210804,-0.02266067244333859,0.11418911397233167,-0.18041884821977064,0.0013230131350513066,0.0034925288137665623,-0.0014276821187480134,0.2708066671094519,-0.0007937850804883702,0.0018667540758754708,0.0001476688431848547,-0.0038089885137351743,-0.17433747554017698,-0.0035071459468960643,0.8984375
-1.3012272155006308,-0.7643350726223391,2.99144797156006,-0.8293283205000708,0.024833335477298914,0.06373869000693945,0.002261443411368788,0.39408978499089753,-0.028518141351806994,0.09393359039820329,-0.0014403285666658265,-0.04968124930308641,-0.8258555532200418,0.23031829671628767,0.90625
-1.2497732190943724,-0.7193535182167224,2.598073445428777,-0.32958087081374,0.018933778423672037,0.047547679223624795,0.006974626753108155,-0.035109521117154714,-0.023398979348934614,0.08518910347806834,0.0022040476873733863,-0.04158075950129258,-0.5944275333191766,0.2367409612265726,0.9140625
-0.050825172520626676,-0.042483429837978655,-0.6672692749519024,1.2731060572348067,-0.010724975690422148,-0.042504535448096424,0.016458189851827808,-0.6942242210495253,0.012365800571640216,-0.01460979142663117,0.015120568103325694,0.009039329393635834,0.14318213171363808,0.05554261186205989,0.921875
0.13734586917483854,0.046985599890589244,-1.5948074556171545,2.2097787611827373,-0.020180946720405754,-0.08132698226718478,0.0274231505666169,-1.088583190973158,0.02529070379421934,-0.04116484366398526,0.02588955379268029,0.021375267219120763,0.28043667763875846,0.05172437653433118,0.9296875
-0.2810686265273142,-0.14352357220971962,-0.3250223229768708,1.4496473688319926,-0.01097437106762874,-0.03777062936172371,0.01888534774889719,-1.1158809845043312,0.009196338292407284,0.0004415685925929856,0.015053290546323947,0.007423702562461757,0.3073430820887025,0.10586302646832686,0.9375
0.5344453835920681,0.3735418101385329,-0.9886100305240925,-0.03901251555488774,-0.012752411925767279,-0.006939033613664521,-0.009833802217850239,-0.42227326024100986,0.006337715543846515,-0.027101680199157346,-0.00852098720216922,0.024661490081479377,0.6857476812588459,-0.10963772461936835,0.9453125
1.5616929171871528,0.9046348046931673,-2.5085686720202265,-0.8182036599218064,-0.01684578128043483,-0.01884061919651114,-0.02521445192463883,0.7691261433170413,0.017813294022760284,-0.08743994866636215,-0.01560741810388164,0.041967386987292715,0.5317978103103058,-0.3373938414343293,0.953125
0.8447700144498618,0.4218789525601137,-1.3915301417309096,-0.41245494280837547,-0.005864272978781337,-0.019528402875745116,-0.009352398108840058,0.9603587389952072,0.01256659805615566,-0.05336645398646807,-0.001784621167339516,0.014944544301110689,-0.18539276393263127,-0.17806363455373034,0.9609375
-0.36077334875599754,-0.2288234568486593,0.3715331580889944,0.5250109140682819,0.0004597731553151,-0.009634769078641489,0.010633196829627848,-0.22155672890510766,0.00031185984059668183,0.014678579009132617,0.009303080152481175,-0.008504936114078177,-0.19572191238842118,0.09115657981388378,0.96875
-0.05585794138615258,0.017498158544242748,-0.14314630153019897,0.43514892182602005,-0.0074345058274599436,-0.007083500346887442,0.0023713411541977855,-0.6950816488580891,0.0018221242718674375,0.0026825143926556,0.0005179471435133343,0.008733284653824046,0.41657052533311123,0.02425005399767019,0.9765625
0.6857162318117889,0.45577873253557855,-0.40055667746418916,-1.505884917563399,-0.002097672265098083,0.036552970160726755,-0.029041826077530135,0.5678287785330333,-0.005332217036463173,-0.017080137335525207,-0.02415980666393205,0.015046920286165347,0.415793201899898,-0.1904681644563789,0.984375
0.29803465252569833,0.2612525419834715,1.43588333621237,-3.317624062737926,0.01691436730792266,0.11132918290028006,-0.049460329254784184,1.3817132786368698,-0.03036500977554949,0.035098969164051884,-0.0441939448261388,-0.010378084908526411,0.09010687508152679,-0.17769910993253904,0.9921875
-0.3236755785729118,-0.0518513804541289,2.0538082396750705,-2.340323549603835,0.014557064859498575,0.10277319369646364,-0.034398719117571745,0.2725675837636393,-0.03267504749552656,0.06540012681398163,-0.03535777853787995,-0.01508779598661741,0.34652942178178087,-0.022608956640323134,1.0
-0.39008849260274064,-0.15062186967798757,0.6224266516285809,0.23920914064947585,-0.0026222374085453524,0.012157553219544228,0.0016110767603863296,-0.8450230790898269,-0.006437128649941617,0.02893605904138508,-0.0023338831961418364,-0.0004882551040142392,0.41091627819276655,0.08286682293764458,1.0078125
-0.8470789572421109,-0.5118489685793434,1.0780168047679395,0.9070452088898598,0.004254797531434096,-0.008239230785711383,0.019972089124300374,-0.5289133025797134,-0.0038487812395997163,0.040355440403000126,0.015741108866275,-0.020461220103906823,-0.34540184494216614,0.20110187758837153,1.015625
-1.5566423680359052,-0.9003564854917265,2.976914298787173,0.017874685286027602,0.020524824426244374,0.044564725234611344,0.014364179159625021,-0.2801590692479616,-0.02486721083491041,0.09967228608425681,0.007603071231597955,-0.04834888234525348,-0.6819976986316119,0.30988221024169216,1.0234375
-0.9915694896942886,-0.5852155290741538,1.2535798696339933,1.0785160169575807,0.004190352572198878,-0.008404250146698508,0.022858718025291068,-0.7504997309707462,-0.004869944748348788,0.04805735831085428,0.01721926866291105,-0.022089335746524184,-0.2988444933296306,0.23526016046528808,1.03125
0.3989805934063946,-0.005947722065025291,-2.9514525363539534,3.5601209635409945,-0.02266142348287212,-0.15826980080910222,0.054032787445646345,-0.17892086425636877,0.05021106762647685,-0.09442811964411943,0.05771769661020697,0.017267111458528755,-0.7829779826804579,0.05623927661327232,1.0390625
0.7264879299304446,0.03244912341130716,-3.318852433202228,3.070149619279741,-0.013751143709326678,-0.1699377249361156,0.05408730139728382,1.4506748865440457,0.056282497856913624,-0.12187630083891564,0.0650368640979256,0.004493864492374307,-1.8148985323513838,-0.01870383344299831,1.046875
0.3627270320050743,0.050476534477068714,-0.4057849190187496,-0.5432197521715942,0.007900845412533712,-0.01230118022424404,-0.0008499777422883771,1.737855266821512,0.006786180887071399,-0.028993414709427724,0.007626532316378278,-0.012789209412399869,-1.0856611822217999,-0.0827642273368049,1.0546875
0.9247741384812224,0.6739472751806067,-0.344463799425474,-2.3386537492591586,-0.0034089904377124698,0.06669017448572263,-0.04632167923718125,0.4606634993414638,-0.01244004557676513,-0.013881773490128587,-0.04140772352115749,0.024552920404382745,0.9202329941383363,-0.2704789154104666,1.0625
1.6249599343513068,1.0563230211908303,-2.716088972695673,-0.6318659097044415,-0.02645311397303734,-0.012895318498160955,-0.03050449385095151,-0.2972893037677419,0.016440211939873377,-0.08389153921746857,-0.024597502403717948,0.05972667815786514,1.415259009507934,-0.3489370776037164,1.0703125
0.7074208584072421,0.4325371071683094,-1.7719716486899906,0.6994311447759373,-0.018923082391520202,-0.04134272862693296,0.00010352721561826813,-0.5102432054837167,0.01783792058503027,-0.05186146983611199,0.002235180670462164,0.031970091393907205,0.6199331211602785,-0.11638600676115624,1.078125
-0.931922144047784,-0.33485424017208226,2.1567564364518828,-0.5391614373133996,0.003653610178811811,0.06934704260714161,-0.010783089444021557,-1.5327369100865018,-0.027589622172721574,0.08553979563381475,-0.019935125562302307,-0.00899281640354838,0.9333532376791673,0.15720735586806295,1.0859375
-1.2681129882640725,-0.34147344711220573,3.550602732836247,-1.7210131606025854,0.0067945944278481815,0.1409783007532283,-0.033580189442642384,-2.423154901052502,-0.051455022546364346,0.13970675024206497,-0.0481834233245555,-0.007641932239252261,1.881703649330583,0.1739890879609327,1.09375
-0.5998021830879622,-0.10703167551239291,1.6248080271377254,-0.7042794409755023,-0.0018580058051293946,0.06951098122226965,-0.018080437045901267,-1.668965673390996,-0.02508406995297214,0.06973792543681513,-0.026546357282093452,0.004248916951933527,1.2994153969997977,0.08379908314438163,1.1015625
-0.3397891510296355,-0.2702930613610471,0.02652231918090744,1.0161949161846204,-0.0006506958548837761,-0.03287948882936172,0.01970805888556003,-0.07511248561541273,0.007391624144973492,0.0019198211561885943,0.019314027073948675,-0.009835072416986257,-0.4687766537750633,0.10661542523245522,1.109375
-0.2820262771989079,-0.4441281516092614,-0.32415519666964865,1.341412887958151,0.00862592468800192,-0.0704511302477009,0.03578918067679579,1.463092611087252,0.019100356043362784,-0.024493736894570177,0.04161889601781242,-0.030269132427867163,-1.85105728819956,0.1162071120038063,1.1171875
0.270724301540002,-0.2228848799733178,-0.6964764513199015,0.15612825793547191,0.016919858945104897,-0.05939561190459745,0.02206652204435253,3.1214312188951534,0.020193782776871786,-0.052162676586511025,0.035705391227740066,-0.03597130120329496,-2.548090989639667,-0.029865519801286974,1.125
0.6271944605900563,0.06821635596226375,-0.516129894965996,-1.2559677827887903,0.01855746997402053,-0.01285831582078016,-0.003810385624700103,3.3561687187624254,0.009134282829284678,-0.04801751027912748,0.011377188841734814,-0.02759551959980034,-2.0737550205855815,-0.1535258461995481,1.1328125
0.19245917439808824,0.16406401675773566,0.5185057801814147,-1.4631596139161016,0.004920963240097246,0.04873851903958808,-0.02347418833546563,0.5063965580508462,-0.01272025675232206,0.013205874640862128,-0.020853868563343366,-0.0007957103486199935,0.16365879983157977,-0.09076690930821335,1.140625
-0.08266087353858798,0.2743377036537911,0.39465351249034414,-0.27676755106181045,-0.017985206976983904,0.050160704117874697,-0.022718976392679256,-2.537224843368782,-0.015517867880078943,0.03825474610901564,-0.03198076683912253,0.03453927858018985,2.20084887642931,-0.0075991333641581334,1.1484375
0.4199402026957314,0.4183321286720693,-1.1787745587404599,0.6851642417303709,-0.02418616092557187,-0.014073382343774612,-0.006626235936346783,-1.8252338324345954,0.007453647355391198,-0.019945446456708295,-0.010645583312915732,0.04140771837600399,1.573954345803815,-0.06695880275836541,1.15625
0.6568100274673142,0.27978767982385716,-1.470508239464214,0.31272112850561934,-0.007253367831760151,-0.04199810105790055,0.003369181348007274,0.7553013163177039,0.017795554868044284,-0.05428102584665899,0.00977977642037514,0.011711708823810353,-0.3590765956547353,-0.11398501635591844,1.1640625
0.026345004483909324,-0.07423077202091398,0.034911236892122,-0.17461855729535639,0.005222438535257748,-0.006147585797333997,0.0026093941600979975,0.8651013578034017,0.0023488283531819367,-0.006462230137270586,0.006580742460181166,-0.011386811871202785,-0.6618767596010049,-0.00646709030662972,1.171875
-0.38438059783170275,-0.1377943884636366,0.5918222304050997,0.27695188766098683,-0.003564417232293105,0.011968635970969383,0.0014089314636824971,-0.9428520229445182,-0.00635348940622438,0.02891649109687473,-0.0028369580952582016,0.001145466885726061,0.4862463487669016,0.08247378455583175,1.1796875
-0.059200471537364234,0.12238986273336601,-0.19896660152285392,0.5805608995240633,-0.015271947687101413,0.001108952078896897,-0.0022635409263795933,-1.6823549776407285,-0.0007207054987108088,0.010396632951283371,-0.007800186645637151,0.02302774003551614,1.2055490414145453,0.02521995048675508,1.1875
-0.15710746551959298,0.06685267950161208,0.2643511054736974,0.11815136154894261,-0.010058473832520788,0.019385596547338547,-0.007086090085496142,-1.4223254743916827,-0.0068253360788608445,0.023031145863341217,-0.012330039349473389,0.015824241035169894,1.0781971583663765,0.028571395399501362,1.1953125
-0.9442991952917076,-0.4661991428138654,1.7540429103645363,0.12313813715654112,0.005932513709683704,0.03287032286720026,0.005060510941648844,-0.9104305639096899,-0.016755799756988116,0.06622157872573443,-0.0015040488679638284,-0.018336425474274883,0.17917341390312785,0.188385949565733,1.203125
-0.8298391860137114,-0.6616095473041887,1.0708335909304565,0.801885415084826,0.014831605586073035,-0.024560037525564047,0.028249333055340758,0.8762088839786879,0.0012860020012328596,0.026518521200835584,0.02925381010235719,-0.04037956532923673,-1.4957105124478591,0.20138691862963104,1.2109375
0.5090736562397035,-0.10657801931486786,-1.5522397143035598,0.81225852227898,0.009328789836204313,-0.09063889453188602,0.02919560200914168,2.9363517298431994,0.031239041830356327,-0.07828221467886286,0.04349465218531864,-0.025027015514967957,-2.464963757827188,-0.05343968408685672,1.21875
1.0379865617893564,0.3323866687846739,-2.1999051778822283,0.2487564746040935,-0.001705736903285356,-0.07136786497610378,0.009197700432012765,2.264892255863239,0.029493531517725536,-0.09247004109072955,0.02289319486189663,0.002585183619744719,-1.3979998615224694,-0.1839953244472772,1.2265625
-0.07043634898634353,-0.008491035566990669,0.10300622242607986,0.06634525285671379,-0.003039397911369935,0.0034739969810835374,-0.0009604782860541094,-0.32403023513171175,-0.0013594747456187888,0.007186977516104417,-0.0016570018355969171,0.0027201882792668866,0.21326911459499834,0.015407930302037364,1.234375
-0.9267368139712182,-0.38592493968039765,2.1100595812372767,-0.49757687674191503,0.006626302249748927,0.061395177807435766,-0.007031873408194253,-1.1035266097257712,-0.025123181053120672,0.0798637463585817,-0.014565429155716129,-0.015067017722337199,0.5582827586232291,0.16003591059445518,1.2421875
-0.33614389909757836,-0.05446720401417609,1.653204108925978,-1.6319539130464762,0.008459370357763148,0.08026209147941742,-0.025870326954956932,-0.20847297982876636,-0.026150307614031747,0.0568612301964471,-0.028263483024081958,-0.00832470108770316,0.5155025071583473,0.004035661500572911,1.25
0.44884072459537816,0.41454405369410685,-0.22475186164846347,-1.007651659996784,-0.008973400137684889,0.03844351559991013,-0.026475682086253727,-0.5910616197677141,-0.007812170905112223,-0.00038469391494269374,-0.026652245712866302,0.02402012958408583,1.0966180402774357,-0.13057832892038654,1.2578125
0.4584915033162995,0.37574525676254966,-1.6947733237700273,1.3983825588205416,-0.02675555498301451,-0.04661735631878335,0.0056958119371334865,-1.7218044101523544,0.017396564723737896,-0.03789314232057853,0.0026862850941201397,0.04135583915820043,1.2745576751762255,-0.04689906868329468,1.265625
0.3801466658049646,0.253527024930746,-1.5577788262047434,1.3918213981364012,-0.02076921431193017,-0.05334846162934649,0.011053161402443303,-1.085325600267433,0.018874002824639437,-0.03963073031516397,0.010019142932002347,0.029417488190609634,0.6899102246202364,-0.028029562186839392,1.2734375
0.5385644042196773,0.3976200058577751,0.07108651337664458,-1.8150297662654657,0.0009228520635593718,0.054280853563361445,-0.033026192878679216,0.5080683304470284,-0.011693089290660028,-0.001144783937263789,-0.029281740259496192,0.010865914647492744,0.4808183614293678,-0.1731659990219152,1.28125
0.3635105362957372,0.30930262600506697,0.9531247309839146,-2.7188736564221117,0.010258389002612712,0.09080378520609206,-0.043302898164263165,0.9333428685449491,-0.023842805161171713,0.023596086885491023,-0.03912296737247928,-0.0014880922435232555,0.3131900459000458,-0.17035108860073428,1.2890625
0.013252225991313272,-0.14446794901976895,-0.4649407437316311,0.6811182370876266,0.0020232125793968668,-0.041626999578518266,0.01706242811907774,0.8496752108508544,0.012738780307903904,-0.022821368767860704,0.02145217798060634,-0.011452861457187996,-0.9377762772002562,0.02886961131197998,1.296875
0.11661459648920942,-0.26673390660374013,-1.7151655095489686,2.369436870026136,-0.0024275654372336074,-0.12244237795708456,0.0479727875343601,1.337079927583577,0.03754743467689313,-0.06865660144005677,0.05550648055652153,-0.014697800638520978,-1.8465130646438874,0.07542564647502495,1.3046875
0.26369309334867325,0.08216143571338427,-0.004594146652990967,-0.8628863089139146,0.00649450050569779,0.011909839497406049,-0.009188411232459252,1.1753401257516345,-0.0011749754949900815,-0.010475841276587993,-0.003529805578184854,-0.008011668044887727,-0.561586080765523,-0.07831206359599677,1.3125
-0.3020942378717735,0.08661191401520221,2.4810041978071182,-3.07790613223474,0.012686493791951416,0.141742513819906,-0.05135995136312473,-0.314934364772732,-0.04412666361328197,0.08523800936639582,-0.05481532413421942,-0.005924254300473798,1.1013433377954935,-0.05850706429243597,1.3203125
-1.1473852244643192,-0.526217764970734,2.165811821675745,0.11221969803275722,0.005339860207309636,0.046106930441480676,0.003292504204660319,-1.4192173399255827,-0.022313270250186666,0.08445380331756824,-0.005930622464014618,-0.017824853021770937,0.4968268988201674,0.22564302036629383,1.328125
-1.2121938686812341,-0.8699501203550913,0.17292834718895944,3.533409237693217,-0.00371966724529346,-0.10207726918250916,0.06463810096254069,-1.0066471906532724,0.021179308146938594,0.014620218301521184,0.058589098825609524,-0.025323454496295694,-1.016270721495509,0.3715430610450038,1.3359375
-0.27737254937899336,-0.30618852849566364,-0.7129914113745018,2.0227256367309963,-0.005637291670753365,-0.076762487599239,0.03592579161704422,-0.09413208022503954,0.020880265123621265,-0.022236696047934466,0.03625500022263841,-0.0072314714266272905,-0.7479553193602414,0.13262065271205986,1.34375
0.7616125259562738,0.46182358251819566,-1.1077108452684086,-0.5882602874550703,-0.008658150830389486,-0.0006884457391798579,-0.016113938491332237,0.3195907813709299,0.00626719903044831,-0.03790238712256763,-0.01139582145399742,0.021442045923733343,0.3682931500463762,-0.1718738103422516,1.3515625
0.7353865538598658,0.3631521208128512,-1.7661566673255795,0.5641827154242202,-0.012864214777503139,-0.04804482091318244,0.0033543041124338055,0.29469863671343094,0.02011228872848447,-0.05941365034270711,0.008555756429243654,0.021167545174168027,-0.0032439690385707284,-0.12279455252327366,1.359375
-0.4186064608355437,-0.4191394286257479,-0.6353938010497289,2.33425165973189,-0.0043027779026356995,-0.08659018328343092,0.042929062633483166,-0.04813530099690621,0.022739831589913384,-0.02030275783824936,0.04306916571265187,-0.012605017721962835,-0.9700207548164661,0.17280723857888264,1.3671875
-1.1730443415424798,-0.6407937982605195,2.135395286631613,0.20862628335789338,0.011141385199307728,0.0317159912854723,0.01080127914584742,-0.6447812085538528,-0.0181378887240507,0.07590606912555359,0.0043726466081367215,-0.02995299302241832,-0.20761492692409975,0.23858053789015082,1.375
-0.3376466296710435,0.13729953825277796,2.4617887220961547,-2.9027800915577813,0.007323706683593157,0.14572132399785043,-0.053230618579963654,-1.023735161493483,-0.045635008559983224,0.09144637421624645,-0.059391410861125246,0.003244758606514798,1.6265174540982559,-0.04877348408718134,1.3828125
1.0352841638890058,0.8715928369056344,-0.5697430773893317,-2.2642694247288935,-0.013936046355646272,0.07714948675673368,-0.05457233977289488,-0.6880602703977514,-0.014832200893972334,-0.010040242259303991,-0.05346400823732112,0.04504836397466502,1.9366106196352768,-0.2959073176146763,1.390625
1.2741870604179804,0.7063222369522064,-2.582105746945218,0.21695350506362412,-0.019552724064413732,-0.048583905136213024,-0.007799532666698928,0.3387565897172165,0.02435979851199505,-0.08609354153899455,-0.00045972398635457467,0.03868807119507428,0.3880507237023203,-0.24288536563271876,1.3984375
0.6771041644753083,0.22078881161914843,-1.530888165581178,0.32474523267286143,-0.003260956900199762,-0.05162724916373171,0.007636575231569232,1.341086969603127,0.02080108221288729,-0.06190517040572623,0.01637651170482018,0.003821792832521155,-0.8501531128000023,-0.11423895522684431,1.40625
0.4696818415589738,0.19789348146869276,-0.3098725444713706,-1.012870721291657,0.005015428362120356,0.010413647121360689,-0.012810778635345558,1.3302703756962395,0.0008176911767727214,-0.021771257662979885,-0.005682103240577103,-0.0033386920191608967,-0.5226996745584485,-0.12415590079982282,1.4140625
0.4556624293822839,0.291776940570629,-0.34511773910711974,-0.8742255146651162,-0.002306643944479016,0.01858818678913951,-0.0171847298806853,0.38784562520213184,-0.001788978395267938,-0.013817738947189994,-0.013599716727963892,0.009984212860043494,0.22531664297228826,-0.12135057717559013,1.421875
-0.16304208311463186,-0.09059455378693386,0.2518153604631355,0.09970389936708693,-0.00025438965302867036,0.0015384627627242906,0.0020867097714371546,-0.12305482388387567,-0.0014675681267479594,0.010016519079203721,0.0017012277184630942,-0.00332300281219169,-0.02352918081126544,0.03627349573151831,1.4296875
-0.9567194658559072,-0.622878178161127,1.6164750447153056,0.33714825437153395,0.013586010850406663,0.008074562176640392,0.01687923626023726,0.2052680515288837,-0.00939863934154959,0.05083932525705663,0.014585533740935568,-0.034979320299702306,-0.8468275981218953,0.20524302226607172,1.4375
-1.0247290515464207,-0.6724929022589452,1.6066869829257258,0.5683433438320933,0.013252477761809526,0.0012181221382591492,0.02096806353073396,0.1367203022092202,-0.007876014329863679,0.05110762945768496,0.018294504649621006,-0.036237916403807836,-0.9042091635773302,0.22717266924691554,1.4453125
-0.39805529197581496,-0.24440656777291878,0.21850812353229426,0.9029612458710019,-0.0025792834084465504,-0.020226809615699583,0.015239332192038392,-0.5130874895044499,0.003197375518258623,0.012400370067530333,0.01290215248631496,-0.005430569371403489,-0.09342902894341447,0.1115094818398892,1.453125
0.3005946329831881,0.22808566569877228,-0.5141644853780388,-0.08474035996043582,-0.008397816331667052,0.0001991025146332944,-0.007578348195009127,-0.34794289841065007,0.002450217287848533,-0.01249907939481838,-0.006985304063923055,0.015638858666159293,0.50052544132847,-0.06440223799973474,1.4609375
0.5019891848769183,0.3561015970152271,-0.07990482045798103,-1.447426055751285,-0.0004079372118941941,0.04068082205712397,-0.026910338117463736,0.4424812970915852,-0.007989759044435224,-0.005565508539114043,-0.02329167734662918,0.010628434073076306,0.3938261248907503,-0.1521462523852368,1.46875
-0.10291840260792887,-0.02056274748048976,0.5934143850774292,-0.6423421655620406,0.0030515086174865464,0.028558644842798808,-0.009721611881869435,0.059585741089465856,-0.009051662107516735,0.019614060081748697,-0.009585226221062271,-0.0041482337296761505,0.09996228614340802,-0.0030462583237875706,1.4765625
-0.931565152803748,-0.5228885979612877,0.9107730722271185,1.472370984859011,-0.0016678366344831548,-0.019784840706352256,0.025434032581754768,-1.213003744277009,-0.0011212995972033233,0.04136257558729938,0.018558682151073192,-0.013238031706445259,0.0016455111613937398,0.2357024390185675,1.484375
-0.8220980519790556,-0.4807471044041567,0.32667205176155745,2.086881282718443,-0.007137757305549795,-0.04583050816710319,0.033238497850921596,-1.4021487667727477,0.007432196721936777,0.024053697187266927,0.026462432752416616,-0.006621624504823286,0.025184649103351192,0.2362806976745094,1.4921875
0.13187398301440928,0.029313227776490747,-1.2241962601784016,1.6030763509017818,-0.014026754687504124,-0.0628557265871543,0.02087468420174162,-0.5868675591037603,0.019804178207911242,-0.033786551984541016,0.02085713099613677,0.013749145204868042,0.05045161275738077,0.03224213986222778,1.5
0.5276479082826847,0.20212514330104794,-2.0633150183000377,1.71419772957866,-0.017124705856436537,-0.08493127814080764,0.02193859234592291,-0.11926939035997296,0.029401888769427106,-0.06548239797135569,0.025395458923410438,0.020378084852063185,-0.15175261599013184,-0.03974195947369648,1.5078125
0.08506662245892489,-0.07144968060291515,-0.8354306731769872,1.074381360705655,-0.004319761587222196,-0.052952701876446066,0.019294566285610177,0.35099562528788,0.016625465607284798,-0.030107886737727768,0.02231593755227272,-0.0016238654385496735,-0.6013457164543479,0.026686080960059373,1.515625
0.1169495676478485,0.030163659994806555,0.6731505773230133,-1.516942130209972,0.012032584801807713,0.0417906288335087,-0.01791091976413224,1.280628061383281,-0.011105165318857342,0.010669979611061533,-0.012764169106637005,-0.014637923601954955,-0.5220740643573468,-0.07344668063389805,1.5234375
1.0039995272181126,0.6910671479102154,0.14209772898149176,-3.4183720898198886,0.006356670001367089,0.09649420092068085,-0.05858692588219119,1.3859747339115067,-0.02056427565711034,-0.006735653977115772,-0.050473797706544296,0.013524097518155346,0.5333730731071801,-0.32226277267134035,1.53125
1.428533463885925,0.9992165633898218,-1.1225049239948484,-2.6427057173055717,-0.01014232483871393,0.0659992195064637,-0.05684241666270653,0.451234359197114,-0.008403265109368986,-0.038832555272841136,-0.05003313015260626,0.04171803628112899,1.322659321529442,-0.382434623327926,1.5390625
0.6115389685490298,0.44718323944338617,-0.35555133586366855,-1.331204483752818,-0.00468728624049755,0.03699752977379116,-0.028232092337931374,0.15614340179547898,-0.00607456557381758,-0.011710103198057403,-0.025142958630631738,0.018562629058646085,0.6634225879997505,-0.171162557003354,1.546875
-0.6753383375973953,-0.36927180452643715,1.8230887339615662,-0.868779695827454,0.014192505186997896,0.05068887781720518,-0.006089749381307018,0.24871781358045747,-0.019931197103925914,0.05759458202910613,-0.0077165296430087285,-0.026362984298707818,-0.3224460532903714,0.10344257629857667,1.5546875
-1.3871257772914274,-0.7547890225926494,2.3302794229911106,0.5749640195496966,0.010444738386503737,0.027011860613727522,0.016751484745818584,-0.9961596517753479,-0.01843961389609484,0.08545204244301467,0.008298320887925119,-0.032044585904895034,-0.1554647766733952,0.2934656464836509,1.5625
-1.009597429335226,-0.5638320099758861,0.3365117867777346,2.682421881818155,-0.011097463596119125,-0.05693166283091267,0.04078642897886468,-2.0189888395154854,0.009238728166662241,0.030083759830515235,0.031246538120594414,-0.0038656495716334503,0.24450127340529426,0.29303037278100713,1.5703125
0.22348134819526078,-0.01531314404596174,-1.7523982802714462,2.157505830335458,-0.013938319701468431,-0.09556690585463867,0.032779474073399255,-0.09867666706704509,0.030260389546973323,-0.05581343103057676,0.03528545157839609,0.00983934353784435,-0.4920060035469819,0.037971670013604596,1.578125
0.9451034219146621,0.31555696837277664,-1.557875739058912,-0.5115408528186505,0.0038132746043230024,-0.039014160850769634,-0.0015431208048356524,2.4185366283936727,0.01921741839431411,-0.0728385569945884,0.011907914104511978,-0.002966607272749942,-1.3332505722029457,-0.19374530182844904,1.5859375
0.03564997136915564,-0.061387239575553545,0.5590187665630545,-1.0778769720259878,0.012262179311972142,0.024263005411413033,-0.009051828209914565,1.366037326270765,-0.00655692315222924,0.006007408993201712,-0.0036475850727717856,-0.018575317026846193,-0.7872236370826238,-0.04001525758345609,1.59375
-1.1320263044565038,-0.5524357408010644,1.895782718243358,0.4978996047265669,0.004024576693192489,0.02862115185403277,0.010053008459982514,-1.3647380809127294,-0.016983890309805176,0.07503865446232741,0.0012507646538665955,-0.018004248907059137,0.33173942003307305,0.2376167806949864,1.6015625
-0.4319208137790964,-0.14240325160801678,0.6915198307922612,0.26571804561750795,-0.004279979076681402,0.016397027950025643,0.0003420422549807159,-1.1404738953468787,-0.008018532569404463,0.034033129954098705,-0.004866886266947093,0.0024336675623183347,0.6286410476205422,0.0904458858705128,1.609375
1.0237681806075098,0.6267044858866898,-1.1312245691068694,-1.3824903445564487,-0.006467936053074539,0.019422690894744948,-0.029101596744886805,0.7520158454958349,0.0023305037297626104,-0.0425645336834708,-0.02215332455185941,0.02386188906544232,0.41524732280001203,-0.2520334521235878,1.6171875
0.4901624117935596,0.31199874414085293,-0.6703618678685827,-0.4432495325291725,-0.00646788213044152,0.0032984004142696823,-0.012170685566200502,0.122761546596621,0.0029965691417565433,-0.021963985243328533,-0.009290880597772118,0.01513168140547788,0.3285839591820942,-0.11327233605527133,1.625
-1.0901937085555216,-0.6060453976947024,0.8526771709978214,2.0780187423608463,-0.005124720143953359,-0.03415554732405582,0.03384629317739924,-1.6937007521820504,0.0019070044461875198,0.04385256392634472,0.0248404631699151,-0.011462080017231613,0.11804189237924263,0.28783905884638766,1.6328125
-0.4455569282070726,-0.286531058554569,-0.12506569003253637,1.6259090545697306,-0.0071281163767664985,-0.04445944624664341,0.025440826946262658,-0.8520951997148923,0.009938018984740903,0.004311624749793106,0.022093914154854732,-0.001973933769458755,-0.06978299499538797,0.14673688343439,1.640625
1.598935462736523,0.8748206409012722,-2.6440883578485757,-0.7276767721919316,-0.014915271653792965,-0.029055323872345128,-0.02137679444384604,1.1509789546235172,0.021123488232382196,-0.09554410391959083,-0.010065035306686154,0.037671355427986324,0.20038253275980092,-0.33944011159862836,1.6484375
1.1219707396981506,0.6126913333054194,-2.0385037083668323,-0.2048708949068875,-0.013415588519118957,-0.030703570758343693,-0.011278676020037702,0.6267293900209125,0.01795755061274072,-0.07113119782779989,-0.0036877782621241788,0.029254671808776802,0.1940148548551566,-0.2272966539794242,1.65625
-1.4987728003674174,-0.9196603888207927,1.6902743206686135,1.9627773644415514,0.006500285607438559,-0.027657296313689152,0.040961563045054945,-1.0432204228963224,-0.0030432373779468416,0.06464913595726138,0.032632869086683496,-0.034839002719203746,-0.6368808850715723,0.3684766178198057,1.6640625
-1.8990482358565246,-1.1251280638360064,3.2564537860684646,0.6400574292833741,0.02178203066922449,0.030831344469199145,0.026847496185163786,-0.503562724365316,-0.023407991710457793,0.11058105670469992,0.018195103715884106,-0.0565731892261788,-0.8966113574456885,0.40070644322541377,1.671875
0.4458960612091249,0.3527167218809123,0.9465373091135311,-2.975129191597816,0.011517996726108523,0.09626926716366656,-0.04698409181279715,1.1439697383839948,-0.02482688226107852,0.02145936721790345,-0.04176573105990452,-0.0018076943291137784,0.26597514169980574,-0.1955034587793874,1.6796875
1.6033681979247294,1.06045640740081,-1.1166019470480253,-3.2273742657905196,-0.00519489208959243,0.07533073964244104,-0.06323203854044579,1.1803229065782752,-0.0097934535217974,-0.04546980438996241,-0.05329157255316127,0.036884823713854945,0.9968478014051496,-0.43556240007823355,1.6875
0.4574748213639042,0.26242368218301365,-0.6076024420823503,-0.45471320487954486,-0.004005619214607038,0.0009316841868026291,-0.010147364843148446,0.3797895691619224,0.0034853627990381474,-0.022413070889187908,-0.006432950452610142,0.010264332128302795,0.09406230005101167,-0.10572034569886267,1.6953125
-0.17551022116927334,-0.16769769425342962,0.15163933343501426,0.2832265437582952,0.0027161908545770886,-0.012612066508011084,0.008723616921654936,0.344217542055053,0.0026801515228627626,0.0021779137283061585,0.010149979853830338,-0.010545975233679183,-0.48906218564399384,0.048422106032590194,1.703125
0.42354569695268257,0.3067882058449054,-0.2322076589881958,-0.9480305679308044,-0.0033103913962094587,0.026063880977593514,-0.019868935876112423,0.14739842587248808,-0.00425424087523316,-0.007781210718560454,-0.0173296342063926,0.012393271697988156,0.43535382523770516,-0.11914548448276555,1.7109375
0.19514423976012935,0.19667275595058648,-0.3749872057882092,0.032310754859942156,-0.009714265530586888,0.003045755748576009,-0.007015551827779231,-0.6862839865681492,0.0007443260170532516,-0.004717076218859812,-0.007997635352521265,0.01701577998533046,0.6887919339319922,-0.0409182313917528,1.71875
-0.8056354946794704,-0.6044977167303305,-0.024644010025231238,2.5750466527014964,-0.003207022733292966,-0.07856295543498786,0.04720581090088905,-0.5871728427864037,0.0173293124762041,0.0045559327852134355,0.043839714966221105,-0.017860248054052025,-0.8184148750100801,0.2562243354573173,1.7265625
-0.6813691716449125,-0.6244535424659171,-0.18826866640531578,2.4149945228558396,0.002063126049564747,-0.08804547057814155,0.0496972169272763,0.3000642641390382,0.02118277015308489,-0.009290262729227738,0.05004694126686195,-0.02662865312342866,-1.4481934424199863,0.23043821965062755,1.734375
0.1711701754019778,0.1112556705576958,-0.34781328232724695,0.03422550129118347,-0.004990122253238646,-0.005044550616236981,-0.0023453800996816685,-0.09740348660120145,0.00303742533174537,-0.009576052621088335,-0.0013043844582728884,0.007609348607016546,0.17170117963751405,-0.03257881817838838,1.7421875
0.1529956272196197,0.272613716506436,0.10516725147727252,-0.6020526300389742,-0.010006474989926498,0.03725732584447079,-0.020491333275454902,-1.1392074108705939,-0.009759006491445659,0.015470043540922204,-0.02376496185099476,0.02207388790279872,1.2561813563167676,-0.05924007936613687,1.75
-0.14894701998375412,-0.0808874835172056,0.10848222878937057,0.29729191813997574,-0.002177178061220153,-0.005242342829374542,0.004277749965876903,-0.25275824830324334,0.0006000178660736131,0.006599664682634948,0.003618518412692228,-0.0009208336795900077,0.030280081838110522,0.04009433673044118,1.7578125
0.27041697542408427,0.007310276340527146,-0.3508160086078528,-0.33471452219777875,0.0068211499554627275,-0.015254328856741543,0.0019904116486660858,1.5068973816195759,0.006941419270402766,-0.025090722220713194,0.009303906747450292,-0.012507038463248441,-1.0121719124913844,-0.05772992980337596,1.765625
0.33477875975240895,0.23159402774194277,0.324879719039755,-1.6025798037620347,0.005000817836287796,0.04741378411976315,-0.0255829804495996,0.7424581687311186,-0.011174288416711541,0.004667323421385362,-0.02162328061755806,0.0005761809882020294,0.09200828081841843,-0.12313963647123558,1.7734375
-0.575879958647217,-0.10665023902311388,1.3465372026105693,-0.32233067185205766,-0.00463288519781544,0.05456957224476729,-0.012797361286907644,-1.793322400352323,-0.02045036588056383,0.061767602297629835,-0.021403628400774966,0.006959160164530925,1.2935013143806195,0.09307718924449304,1.78125
-0.8974403175915534,-0.44804133908658295,0.37611621518357097,2.2735018146427333,-0.012399232387570274,-0.04058291263364035,0.03158084384804475,-2.169853515956947,0.005250800681449759,0.03299629276332852,0.02172984133107971,0.0020757228950548127,0.5725317808328969,0.2541829437405409,1.7890625
-0.07486435036759984,-0.1884609815445419,-1.113693950265284,2.047902488807721,-0.008741084924542755,-0.08336547573760059,0.034267852326844025,-0.07763942971519693,0.024368505702854624,-0.03536021590178344,0.035560128965051056,-0.000611010034695514,-0.6501441527825914,0.09337043175562657,1.796875
0.28617012006185494,0.08913125993574303,0.017559838805084053,-0.973106468450289,0.007458981707748223,0.014158641034697834,-0.010435369507067182,1.2962391013489378,-0.001672551890334776,-0.010880327003829562,-0.004216207197152713,-0.009043950044627155,-0.615062409643052,-0.08628554042208453,1.8046875
-0.1304289551148927,-0.014245952486305894,1.8812831416852946,-2.7008427168089195,0.01948091185485192,0.10004097040612746,-0.0361556552174343,1.1526579911578807,-0.03032459859779733,0.05147637123614785,-0.03317585429844075,-0.021438303951582364,-0.1702251166317136,-0.07013065227506744,1.8125
0.22169857830002584,0.10015405598864369,0.49804349044569657,-1.5529458420820725,0.010286792360755958,0.04102239554856996,-0.019917139493562976,1.2431764392721505,-0.010146538956476188,0.005436395199034431,-0.014465107106518127,-0.010575802604744418,-0.4172126689656549,-0.09596748259852221,1.8203125
1.2643160346190656,0.592088817539053,-2.378506686750136,-0.13231022994907282,-0.009695925308341246,-0.049848703178449916,-0.005445824127906615,1.464110505131295,0.024757450139455878,-0.09026391638604447,0.0059549791321069,0.02186469164295315,-0.45964443032985514,-0.24815872831536084,1.828125
1.2066672268175562,0.6903475595374678,-2.1619417011947046,-0.2619110123200891,-0.015966103845522314,-0.027977484421462553,-0.01448512828676181,0.43358995761220787,0.017756115543864467,-0.07322846674520007,-0.007307396779511673,0.034928523032705334,0.42528404204387843,-0.247334962714957,1.8359375
-0.03330249187261547,0.12976050746349513,0.34492175967718236,-0.417320670766571,-0.006729932186903175,0.03238786617952293,-0.014302690206054902,-0.9918257387967172,-0.009696953823023659,0.021679542627437032,-0.017731700186717676,0.013645538980097134,0.9610617605643695,-0.014198027348446093,1.84375
-0.7857024602299725,-0.3889606656094798,1.0439363920560976,0.7964117544794439,-0.0011067729263809904,0.004266176359412241,0.01273119428332575,-1.1794278352676006,-0.007096615504632612,0.045595284198934015,0.006187405665252735,-0.008884414172141274,0.2811515323133741,0.18099796392175202,1.8515625
-0.4718304784248605,-0.3293144830163912,-0.2131185484032433,1.8460575424156946,-0.006898740424803391,-0.05428743983340779,0.030085575294175965,-0.7619706739840064,0.012687222822330063,0.00048110445714208574,0.027052411878501194,-0.004118189431764743,-0.23392471406855994,0.1609072842873434,1.859375
0.08633503755013851,0.07005993530762977,-0.7338661439747302,0.9563566426337892,-0.012065903917765575,-0.03200437277720448,0.009252081041466917,-0.7511476875540826,0.01031181876730597,-0.016100154129482697,0.008097165690350367,0.0144648118718604,0.37662655617943197,0.01579726444004079,1.8671875
0.1954285043555899,0.20812883326820403,-0.0018548410751645875,-0.5870701116319014,-0.005186850094705472,0.024797377179673185,-0.015293170356741957,-0.3944451814393559,-0.0056832709751692,0.00472888117437048,-0.015545613680088288,0.012635733521622701,0.6439776753582289,-0.06290819945452598,1.875
-0.3377117229172321,-0.22919378223643241,0.8346306093573101,-0.3224648993929349,0.008180316832846877,0.016048207437135194,0.0008276058427255359,0.42748776591772447,-0.007069778192718967,0.023682012072111427,0.0015604916988608006,-0.017392826493496986,-0.4554681692306126,0.058025928802905816,1.8828125
-1.101864274123247,-0.7978784679310514,1.2584030284921972,1.3716270271396682,0.012556204294718286,-0.03286956737981006,0.036546939945036806,0.29543988506738306,0.0016176552395921798,0.03795499161437139,0.03454364431704108,-0.041038959511741115,-1.3491144560493769,0.2742808487224852,1.890625
-1.053179150771709,-0.7177770229492312,0.9009481522033389,1.83064719406145,0.004737758214950785,-0.04318567080516488,0.03857550428024523,-0.4181219838761984,0.004985428004209464,0.033132217772880494,0.034352133367059,-0.028873216369949807,-0.8648558847465107,0.2780799607129509,1.8984375
0.026112083302180716,-0.024298645890719183,-0.1859411092095924,0.21189573899517172,-0.0011732791787890029,-0.012909367633468352,0.004326412883505999,0.2029492925017799,0.0042793308145506566,-0.007335698486949631,0.006014338329142611,-0.001650730462808342,-0.227065074135238,0.004549398373262044,1.90625
0.8362937821319771,0.4731577084215942,-0.6330606136941165,-1.6268526568445238,0.0011152490029984643,0.027661874246761364,-0.027649788880918725,1.2518065651481092,-0.0014836405562912512,-0.031178526771962183,-0.01968590023353965,0.010142698820955877,-0.038784882772358,-0.22128565757334379,1.9140625
0.6591812929686183,0.5290495026497323,0.1446489579516359,-2.299952092678852,-0.0005225864929657399,0.07423616903441532,-0.043897223812395116,0.31473030296027893,-0.01672254157617567,0.003329654431643068,-0.040570944490668726,0.017660588545340375,0.8749543138341551,-0.2168189919905043,1.921875
0.40998133799354486,0.553699092814915,0.6312737071381609,-2.253383271122258,-0.00789654781910785,0.10035249151775094,-0.05124729526256578,-1.1717832740244658,-0.026498335528004593,0.03344914903707745,-0.054523590564898985,0.03091393538629839,1.9770530177848284,-0.17358934070390136,1.9296875
0.5363382708653958,0.46020280731418267,-0.015276411517608187,-1.6407984864964373,-0.0045295777907627755,0.05624929433811426,-0.03477203501335207,-0.13758799043965123,-0.01236523428083468,0.002267076123535354,-0.033280669195305014,0.020248921776899114,0.970823237095463,-0.16964094353217668,1.9375
0.24903345726382292,-0.07940665643882193,-0.6333643384922254,0.17591728369481707,0.007386497562458579,-0.04049580885487928,0.012960200168464872,1.803845322488422,0.014304997063987388,-0.0372882625822459,0.021623843173130805,-0.017453042469473292,-1.4450879431070087,-0.03223925664045189,1.9453125
-0.44315457919379536,-0.5434576392238362,-0.5277372827508875,2.1957809304351135,0.004060421948627518,-0.09466569712242143,0.04815795261020213,0.953943848926348,0.025004437948769102,-0.02647174732210959,0.05192965347766594,-0.028126745227336013,-1.7921690884652175,0.17810725704554295,1.953125
-0.5075089006566073,-0.28410285659276996,-0.31695928180412314,2.158643961362848,-0.013159150124763389,-0.05570180441947292,0.030276311569319554,-1.5168165279125556,0.012730895711239509,0.004308369764514084,0.024450614295804207,0.0057364562443346315,0.2833646995405921,0.175760491093703,1.9609375
0.015318067830494874,0.18933587425845563,-0.312474602822279,0.5373127677543078,-0.01747241838612523,0.0032746669107619926,-0.0049529018119206574,-1.8435585756668882,-0.0007820470398324366,0.008281806019537942,-0.010814693373100526,0.027918266903309126,1.4011088307488433,0.007814851381028587,1.96875
0.11905289327002677,0.07664235034948143,-0.5056065958398256,0.463906894209482,-0.007580393876503071,-0.01818905590708893,0.0036894030048725056,-0.3340489937015538,0.006534683144972512,-0.012581522429560163,0.0038594075195298046,0.009401285144373562,0.20250239736947287,-0.007243326579555542,1.9765625
-0.19437235055845986,-0.3122867462551254,-0.9673855400517227,2.1640715399547523,-0.0046413540617666026,-0.09033190097322516,0.04017332928400869,0.28579977761063086,0.025584875610161574,-0.034224062762979804,0.04235976022635183,-0.009931567585604043,-1.0676557526199202,0.12364541259248384,1.984375
-0.15266953889147028,-0.24223332016353874,-0.8510623971892859,1.8536270017732266,-0.005459737089564019,-0.07578185433104528,0.03315503541659262,0.10267177520777407,0.021540618308424644,-0.028539832311420953,0.03468826754217365,-0.005917649469766082,-0.7857341694537483,0.10245809504352495,1.9921875
0.23915645895656262,0.20567237070884067,0.5257912231640041,-1.6197741535443184,0.004688535911617511,0.05429594014768397,-0.026721283724077585,0.4913763815463578,-0.01401766542128868,0.013656966144375641,-0.024066254126966998,0.000979277203496354,0.25509756233043746,-0.10616527467490157,2.0
0.4638119663753526,0.48345684883966583,1.5384968728907447,-3.9762261683471123,0.012294824878840364,0.143483499948322,-0.0667956521981986,0.7659559177488732,-0.03871429422948521,0.04470192229145689,-0.06354507696464601,0.004101097993986136,0.9274774659397619,-0.23939211265212432,2.0078125
0.3811099555683599,0.3630767089549469,0.6592144829434435,-2.269182981422025,0.0034823291204351516,0.0806802286613033,-0.040570457976203705,0.2894307566448627,-0.0207623221317891,0.020166190086389865,-0.03851826366078725,0.008596514714647294,0.7223850888616847,-0.1602880560975783,2.015625
-0.030811114483844562,-0.09220493717095136,-0.22763517102234546,0.4523283241123871,-0.00025839524334913454,-0.023473559865720542,0.00998392997566834,0.33248121060761926,0.006985340741876671,-0.010068072723536155,0.012039434922693689,-0.005441869229453922,-0.450589695195538,0.025991214263615874,2.0234375
-0.6877744751540296,-0.5786788637900484,0.9643419081776905,0.5281050398241782,0.01508533941011861,-0.019574658956196717,0.02350911806412747,1.0650768522996268,0.0009023444516335726,0.021334415729923135,0.025686314780648166,-0.03839446654350116,-1.4831416241816544,0.1637756687312998,2.03125
-0.8756441155179148,-0.5305903430920873,2.1509184772710483,-0.7940702451236631,0.019243482177218996,0.04864019305312046,-0.000582749145681928,0.5493331778226409,-0.020795829757044484,0.06527456691209566,-0.0018259060545886283,-0.03750681372927198,-0.7191944174141186,0.1477538371278442,2.0390625
-0.12159583593834815,0.13417549860551126,0.6366803475422774,-0.5986658841182828,-0.007363608333768519,0.04775127105338485,-0.01915120445346958,-1.356396262464514,-0.01497224864901397,0.03475468317685423,-0.02433042308191808,0.015925877198043368,1.27987790753515,-0.005636081223748576,2.046875
0.5510851443485947,0.5075790818035881,-1.5755759175262478,0.9333496755327525,-0.02896487243548285,-0.02450929465895878,-0.005607978239280456,-2.0678410353444816,0.011511799238369341,-0.03050449090076334,-0.009856983434040682,0.049446187579587866,1.775597957042676,-0.08507603753768343,2.0546875
-0.05709876381514515,-0.09849388516867287,-1.1441866656274269,2.0679990070872165,-0.014129086163070173,-0.07496401022616674,0.029539669576350756,-0.754255975445384,0.02197523394215591,-0.029804187541995132,0.028331066264901665,0.009884643998727587,-0.0715162775053817,0.08677058347648645,2.0625
-1.062740590668475,-0.8291542745607985,0.5730452687356241,2.3679946624879267,0.006889487555912865,-0.07343776693946176,0.051687276679732705,0.1308751404233469,0.013939909069393307,0.016991895394160884,0.049842535049267625,-0.037083961098273104,-1.51264118511689,0.3035262921977702,2.0703125
-0.5499331553774451,-0.3812884014000374,0.018035470205699403,1.7069408192955287,-0.004210180623234492,-0.0483101149868309,0.029528499824167536,-0.6340838463446222,0.010294042165310744,0.006775080063451492,0.026572711283503157,-0.008667542611393735,-0.3436539463197052,0.17183619891684232,2.078125
1.2354376939982012,0.848525586297086,-2.134318031507804,-0.347589770089868,-0.02443305035907485,-0.008850198104978148,-0.02443680412427487,-0.6910322929427594,0.012175528684214804,-0.06138226147537315,-0.02141710131288882,0.052299402201041,1.4275503606728719,-0.26267886176960104,2.0859375
1.9626426282344633,1.1773017070682898,-2.2284453018301473,-2.554206717265088,-0.01034400947108588,0.03167696843933734,-0.052776255473693946,1.5832925413415213,0.005934872575921848,-0.08559584467879573,-0.039473318179498534,0.04332334331468118,0.644957213619123,-0.4791409752169707,2.09375
0.8169279210601569,0.25631085096692496,-0.07117930018644192,-2.579607998141665,0.022219137772456505,0.03482883870642059,-0.026657185949945976,3.562053294900262,-0.0035176390079827906,-0.03506764863402842,-0.010641262243603516,-0.024425858072506638,-1.7022578692290535,-0.24073090399687222,2.1015625
-0.3475741285305155,-0.4073581564329587,1.005143510921438,-0.6411190256365901,0.021716942609669245,0.0060498217839955026,0.0074686417948159065,2.0651835577619004,-0.003999464455824294,0.01345171630827445,0.014167920897178844,-0.04168976031477391,-1.7498969920347331,0.057019435690820526,2.109375
-0.25062383183106196,-0.024751759497774063,0.057514255797949276,0.7509183032950847,-0.011760547323656733,-0.003322351075902428,0.003823535153607005,-1.5196664496821233,-0.0008332236389370538,0.017032303421353152,-0.0017739059538016474,0.014201587274604468,0.8985679231068513,0.07082494854276729,2.1171875
-0.11966317322232001,0.21844383287768937,-0.30901986411877774,1.0048280304598687,-0.0261737974087269,0.004691005963835463,-0.004456949165024774,-3.054959074953932,-0.0023574033723494274,0.01996339215627527,-0.015145899451828645,0.041108403866913217,2.1982349961245555,0.04579601218329452,2.125
-1.0221194552377508,-0.5506297198023029,1.1322130738466083,1.3996972164798431,-0.0013241267309952716,-0.01180084396552978,0.02387045535010484,-1.390071785043152,-0.0041766795108126985,0.050221342960076944,0.015951515022802745,-0.013719106965143682,0.12297616450840686,0.24998146280476158,2.1328125
-1.6485549652642837,-1.1818476010896966,2.3957548807885374,1.1997976760186306,0.02600683362100584,-0.019335069328370525,0.04362550015672486,0.8761128113231491,-0.006497619170659755,0.06916595631335766,0.041516921641810395,-0.06809017409495793,-2.1067353409775995,0.37983166868698615,2.140625
-0.6779040443475014,-0.5078185669843808,1.8987621937479227,-1.0381834596278379,0.024209705804687964,0.0398376380469432,0.00017060090313967974,1.5024031581419164,-0.01659808229876324,0.04796631349530417,0.0031238954175501665,-0.044769013252303,-1.3343460909587437,0.10440006892267388,2.1484375
0.703448887496174,0.5716415254271923,0.41714312831037387,-2.888607830974332,0.0028256360320076147,0.0944393720986291,-0.052575505888677605,0.5524276624007722,-0.022366867435918255,0.010063244852986928,-0.04854228656627178,0.01557830282983793,0.892812251522834,-0.2468628149707192,2.15625
0.7731411341524072,0.6569921030804197,-0.7940263713101283,-1.075576242828329,-0.0163841722023414,0.0378962338464782,-0.03366757294805701,-0.9484291583912378,-0.005211280753264807,-0.015282699210510021,-0.033935786841715124,0.0402259769125409,1.6143798870433383,-0.19981583226916624,2.1640625
0.03640817995303272,0.09702164860177757,-1.1595968309395042,1.8451244126813715,-0.022395726883537127,-0.05324748923717938,0.017299124289309242,-1.7857130202852176,0.016135516407191797,-0.02018974553363476,0.012503064999519996,0.028052034974668245,0.933556880527508,0.05394923186954361,2.171875
-0.018202264305907243,0.010947129154734862,-0.6762914192430326,1.1936736164645536,-0.012693065863280402,-0.0366997833018077,0.013113274286106936,-0.9319389176045194,0.01089748605999257,-0.01256675483024616,0.010919134454962244,0.013599024019332781,0.3889697363799079,0.044667687074066396,2.1796875
0.5394402320616607,0.2936926084097173,-0.3915029120623624,-1.0831501880500845,0.0011888375691622188,0.017406702450272055,-0.01769947875765064,0.9236482025319334,-0.0007341544458551142,-0.0204029451781637,-0.011900415248748415,0.004970458566604093,-0.1132078901002018,-0.14314449342586508,2.1875
0.6914806066258917,0.22581481046797555,-1.3533083592973982,-0.022583007914129396,-0.0002963095679714133,-0.040937076527639865,0.003401592137473161,1.591123751785059,0.017780602436615355,-0.058419983095745934,0.012954259632950478,0.0006187698425656063,-0.9393288216300453,-0.12914919476168765,2.1953125
0.3810464995714974,-0.004499765816266212,-2.186733881568308,2.345064642400587,-0.012836173145404329,-0.11622746256974335,0.03853427506168838,0.48029382502957385,0.03764496309162992,-0.07560233487726695,0.04396144973174096,0.006793200229761183,-0.9545861140652776,0.01706802556324142,2.203125
0.12201496251421197,0.07401295478162823,-0.6479578876581576,0.6914061042047713,-0.009304737921175863,-0.026377699224075492,0.0067316638430489325,-0.44078408529350704,0.008952076533535622,-0.016256995767960268,0.006667503030931685,0.011098785449936963,0.21978858575827953,0.0003452755717467829,2.2109375
-0.16757320591970568,0.07338637902286979,1.9068987883773263,-2.5837631046718306,0.012262605129024306,0.11053413602540489,-0.041019970427666516,0.16285425860313887,-0.0337933224820565,0.061855049217638125,-0.041858454427347015,-0.008220128015993668,0.6124553598484707,-0.0638306042342892,2.21875
-0.6131169996327409,-0.3947421947682319,1.8974098053480362,-1.217704026372257,0.020099795525191644,0.05302615307852044,-0.007274318284528675,0.9928143067355198,-0.02005869647187497,0.052961872345205496,-0.006017599058879691,-0.035166098804175504,-0.8035792916842376,0.08174019736631565,2.2265625
-0.7733088425580394,-0.7179014324190263,-0.22411228682767753,2.752873316728008,0.0030002887014325377,-0.10136150977165509,0.057081682524140226,0.4095302608480014,0.02443979138606309,-0.011598826775041246,0.05776269175987811,-0.03126703912457461,-1.7060934616797463,0.2621837082811393,2.234375
-0.5091136045096832,-0.35017340251135814,-0.3926458262300444,2.2672928348012324,-0.010004998551740054,-0.06710972081527895,0.035580663806242606,-1.0398354887553583,0.016149416758441063,-0.002800658698930382,0.03160706119535094,-0.0012568613822565974,-0.1591289464070297,0.18293129728255544,2.2421875
-0.30047165431812534,0.14494578751841086,1.7740349711998344,-1.8808731624741584,-0.0010375825743258909,0.10909022995448737,-0.04014371198745493,-1.5413652579379513,-0.03455446881040721,0.0738026724070701,-0.047549461039684694,0.012280725255385738,1.7525489724288819,-0.019984999453141482,2.25
-0.18584729010648948,0.15203617380044707,2.0373534280443906,-2.7105843413048363,0.008060003009640106,0.1260121142045483,-0.04779783344115333,-0.50669006078144,-0.038581794140344565,0.07260830018816622,-0.05135116623676478,0.0009040234708211041,1.2126395698928647,-0.06876492592734595,2.2578125
0.25219150218845426,0.02792239991158779,-0.7531590712214378,0.4044321336195529,-0.0011550335225945613,-0.035339718758099326,0.009376997649234477,0.7776166111209598,0.012735686586775307,-0.03134008741794509,0.014230244773342176,-0.002326129106247121,-0.6457051130620378,-0.029790285958869688,2.265625
0.764291901041843,0.24665733821410427,-2.3287336990252516,1.3647060012152255,-0.011791782352920964,-0.09143518094627226,0.021087209309286974,0.9119286002295182,0.03327028691232899,-0.08395110672362013,0.029130026323941384,0.013286183744757082,-0.7749967656385983,-0.09435864529427715,2.2734375
0.8304311795048438,0.5902420077172392,-0.6812251448978343,-1.4853389928006224,-0.007527385013357003,0.037659919964388736,-0.03317753377242277,0.1515487770998079,-0.004608202353653552,-0.02211933147779647,-0.029306649785145668,0.0260319662467326,0.8464811165306881,-0.22076007717600477,2.28125
0.7339136161608337,0.698515403776766,0.4352519225337829,-2.9793949817629595,-0.003672960170962434,0.10965231602018859,-0.06064576288564192,-0.3027761176117969,-0.02675329302418868,0.01900775691805369,-0.059685598353379055,0.029075060623922417,1.6668938489453315,-0.2612262873165905,2.2890625
0.6723107775070593,0.4443603234645332,-1.1936516391620695,-0.14300976741033009,-0.013298163721733536,-0.00867075943875556,-0.011897063123709207,-0.26031191847006,0.007879057598927158,-0.03523640033842028,-0.009388246727414411,0.0269523205625527,0.6627418075108283,-0.14026574803221017,2.296875
-0.07376495240765221,-0.25734921553759743,-1.9630690490454257,3.433467986721669,-0.0162549337490013,-0.13763222357166519,0.055530968375889125,-0.36726395905904635,0.040459437588675956,-0.060587389714675845,0.05655957580351332,0.0039421951622577965,-0.8592437538221566,0.14460509504680927,2.3046875
-1.4228015033268724,-1.0579676124523092,0.6033775748473413,3.466402389395416,0.003944481678324441,-0.10166752421091282,0.06984172565233983,-0.4490180644631188,0.019528511980613124,0.02309986712811532,0.06493917804533714,-0.040626977234109594,-1.5921488508106607,0.41423742499035293,2.3125
-1.7594298246589646,-1.1072499245770246,2.9760930063495348,0.6392741863345253,0.023733489177554176,0.019192039864100122,0.029383509826518883,0.04850365222036244,-0.018843960084578316,0.09613866179984089,0.023322636834430685,-0.0598942378987575,-1.283483084840506,0.3759167718573627,2.3203125
-0.6032842528967826,-0.3218924257230309,1.9670196497998904,-1.3388374508399332,0.016844689043455523,0.06483676037018125,-0.012902500840336216,0.51126244842186,-0.023547491914188153,0.059911592384055655,-0.013542958224207409,-0.027830419171508428,-0.3481211023166208,0.07239864631539072,2.328125
0.4266258512787586,0.29357964007050663,-0.27567992162519567,-0.8898948211677189,-0.0028606429297770406,0.022279020516316812,-0.0182585363553573,0.2414033952101042,-0.003099789829805405,-0.010099981608419824,-0.01536858224927636,0.01114609437442571,0.3384210024564332,-0.11717027426144579,2.3359375
0.6408144116083279,0.37111055166988305,-1.2485298468582096,0.03031798604511116,-0.010855663887615191,-0.019994780028906714,-0.0061247949204803875,0.08915175940809343,0.011061525961309163,-0.04045415938364266,-0.002388890698883436,0.02082483296073557,0.29125272150783743,-0.12544230210729837,2.34375
1.063219365420195,0.6164266498356556,-1.5836729630742197,-0.76304594604369,-0.010205572947832687,-0.006056346119552434,-0.019887184955340222,0.6494237572474079,0.010183927437673058,-0.056410052160387324,-0.012754669574103912,0.026811213528066508,0.3233141372494754,-0.23672758996492085,2.3515625
1.3684508672189482,0.9212533256864643,-1.2267440645660608,-2.2909909030124256,-0.009568528456673156,0.050962419683236636,-0.049330239689714894,0.5833861904136737,-0.004407693150242677,-0.043608320389867686,-0.04207436322166976,0.037814826308998524,1.060154909419303,-0.35629172574031487,2.359375
0.09461318976695887,0.25925435557116644,0.8616940147107632,-1.6693936886874658,-0.0013818232999968309,0.07671763319250521,-0.03428134033051835,-0.6522975618471464,-0.02183570301562948,0.035594048281148885,-0.03661236124840272,0.01276527854194587,1.1583327446835532,-0.08564576021289415,2.3671875
-1.6103689710967521,-0.9470501568257743,2.3278391350329963,1.2663178636823762,0.011646716463649339,0.0029763626979678465,0.031204020298539387,-0.9406277342000231,-0.01297552457612152,0.08452786439020238,0.022411357238189312,-0.04026098883414616,-0.562015245563601,0.36462064704955294,2.375
-1.0854569854743106,-0.9452949776333587,0.28353905240342714,2.8872876250900528,0.009192094868320694,-0.10244849372615528,0.06456959189955329,0.6626421458807655,0.022398015979352544,0.0022438902287484175,0.06493042942303584,-0.04551635531823948,-2.149425153484476,0.33092754394166135,2.3828125
0.8688368572910009,0.28036386067991437,-2.2794986853281904,0.9381578581267803,-0.007996380826377322,-0.0836780883409017,0.016454239039574395,1.421628707434261,0.03176861990391335,-0.08710061926488143,0.026664390382985206,0.009305842720720742,-1.0066942430662236,-0.1286726075546163,2.390625
1.0194227901921464,0.7832001324590323,-0.9462279773053874,-1.6176574461318667,-0.014295642058981897,0.04669300025962062,-0.04170372477140607,-0.4330199734735116,-0.005886219777809728,-0.024946117977014886,-0.03929192925841571,0.040950311281038654,1.4988486224048345,-0.2666660012699913,2.3984375
-0.604864234005571,-0.026605469906008886,1.8333885504262353,-1.0036079941879272,-0.004458217862035573,0.08962192513571854,-0.026807548550383534,-2.1828787448239795,-0.03112640902200727,0.08157227806580632,-0.03733784679953631,0.011499338146372004,1.8313321889063914,0.07066591623260167,2.40625
-1.0344062576020423,-0.5711599083935922,1.2042436053673309,1.3158340167395435,0.00037554485313814586,-0.010322827110535854,0.023800526379495673,-1.2303724929942725,-0.004694644517902693,0.05100460097220746,0.01637915778206944,-0.016503120995736347,0.00636482011528905,0.2501973332858749,2.4140625
0.21111805828649133,-0.03550381427916051,-1.1718443129059912,1.2226598265148865,-0.00506556907755688,-0.06608684234271262,0.02225244834080426,0.5892147748522816,0.02146922535262904,-0.043389537793206374,0.026731574577733487,-0.0008198485779986911,-0.7795357107813736,0.008620928717967826,2.421875
0.8211944718215598,0.48859171240738153,-0.909609941749985,-1.1081793475056467,-0.0045890550395017585,0.01382369481517855,-0.022573428095942562,0.7216015650882852,0.0024378557884435913,-0.035193192359082345,-0.016404161657405606,0.01747087303046234,0.2325287796019076,-0.2013101282669862,2.4296875
0.19031111200303863,0.23749996951538688,0.7404040660269511,-1.7989762142802723,0.003199509669216209,0.06896872026870415,-0.03213381293790371,0.09468466498079378,-0.01875589656779623,0.024530717734726065,-0.03128129845503287,0.005078627978076117,0.6232830942577372,-0.10557224157959079,2.4375
-0.15420555264411173,-0.14745613985314182,0.21772752227757694,0.10959095614404403,0.003456498969407774,-0.006412190394758232,0.005856044593565893,0.3958049727992095,0.001014442744584504,0.003924942812831482,0.007514183381320144,-0.010605112030711234,-0.4617973121684765,0.03766540678931014,2.4453125
0.049227622507332224,-0.19369739752741705,-1.124819162834244,1.6381185925633768,-0.00222857354215893,-0.08270640221581202,0.032756930851537684,0.845652461360501,0.025233986246549104,-0.04448509923516884,0.03777629414545316,-0.009947240525815944,-1.2274650795941613,0.058086696283755915,2.453125
-0.23113765080753462,-0.2786624576829002,-0.25509123394664135,1.1124468826106892,0.001403592143674629,-0.04784924066228948,0.02423697127653466,0.4788202871648097,0.012725335712895653,-0.012620567954483432,0.02640380074336445,-0.014213849684030434,-0.9077828711408646,0.09185660259162,2.4609375
-0.6743832107963826,-0.4149224799200983,1.3389749254200412,-0.08461910533858452,0.010373452908331167,0.019142782164596465,0.006342326414948904,0.1438277648886848,-0.010558008653919947,0.04263623896801926,0.004769489302484733,-0.024615512154835633,-0.4902482020802138,0.13260312343819944,2.46875
-0.14489474148134895,-0.055356024162005864,0.7365881482871217,-0.7568159098732617,0.0052117422718319035,0.032265174837606145,-0.010125564625477578,0.20786557232949082,-0.010422384611793466,0.022825524712918384,-0.009648131040420524,-0.007729130166506426,-0.01348630787432347,0.0018042114124518485,2.4765625
0.8155657881204004,0.605474786063606,-0.8720514890870299,-1.1102755216094216,-0.01198271526250711,0.028568385826063865,-0.02984937094159185,-0.285165962313339,-0.002065317453504447,-0.02422538910170193,-0.027500455822805945,0.03197836325651627,1.085757986087028,-0.20586840238331547,2.484375
0.7286410968695018,0.6346572329665379,-0.7376561083732742,-1.025690681151626,-0.01637385111320142,0.03795051982735228,-0.03282818032620395,-1.0155043931945609,-0.00558100184806507,-0.012817805325205326,-0.03354418003444002,0.03970512122605745,1.6284469820411578,-0.18947804375184427,2.4921875
-0.24652263276341949,-0.0692412568652034,0.5649749944568534,-0.12652928150589912,-0.0014468432574797454,0.019874030409651196,-0.004149321919317675,-0.5768101125325293,-0.007597875048022555,0.02464630439747687,-0.006686584353369979,0.0004026423375351445,0.3874966212925034,0.04164588767457871,2.5
-0.7313764586084323,-0.5456299142689085,0.8679732538903298,0.8483993063068812,0.009318659536392031,-0.02186131485530052,0.02430618399989664,0.36587771042712774,0.0011914950212837043,0.02485616510514506,0.023886812201842297,-0.029604769611663702,-1.0196356467687264,0.1808916660956172,2.5078125
-0.3791333983714562,-0.30228486292941004,0.1481400684695264,0.936166887793705,0.0011014679022932437,-0.03027011240762098,0.019698937218539225,0.04033108100362377,0.00634350920773334,0.004699150105276715,0.019526361406044565,-0.012885708430685113,-0.5648414498725242,0.11228697050024498,2.515625
0.11821732246096903,0.12649998267136645,-0.46045170052462214,0.4120492123577043,-0.01024791739180932,-0.010380413121245423,-1.3444318958414688e-06,-0.7225919524849156,0.004150244850005549,-0.007318871625238391,-0.0013084416928839412,0.015015842471344427,0.5490442882707036,-0.011203830391436674,2.5234375
0.41879533115255924,0.2575927516745032,-0.7633375516843888,-0.06090756178553227,-0.007827631792446513,-0.008669320642967349,-0.006076632272927903,-0.014831702140669577,0.005987874647902562,-0.023739631784902005,-0.003711802091794265,0.014791025370668053,0.27980049459172446,-0.08529838208595857,2.53125
0.5177073772719645,0.21769863901538447,-0.7284112933954205,-0.4738433932324589,0.0002712911930306961,-0.00969071363458022,-0.006200861547402793,1.070572136117202,0.00714552542841615,-0.032965092193253075,0.0004739025663606361,0.002221580787501143,-0.4497106677219012,-0.11466807906858832,2.5390625
0.29277198118891234,0.17489899571596257,-0.13776440144624483,-0.7084034835083363,4.247662926675065e-06,0.015130830989656287,-0.012276798468832261,0.44562099423248075,-0.001987631998363008,-0.007721185822492124,-0.00900923978242021,0.0036580097530290556,0.026036736384471012,-0.08223227933955707,2.546875
-0.06872653153858471,0.05991310466546236,0.2861383490763273,-0.22237258095101892,-0.004805994548017128,0.021013980207407787,-0.008609856452002407,-0.7067217074464035,-0.00659528798290491,0.016966108236280118,-0.010940706639650619,0.008311092108440624,0.6337394265993653,0.0018836045121221868,2.5546875
-0.2589924526134039,-0.16851809047809027,0.08001364729021389,0.6891005233937293,-0.0024421020135848544,-0.01781019170234735,0.01160396909308934,-0.3168614055171991,0.0035136482113765216,0.00613893456594895,0.010424036190298767,-0.0036387681713350205,-0.1088319169648637,0.07670636659316944,2.5625
-0.5309154528851519,-0.4378631993511066,0.5024826703839929,0.8144139916066363,0.007324819624041702,-0.027525350297612834,0.02251815850828102,0.49500635407964766,0.004413908477596314,0.011825058094838688,0.023333473729623324,-0.024684750538235527,-0.9999007558502548,0.14021058158541028,2.5703125
-0.8716709739960855,-0.5404283222076554,1.6812201274755918,-0.02657679346500774,0.013405879576155163,0.021638076734214952,0.009619864328932573,0.169184704059008,-0.012786248610972023,0.05339506071851126,0.007339072454541881,-0.03167091118078623,-0.646669131131592,0.17424595840076065,2.578125
-0.42634322204710595,-0.22072312148413897,1.0818014159585503,-0.4302087874764949,0.006618577132055866,0.029431141362803056,-0.003288986830594097,-0.022477680316586948,-0.011728552477131773,0.03605222037064298,-0.004684539422890514,-0.013852056645904776,-0.08998079960548133,0.06910377658625005,2.5859375
0.6729758702537761,0.31310366266516715,-1.4820151260641585,0.289025803855055,-0.008781421948585479,-0.03883304423003719,0.00147137526386494,0.571025746057286,0.01693833342722089,-0.05284207870710412,0.007244129375809084,0.014935904519912639,-0.18588366569040962,-0.11913498470519661,2.59375
0.806484802187604,0.4393945353746104,-1.927018204862177,0.6220259022203535,-0.01654769692510947,-0.047792146138651244,0.001323275636589644,-0.02402565006654584,0.02055272796312739,-0.06157747229681636,0.005611646982894647,0.028218265292385445,0.28946208827414627,-0.13638828788127738,2.6015625
-0.17154991404530162,0.14917405736631198,0.8183187078354903,-0.7246813632772365,-0.00831308329159196,0.05864480119199387,-0.022856971141141543,-1.6538108382319632,-0.018620267139969414,0.04352609414417758,-0.029473578088304128,0.018533747322118196,1.5445765372431515,-0.0021165656262242326,2.609375
-0.31053851330645726,0.09994268891962652,1.840423343586069,-1.9736200380080735,0.0023395836429971053,0.10774548947854617,-0.0388228528663198,-1.155978646342347,-0.03420411602824176,0.07226393779643442,-0.04484588649280468,0.006290579718094541,1.4503503740476382,-0.019370399387524807,2.6171875
0.6615324369304765,0.28992005510742674,-0.9425526906276391,-0.5810679913633678,-0.00017233735849645445,-0.011742451952132393,-0.008148178487387994,1.2548184366481616,0.008852869209641855,-0.04162944365366322,-0.00031854537051168394,0.00438455467070054,-0.48738201799200925,-0.14638916771320334,2.625
0.7308790887762987,0.09892619547252149,-2.6562645165190193,1.970527354967342,-0.00846947500069554,-0.12605292062418144,0.03665292122528231,1.6021380236736547,0.0433159474197325,-0.10144674599496652,0.04751739345509912,0.0022068704465430097,-1.5813701871786,-0.060793207189286484,2.6328125
-0.25138807087493764,-0.24109312613506279,-0.54971045788908,1.6850952017623393,-0.006270704617494666,-0.060310544874432825,0.0284635099346916,-0.2987795012650006,0.016169177300594032,-0.01482553867106285,0.027978153232851778,-0.003435866691317267,-0.4477222276288305,0.11340436484367045,2.640625
-0.3313211205217145,-0.05082243145326193,1.3368850946654063,-1.1201766966153759,0.003973739105909108,0.06333102739575465,-0.01969022251228421,-0.5357812850975685,-0.02112234302597229,0.049597439194402196,-0.022969927511837147,-0.0032724848510860007,0.6293594023256238,0.020845781294506826,2.6484375
0.37193057416556075,0.2181338735844391,0.3282999917533206,-1.7401208277250753,0.007810501250220578,0.046618671084341784,-0.025535749596317634,1.1277292123936853,-0.010648107783587326,0.0011254680748057466,-0.01999796113370193,-0.0038146444041008277,-0.1682934935070871,-0.13368637762648133,2.65625
0.08233158984904988,-0.1346278276686663,-0.637334462362191,0.7320643635443815,0.002477863002068146,-0.048936858748996906,0.018839559743084325,1.0816407373578805,0.015491318153274702,-0.03065632095812978,0.024418969424666398,-0.012452528602392841,-1.1113669574927652,0.018183604731968422,2.6640625
-0.7014638516949981,-0.4406948320884311,0.3640661149405355,1.6276611126607108,-0.003124015389100016,-0.0377583308374122,0.028238541615889314,-0.8464829411979321,0.006033056071482051,0.020031441582797484,0.023841060434128043,-0.010730081938180596,-0.22590999691705085,0.19783761241719897,2.671875
-0.44888522948657306,-0.03991440270744854,1.3231881636241167,-0.6873476680103171,-0.002900978470862131,0.06210618501682862,-0.0180719834829661,-1.4855258501131976,-0.02172835108644993,0.05818180000082508,-0.02516722080220995,0.006670931670706982,1.2265803256973804,0.055573995569628006,2.6796875
-0.04567160544798641,0.187517225962451,1.2375804508632078,-1.838884178013868,0.001500385689271672,0.08759708801333577,-0.03563193405095088,-0.6465451951694641,-0.026150792678785787,0.0477664804696198,-0.03860512987724024,0.007866156643471794,1.1276850761170325,-0.06405158544929088,2.6875
-0.6459451728146598,-0.3269711980556179,1.127287098719282,0.2051844439854509,0.003092465752602463,0.01737370753020207,0.005320855622467198,-0.6290697579053552,-0.009891559263306286,0.043199135667063515,0.0010722421092375007,-0.01232057139599896,0.08818678586797302,0.1337066386965405,2.6953125
-0.8753304888807841,-0.5147040499840374,0.7015838240200951,1.629458755695915,-0.002318167706030149,-0.029612383721367132,0.02833306785906264,-1.0996085490926208,0.0022594444146957766,0.033409164628989185,0.022193565409049792,-0.01293438394636738,-0.11425183803067801,0.23117036433599092,2.703125
0.19672411713456803,0.10138495330857382,-0.6236178816532973,0.40542119697045226,-0.006940430717772186,-0.02102444556119162,0.0034790436845683016,-0.11579414419393068,0.007958356088998397,-0.018471742558105166,0.00478887096562913,0.008823931986128734,0.08090218892941786,-0.023719549777271174,2.7109375
0.9122114651280712,0.3850721502703088,-1.5359711162204746,-0.41196676381695974,-0.0020914139637017355,-0.03073400575508899,-0.0053508519913604636,1.6082175226171453,0.016428931445313058,-0.06435136014720601,0.0049233220968731535,0.007770469024558334,-0.696904820969284,-0.18791396747512557,2.71875
0.48730057170195007,0.025745958180541716,-1.3815095475716421,0.6486567604598918,0.002003234218572831,-0.0670983828543461,0.018577291645513503,1.821091167077924,0.023996205675155344,-0.061866074224311514,0.028497708567445674,-0.009522826222808027,-1.476136153426803,-0.06155930653022019,2.7265625
0.47765879664908495,0.14466808209641172,-1.5697643810148671,1.03839812894781,-0.008923882232872578,-0.06460905309836944,0.015864559337416328,0.5327299234981561,0.02307776748001793,-0.055611429330510234,0.021149107532833833,0.009037785423026606,-0.5137105711598295,-0.05190885636134611,2.734375
1.1462576591064055,0.7379575553564913,-2.0551942059103308,-0.2169632781261651,-0.020623092059831385,-0.017678472442326978,-0.01841813931328199,-0.29533100407373397,0.014179578674671919,-0.06273412110952407,-0.014182960150650816,0.043536429823109776,0.9959545383371761,-0.23767461368044532,2.7421875
0.7301903569368396,0.5030721658662839,-0.6871160701904638,-1.1632893402137054,-0.007008186005902163,0.02647240548998254,-0.02650373904060263,0.1775274688454889,-0.0020407965842130075,-0.022699210632424544,-0.022760513917832802,0.022308537947127144,0.6601126879141187,-0.18828854607638154,2.75
-0.8087793607004108,-0.482989598789494,2.2584645775003667,-1.183038998523887,0.021033021247615035,0.06056992516841182,-0.006495822236535892,0.7277651634111527,-0.023815078380349134,0.06717081650813875,-0.007052630399421827,-0.037943807457073396,-0.7052074610765852,0.12065908555778539,2.7578125
-1.4197502165909743,-0.7642433924152586,3.4352428844845204,-1.1637327257341288,0.025075035279783317,0.08655760750623366,-0.0049418576576172124,0.007150487329939437,-0.03623197147336281,0.11217982979344232,-0.01069862774781898,-0.04814345814668793,-0.4568437919469567,0.23909515757488778,2.765625
-0.5588955077578873,-0.10537898859508465,1.610984819171285,-0.8189256671364508,-0.00010275455140056187,0.06944502431000754,-0.018564148066395586,-1.4058910892237435,-0.024736379376838338,0.06679062699691546,-0.025883066966769553,0.00176755434618525,1.1376302255098767,0.07280504033557235,2.7734375
0.26983042249272987,0.3614255301358846,-0.5380701480504657,0.10817341687171615,-0.01897379663262664,0.013031759589179626,-0.01415146799320383,-1.7374815472998257,-0.0017375096771847863,0.00017906031903376114,-0.01879187198572638,0.034917046021072144,1.601351192331674,-0.058780631872424424,2.78125
0.28131944953893656,0.20848428992669374,-0.8985683702153155,0.6150443874806347,-0.013524213336079534,-0.02336075410461049,0.001686915417732719,-0.718169459761951,0.00923448802998165,-0.02156900426774514,0.0012163292796566506,0.020529079249331325,0.5742542359490175,-0.03595155796510452,2.7890625
0.11996582148642249,-0.005949994812910877,-0.6713679615124646,0.7084361982858502,-0.004512162788127755,-0.03638039066703201,0.01171300678884957,0.20755068677162608,0.011953693610656114,-0.023260744362713713,0.014128871050053796,0.0015615168029845612,-0.3383943149224977,0.0050159541180398335,2.796875
0.2211231587811955,-0.024843443952273003,-1.2237167008769965,1.277488715286311,-0.005979344892629577,-0.06753930377452183,0.022495607056354054,0.5163122397287768,0.02198769720516771,-0.04436783806190489,0.026801199445210082,0.0006110333155896588,-0.7286802659125848,0.008308582124774616,2.8046875
0.23916304479230793,-0.07268996665752876,-1.356329820839084,1.4198219989359686,-0.0038201209210946456,-0.07985118425623672,0.027651433519485173,0.9180085363329088,0.025812745276692212,-0.05262747952305637,0.03360363792562614,-0.004608705523903691,-1.1070948500533844,0.012342784637139649,2.8125
-0.10782490167667672,-0.20462750550104783,0.08122046939833119,0.15812242427245615,0.0075500621094273055,-0.01967141273754724,0.011190088674165028,1.071733482127012,0.005350688613684775,-0.007131487222232438,0.015593590964192152,-0.01889494292975226,-1.0270883057660611,0.03416888385102895,2.8203125
-0.5347612228801706,-0.2870587927248042,1.4397182734015708,-0.6811779845502858,0.010527614602105717,0.04050188721795006,-0.005171800900154999,0.1472590630462809,-0.01581965328379268,0.046111126393382315,-0.006467976322481477,-0.020064420904502535,-0.21494025715828344,0.08205948394866207,2.828125
-0.5928657743016589,-0.2813985563851437,0.9833618784473073,0.27951997379883015,0.000779488212219344,0.015221188829135956,0.004809033672612332,-0.7905199702074198,-0.008851887126741167,0.04007184215995717,0.00023499030393531214,-0.008136682839043582,0.23327526317450265,0.1250412243948534,2.8359375
-0.34605654978556016,-0.22164428501049127,0.1425066493557636,0.860313593328063,-0.002491688376377919,-0.021265999495153044,0.014726716885693698,-0.41624291270210617,0.003881771450692154,0.009014199248925941,0.012841476156273153,-0.005093121799710525,-0.1315908646285973,0.10003857395481636,2.84375
-0.18419208633361722,-0.09743339895485392,0.6067089326439326,-0.42127005558906516,0.004168182517331276,0.02000924613061124,-0.004415062981770663,0.1560962074007706,-0.007077625780772983,0.01899094437838773,-0.004181438204846854,-0.008229189830313583,-0.102802551288521,0.022021155711583404,2.8515625
0.054418237415928515,0.1626345769647977,0.7277361220490145,-1.3409673774014559,0.0009820944650955033,0.05817780703927001,-0.025428149263875353,-0.24930117101972704,-0.016640368035028257,0.027235179030706314,-0.026172684172812134,0.005574106610732577,0.6845929140108518,-0.062856245777731,2.859375
0.7265829269214503,0.521378537932479,-0.9609348468460962,-0.6860593378488568,-0.012265282123546677,0.013257388147333569,-0.021860044153310346,-0.2909224365715275,0.0017736365893740013,-0.02719066424508716,-0.019586535601417737,0.029118200025302708,0.8998949747111601,-0.17197791500706144,2.8671875
1.1672561848459555,0.6545936355995694,-1.8809316427644627,-0.6080770350629403,-0.011640513162900578,-0.016913705211033803,-0.017610399570982635,0.7535883104934725,0.014190041566047352,-0.06709615060231854,-0.009574426932600664,0.02884900077133416,0.24438395107933325,-0.2509506665064762,2.875
0.49790788247946266,0.3124700685478671,0.011152514579113898,-1.6065006975908167,0.0035237268327357467,0.04110443936007774,-0.026355550481877252,0.8830178594133371,-0.00806169465055853,-0.006803105422153985,-0.02116270869176574,0.004046323881878106,0.06885571149282298,-0.1549183936872672,2.8828125
-0.46845022118561025,-0.13997729522815797,1.591383488600435,-1.1089702397420296,0.006415767321054273,0.06580963895690715,-0.017679397064581475,-0.4869057314163195,-0.022866574530847717,0.0573517283558706,-0.021312658142330475,-0.008645528452864497,0.5031304932103109,0.0490208102750545,2.890625
-0.28600160059625207,-0.15106073885281152,-0.059425782051581805,1.0200405200737823,-0.00696108808062776,-0.023961798233489456,0.013890191268091982,-0.8081895878318683,0.0050892009938309,0.006242440028460042,0.011000921165542212,0.0026791786112749963,0.18446789847344627,0.09209056976070376,2.8984375
0.49533469201658464,0.10695865505886679,-2.0178728727878132,1.7153747097892722,-0.011874537876386563,-0.09319720361973259,0.026933657436292606,0.5179323262925417,0.03168270704751185,-0.07020172018080223,0.03260368351312077,0.009985363128255532,-0.7125492524821347,-0.029755158698825557,2.90625
0.25232565617469116,0.02509579132274435,-0.901392248390251,0.6522628173918961,-0.0030409034239154064,-0.04383288004527664,0.012556921893284183,0.6501141854688464,0.015217645551998797,-0.034960508097597355,0.01711674669225207,-0.0004095638508019237,-0.6179618600803464,-0.021193196039687917,2.9140625
-0.7532907660058079,-0.3812246288678582,1.0633404834779943,0.6587770590137458,0.0002743251150465192,0.006533561676432447,0.011372480621262634,-0.996849559892352,-0.007527048284932891,0.044504343247091155,0.005644608203311652,-0.010494707868555279,0.19017381340688835,0.17032395173785186,2.921875
-0.944699055240833,-0.525100655076649,0.8087780492616126,1.6843022209941718,-0.0036659362690276177,-0.025830109754434602,0.027811731319568874,-1.3952105472066676,0.0005650042717210584,0.039696146684935846,0.020387406049420354,-0.010962102655545184,0.0791534282106821,0.24543432763022244,2.9296875
-0.2085220806293,-0.20739756614122018,-0.09680005642191021,0.797626549054278,0.00011980962983169609,-0.031150543224358288,0.016627203821146127,0.1915450968821047,0.007898950711604949,-0.00461186587505888,0.01763944416600365,-0.009325414890155198,-0.5472623576781215,0.0736996192489301,2.9375
0.33550580432874666,0.20222783370700004,0.2988581178482364,-1.5707191438682608,0.006592962199419358,0.04271154481432176,-0.023364865389204084,0.9729695126249014,-0.009777315861381005,0.0015888895420502979,-0.01856001813037655,-0.0027658061141602654,-0.11424513323767549,-0.12081228065620571,2.9453125
0.46082126841645543,0.3796287760468951,0.2236538573454669,-1.8090131205524311,0.0003006195817795303,0.05960797494788238,-0.033875560671638424,0.2651751609722946,-0.01390233856845193,0.006144610108875264,-0.03132534634896751,0.011766072638337208,0.6397476019135075,-0.15880873732562326,2.953125
0.5501970038674209,0.2781450332079386,-1.1987246403969394,0.22122602146916415,-0.00869913548307781,-0.028662855330106606,-0.0004249660254245862,0.2910657034394608,0.012945645529190346,-0.04092289471327688,0.0037664551017902955,0.014846114598719538,0.002745399590217665,-0.09889392891846117,2.9609375
0.21109731880239924,-0.07044360889592752,-1.0235363866797118,0.9596306010724006,-0.0006664213338073009,-0.06160119979911949,0.02113399909665822,1.045752682128741,0.020199808541201895,-0.042909011534161386,0.02715625613232465,-0.007522028970898607,-1.0814082799664282,0.0011161358829796847,2.96875
-0.8106671904865776,-0.5113503323096646,1.699101936617371,-0.25405236008192467,0.014856570742833728,0.026575647565857508,0.006643382470037358,0.37368440158742944,-0.013790650353239533,0.05210941663079409,0.00523085782144392,-0.03264304559398046,-0.7108116082018118,0.15459228683330187,2.9765625
-1.374382162072216,-0.6486909567618384,2.9740079500771603,-0.5059816529619817,0.01329330942765874,0.0742541597984293,-0.002699153367960326,-1.1438666459159788,-0.03236527300166309,0.10816730391528286,-0.01222599827185826,-0.02967649864837313,0.3324072776757096,0.24876685865628975,2.984375
-0.48655700023952925,-0.2078761332513692,0.5685855813732583,0.6356090093328133,-0.0045159694558861985,0.0017808839161395096,0.0074260706449889614,-1.0966937939140935,-0.004096063096039946,0.029514794896693175,0.0024241349271268454,6.6769659145190444e-06,0.43873044892271157,0.11569758100967367,2.9921875
0.7952660805221409,0.45443750612562017,-1.7808524802494061,0.41903341276856637,-0.01601364146477477,-0.03812808633612131,-0.0024123048294181857,-0.07966895109459425,0.017619281108066816,-0.05619680815343449,0.0015389768382205059,0.02861921232885111,0.39710837997513737,-0.1422586484445352,3.0
0.830648112660076,0.6356122577180722,-0.7115377653606507,-1.4193626384939304,-0.010907381760130208,0.04102110404506382,-0.03512387233468229,-0.2685474627232704,-0.005598256164085642,-0.01905378248379201,-0.032800460250314856,0.032190155976528134,1.182565124024523,-0.22053904257638285,3.0078125
0.02176953225479205,0.25599151471689113,1.1633383191629212,-1.9222400424591568,-0.0006002659576649948,0.09197747003580045,-0.03912917055271864,-0.8299691834201948,-0.02694941876592963,0.047189393107679195,-0.04248948649926103,0.012828746649395827,1.35113431270335,-0.08177458876876915,3.015625
-0.02948216936585153,-0.01558927141583298,0.22711563665940843,-0.2828616297959269,0.0012762401472390101,0.010053887969377041,-0.0037822350015576755,0.1619225352675181,-0.0029732039242761276,0.006627074978514799,-0.0026626104164356105,-0.0030435724108080066,-0.06077853975259448,-0.0035072099726399745,3.0234375
0.6277315587401792,0.12349167233583974,-1.8660444150940703,1.0166998250855368,-0.0041083652531783595,-0.08126116777027094,0.02074017169821226,1.4792785968638764,0.02924020988573551,-0.07434153536196231,0.030210937676132858,0.00029890088408780324,-1.2228684763396476,-0.0774546904032019,3.03125
0.5973795348857893,0.17764969692353308,-1.5922262645025076,0.6834524436814324,-0.005310899673786413,-0.060695874029940394,0.01259898936424604,1.0811693811273344,0.02288022100511395,-0.061495270701845094,0.020197507097720797,0.004999883793039102,-0.7932917649644012,-0.0862517257839385,3.0390625
-0.08794500411505568,-0.06336097757369655,0.08842192749819835,0.13089422182682725,-0.0005488172067141688,-0.0036284552148471215,0.0027788214849332393,0.007089162662542225,0.0006316864822585957,0.003459813239736285,0.003195079434264545,-0.0026990589222508046,-0.10075668736923717,0.02327779682836529,3.046875
-0.0647040790641368,-0.07427970939150358,-0.21322695429715374,0.5491266794155959,-0.0029427571056281224,-0.02112664861582241,0.009189639680936695,-0.048255583906172905,0.005992950231326169,-0.005938544801543382,0.009747085661095339,-0.0010094886457583912,-0.17761397159633552,0.034341150217321204,3.0546875
0.5970660871452069,0.2399369285755112,-2.032664750886115,1.4385378280557977,-0.015663368812972738,-0.07821221841955078,0.018111086657853517,0.08208727422180671,0.027981825100627307,-0.06637709157199381,0.022387704323726686,0.0197359356321981,-0.19262406060628906,-0.06280394963026947,3.0625
0.5010971865491831,0.22865776469833485,-2.0180841592643133,1.7383408618780407,-0.019576853006400868,-0.07995591202539268,0.02000069239494521,-0.49072025166729233,0.027709280335643276,-0.060461651075242547,0.021901224170971092,0.02490297251565003,0.1397997292597451,-0.03547259807549915,3.0703125
-0.2524098789351054,-0.13394638988220203,0.016225547164741908,0.7857774224022164,-0.005284778346594785,-0.017504955908739763,0.010851384013293108,-0.634256817106872,0.0034262716631241526,0.007092366818826759,0.008595669545173323,0.0012328679708532057,0.13361854962898467,0.07735141274017572,3.078125
-0.3362057785645113,-0.12602306511347733,1.2553016386764733,-0.9929873193807882,0.007518236904410116,0.050625453676560045,-0.013707029817056068,-0.0061723142068375175,-0.017345355027515535,0.04179749170530128,-0.014931444734795157,-0.011141273357480294,0.13577872716406053,0.029522948757553027,3.0859375
-0.1513320133145508,0.06188196441927568,1.542700800594543,-2.0367088781578313,0.008694762506643743,0.08950521455896998,-0.03319826349566161,-0.00033145355074672714,-0.02743874678714469,0.051459305177987205,-0.034242266617683925,-0.005164736981551926,0.5820543155611163,-0.04710326382932547,3.09375
-1.2517803732582264,-0.5680318216728357,3.440680256482141,-1.6769872703101623,0.020871108938226142,0.11056034358527694,-0.018834844196003293,-0.47199030310789564,-0.042096967554735645,0.11721025129856774,-0.02602446906818989,-0.03554255444203511,0.21777681398128274,0.18332444311207463,3.1015625
-2.882340223766519,-1.6596743248950134,6.23973786402712,-1.1784903514876537,0.04908662051912623,0.12381859086970019,0.01162341680800789,0.17815180737004999,-0.05839359067465946,0.20115260950484448,0.0003978980601535659,-0.10025005592020718,-1.4568720605640333,0.5308220603674196,3.109375
-2.516551608468783,-1.569001379567336,5.445735948908492,-1.0692597136784416,0.05048854937565957,0.09491974770828601,0.016886483317172588,1.185434557804976,-0.04694811908839126,0.1656831620580042,0.01100910385685536,-0.10251587587688088,-2.134364437858319,0.46767551029846605,3.1171875
0.029102640689311413,-0.03298199147807452,-0.1313924144309631,0.10659416589594962,0.0003143267796244277,-0.010737240224657793,0.0036261478302238416,0.35537065041050786,0.003688457219680742,-0.006999848042094147,0.005832347392686946,-0.0037934088736959943,-0.3199484292104813,0.0008543054901428588,3.125
2.248842064411563,1.3454468164870572,-5.67024966052665,2.274934346279427,-0.05558815485554556,-0.1359759472210845,0.0037604084731902208,-1.4117443603927446,0.0575489104807194,-0.16978370991579314,0.009770354621790132,0.0977430155332481,1.7733049110884864,-0.3682701328730974,3.1328125
2.75772232060612,1.6165515980269485,-6.853503413764285,2.6120449967760506,-0.064254677540159,-0.16483423002039804,0.0045518417466428015,-1.3412966656431635,0.06997337414546578,-0.20884922561246494,0.013152893956652726,0.11403847527807393,1.9011111763748376,-0.45634311706105535,3.140625
2.446687814082453,1.408709318766635,-4.925506028575072,0.38050500998971365,-0.039128849327039125,-0.08530707477009136,-0.018301669796342686,0.2362449020608462,0.04417102114281143,-0.16089010063766293,-0.006326303480589618,0.08000119653648134,1.1106106814172838,-0.47089270998135246,3.1484375
1.9453646134681417,1.1671574973426952,-2.9994691824616155,-1.2106783968915658,-0.021483698694254566,-0.012169339770175171,-0.03612682536561237,0.7417357916118965,0.01871425049079819,-0.10287330008051628,-0.02524844430322047,0.055292689687993585,0.9099412171112604,-0.4290244224112408,3.15625
