AF3,AF4,F3,F4,F7,F8,FC5,FC6,O1,O2,P7,P8,T7,T8,time
-1.7274544674894337,-0.9098494340103653,3.4021710342616025,-0.11252487160471701,0.018517135521780984,0.06469429132129535,0.008931785623813155,-0.9740316772132193,-0.03218998688960743,0.12018674991196543,-0.0012365755121946072,-0.04403113739886306,-0.14863335265261934,0.33500664400546354,0.0
-1.4381283430527332,-0.6944140519917638,3.324369420168042,-0.8894276903015045,0.018004875700652692,0.08787365583905378,-0.006268431386538676,-0.8406797759683182,-0.03681910202466222,0.11665778274001694,-0.015192711787380473,-0.036333023776659944,0.16511994148559436,0.2486633647602354,0.0078125
-0.1670090517850291,-0.10149576142307909,0.3069150041302102,0.021843618230282566,0.0010218143364463487,0.0032526001493275534,0.0016958415977376131,-0.0023124273146411826,-0.0019887669067424397,0.010620146103871228,0.0017338921951707987,-0.005255657434107551,-0.10286573456900439,0.03469168870142315,0.015625
1.4077495793657455,0.6208518151868053,-3.8566421501588346,1.8536483628006994,-0.025242265044475527,-0.12637722774472557,0.02093409637462767,0.69745500528478,0.048449716966197764,-0.1314386700760264,0.031220903419423827,0.03834228397577262,-0.3789250574065557,-0.2054845515613596,0.0234375
2.1372125943597817,1.0536209793018587,-5.373768421105671,2.051264138889612,-0.03799286271696269,-0.1529750269283996,0.015845876567508282,0.6070142291686355,0.06185462511953777,-0.179626421311743,0.028940886863121858,0.0644500184328137,0.06067370509245673,-0.3437348997526188,0.03125
1.421723197930384,0.7811721740630041,-3.126032200176679,0.6464419287024328,-0.024663134840055532,-0.06830073520019739,-0.003345549555237315,0.18142414739687318,0.031299906849085624,-0.10229111170009537,0.004348990086297714,0.04609059118160398,0.46759107254447924,-0.25687027112135613,0.0390625
0.04609056505024947,0.019231569657192134,0.13295908382189986,-0.37056755734126995,0.0014806594184417353,0.009832088007663116,-0.0050013933755931024,0.30275287876386753,-0.0022681624253768824,0.0022261189840962325,-0.003176300044448607,-0.002556906346867859,-0.1054185292466025,-0.020710726903164476,0.046875
-0.570686766275674,-0.4001829833422058,1.4787160010941973,-0.6654047876091091,0.016672855483945242,0.029968159956362584,0.0009934056883979523,0.9079618069960351,-0.012868560659594108,0.039969746031282435,0.002347588009048473,-0.03236184430777863,-0.8856077172250184,0.09418692238343296,0.0546875
-0.040143971909403456,-0.05346189878780354,0.8042872950696703,-1.2286205687305005,0.011417142277302112,0.03766181586205395,-0.013319605884286743,1.0172189180726117,-0.01113933005760941,0.01739739065304661,-0.009666612568846945,-0.016068636390887615,-0.4849714037017461,-0.032692351740383575,0.0625
0.6921244037768579,0.5178544919238207,-0.21146938649456548,-1.824707601900765,-0.00314272349229968,0.053781672542144277,-0.03652010915171947,0.2776193155636427,-0.010429926420204376,-0.007991273446438307,-0.03293019994606546,0.019433015869215843,0.768909405712461,-0.20552390850456836,0.0703125
0.6639404689221623,0.5772464182080889,-0.2883252510374174,-1.5738158423378596,-0.009569810604187035,0.055680469274190264,-0.037792637668823466,-0.5174035504227688,-0.011249235026218513,-0.0029101369577471093,-0.037171487215614356,0.030116961348144962,1.3487378464623108,-0.19448996163536159,0.078125
-0.09884551553100136,0.09976733123020674,0.6755122800114355,-0.7490268173285987,-0.003437457075795018,0.04650308528742069,-0.018284484464868737,-0.858852595027504,-0.0143317389551992,0.03116571467668317,-0.021676501671463334,0.009389963459800683,0.9226272474234261,-0.01269753709133575,0.0859375
-0.891209239459374,-0.399288966610939,1.6980174713210967,0.06670268862884182,0.0034571044701618824,0.03769796124625438,0.0016758370754159084,-1.1638423283746413,-0.01778600139433995,0.06682869115765033,-0.005691902105764195,-0.012865854697926274,0.447374548059491,0.1744865877109876,0.09375
-1.1539159233446148,-0.6152002066156554,1.4973551183489324,1.2172584975974805,0.001384473740591449,-0.0005775561213013947,0.022186115158989,-1.3965319802227307,-0.00849905471327877,0.06214599769240459,0.01356794334526082,-0.018141513177030427,0.10932492722683419,0.2691294221064167,0.1015625
-0.9078572865475613,-0.6571853295467333,0.1462557222334536,2.6153232611044883,-0.0025514869000283387,-0.07636008769892179,0.0482740063892082,-0.6900890615465881,0.01585743437113115,0.011079537081634795,0.04418812039784079,-0.019816526675109258,-0.8086846830321411,0.27723497479395576,0.109375
-0.5153456122519786,-0.6057876947511105,-0.6772384559212989,2.667188520899344,0.0023508045138537813,-0.11076726905400253,0.05591196576308498,0.8153612248557618,0.02915445056922093,-0.03012167663287825,0.05911336470605956,-0.028457688487650727,-1.875050037582114,0.20943483380629083,0.1171875
-0.14610745944639694,-0.3107198718829969,-0.0736606946024289,0.5051871575589922,0.010411478485539182,-0.04021419268712286,0.02091686607071886,1.5537948510256094,0.011131190694778708,-0.016864902426631693,0.027106712374102903,-0.02714390666178492,-1.5737428138082887,0.05753700966789778,0.125
0.25756878382534876,0.19132354329375525,0.6470618670466961,-1.8931890720893303,0.008323311110572615,0.05973585778286838,-0.02869088035544633,0.877756938864416,-0.015442385079469637,0.013946183304187324,-0.02475015644041019,-0.0040732494242559335,0.027540935152410084,-0.11816275247886113,0.1328125
0.5121710997412181,0.4462736328016679,0.19315105751454137,-1.909841981192888,-0.001907512934899219,0.06586720711573016,-0.03785040040978084,0.025694124792989496,-0.015370679990798818,0.0074925727230412895,-0.035971815187916624,0.016983507186172024,0.9062411269240226,-0.17422994600995179,0.140625
0.2877331930794425,0.1829865351075363,-0.5436281296878156,-0.007695594007729303,-0.0066037913178838515,-0.006542257407426099,-0.004268928312238757,-0.09168990027707043,0.004371345497335869,-0.015986373723236122,-0.0025956484457972137,0.011460830533983297,0.2480092212869066,-0.0574779925490701,0.1484375
-0.14474715282736103,-0.14113960907953346,-0.29468121083521726,0.9346558685670506,-0.0038304683231614647,-0.033905071063668336,0.015854235599574763,-0.135114220405412,0.009186534546071283,-0.00788069430729781,0.016065880772022395,-0.0023756184358546977,-0.27738927966709787,0.06454599525402463,0.15625
-0.031896638831072785,0.06072826865323625,0.1557591844028156,-0.13081716026691192,-0.004833426799798664,0.014605982173901296,-0.006601041087785691,-0.585432410731359,-0.004353010841527356,0.011508240943959636,-0.008334766827220914,0.007824784318930016,0.5249997120070826,-0.001005969213676075,0.1640625
0.6500652130901744,0.5733662439490897,-0.45810363077636446,-1.2474999805952882,-0.012377883023006962,0.045855902653910846,-0.033877798204571215,-0.7546634076913193,-0.008429788213079978,-0.006246536487155425,-0.0341055800161682,0.0332013714230763,1.4372865928090555,-0.18047808955276404,0.171875
0.9496793265448757,0.6640294431318872,-1.3039369638055933,-0.8232955525470943,-0.01510367511825256,0.012983888074013234,-0.026414938865402176,-0.27826890459145154,0.003611883461459287,-0.03840293521258827,-0.023322167503862918,0.03648329897237549,1.0664906075386764,-0.22152627696188654,0.1796875
0.3510996691587535,0.16769040829354212,-0.847162476083121,0.27776450933036323,-0.0065992926871149835,-0.024160386077721353,0.0018648160461959562,0.18454299107090688,0.010069071200781007,-0.028562626925949047,0.004898081891450909,0.00964236900263496,-0.04278211085155498,-0.05787258334485669,0.1875
-0.4003838337061742,-0.3267163599412241,0.33024595298093123,0.6956722011076409,0.0042629058320669795,-0.02327862656470549,0.017660635450184405,0.2940018706541481,0.0040756597866492645,0.008310893119845439,0.01823489056341022,-0.017350805765534924,-0.7151272054413557,0.10833873008957084,0.1953125
-0.45888215535679144,-0.36367550698990686,0.6081152878399568,0.41584560591730213,0.007649972272261071,-0.01271037868585285,0.014943450221318174,0.48432194446540233,0.0005117425512933011,0.015587384127594783,0.015823297398210128,-0.02216334485557101,-0.8194162730239696,0.1104392335199381,0.203125
-0.08129113486688928,-0.14065337341939085,0.1457650117364329,-0.019025224542702307,0.005655530675564569,-0.008761993839574097,0.005774966554098286,0.7803274837647699,0.0022574152792499275,-0.002082155340412446,0.009098565589471365,-0.013773875040440853,-0.7062269327194939,0.02042622425039142,0.2109375
0.02724310793662839,-0.03913454867241895,0.11831968206529474,-0.302602779897476,0.004104855305253587,0.002278806000886892,-0.0010824926864981754,0.6518949705663201,-0.0001635160533451689,-0.0016715579071732893,0.002054057463835012,-0.008288902979213237,-0.43820814077053155,-0.012508786073175583,0.21875
-0.07642050442635293,-0.06088451353489047,0.21592875361715347,-0.11697269011220794,0.0016519547902374187,0.003930059856714067,-0.0001474730409879473,0.20047947741234137,-0.0014488935441626903,0.005750128363416867,0.0009376327702263249,-0.005178931906475712,-0.1740102329915273,0.012831048404846125,0.2265625
0.11482595419537497,0.022245498796644347,-0.4917684257804215,0.43889395238129464,-0.004063623433304885,-0.02343659328407713,0.0065760102834097394,0.11640994099887539,0.008101150523605579,-0.01650684908397239,0.008418936853615147,0.002661364664052596,-0.17382262590665978,-0.004711979497741884,0.234375
0.3688581959280188,0.14274485173144238,-1.085622203159229,0.6010094784956052,-0.007431525342058332,-0.039656251388477934,0.0077989882702982185,0.2773121793831083,0.01481131213283778,-0.03726211749522716,0.011403688153723555,0.008974184590713743,-0.2183207236540588,-0.048571127789420084,0.2421875
-0.1282683895947651,-0.057767129474060215,0.10294302271020087,0.2395598173833462,-0.00272938348313616,-0.002728381593983136,0.0027064072473690563,-0.3125985399313292,6.629338075891682e-06,0.007050275860743193,0.0018699075493374487,0.0006443157177926579,0.10907216668531575,0.033347759249848626,0.25
-1.1959566075256867,-0.5169053277942754,2.2397593646488207,0.15534218449731801,0.003334581217874942,0.050636038200228085,0.0020249655122365037,-1.7678683791277743,-0.024037615341841616,0.09021722444852164,-0.008747730217197186,-0.014363462369162645,0.7506317565047533,0.23506056204764506,0.2578125
-1.3760171556280696,-0.532136615595334,2.507714520885422,0.32135483674187587,-0.0010074635021625625,0.06135128219391752,0.0003476518240865966,-2.64356324038619,-0.02862498990248686,0.10725018840924888,-0.014410236124694295,-0.007661767439544974,1.338086723354431,0.27259113344252606,0.265625
-0.054647030727805204,0.1957860817255357,0.283084391567309,-0.21397894001247045,-0.012989197864485911,0.03588366795449359,-0.01639033785478455,-1.7757341143393937,-0.010953773423055438,0.027173976651000492,-0.02274265866038748,0.02439708253573426,1.5504130836204149,-0.006521374843816003,0.2734375
1.2403628051411841,0.8209222334717634,-1.6412171209343773,-1.200549995334077,-0.015355092864398836,0.015379439427810058,-0.033115729919975107,0.09963483347265625,0.005096063752166896,-0.052734057807387776,-0.02758420374698297,0.040764300471520985,1.036500060221354,-0.2921150405804681,0.28125
0.9858911331272496,0.5145307489739378,-1.0933845130694442,-1.357577989432051,-0.0005226700220232883,0.008733835028967537,-0.022990179277055208,1.4842183851959247,0.0052248599912330515,-0.0483745460602127,-0.013353001946725045,0.011884272526544342,-0.23963261989345927,-0.2396781162505624,0.2890625
0.0058670557843654965,-0.19255287636965288,0.329417817271219,-0.6393133739062754,0.01604610807436776,-0.003082151085576696,0.0035475043965076205,2.0394352443899066,0.001347874928215862,-0.00812831756653517,0.011617864862807562,-0.0293324127072452,-1.520635757785499,-0.013532090625382577,0.296875
-0.10594270406801116,-0.34282411944016944,0.048080515051085085,0.15980697873831343,0.016192144362982247,-0.03642353033820723,0.019640759232480418,2.2384982280910117,0.010451857054496205,-0.019539267118554117,0.028413460512577635,-0.03586520649885679,-2.015845908761929,0.04062464551352729,0.3046875
0.3193070686706646,-0.12247682845557782,-1.3277868106056103,1.0824502080925598,0.003909058473867407,-0.08254577877837956,0.02857842986682206,1.9503675903367097,0.02735564037229553,-0.06159237837505096,0.03854976134443059,-0.017026021930255722,-1.8251964671052308,-0.010605462807551794,0.3125
0.07821612722362667,-0.18653906151682192,-1.3088137001502536,1.8474974175388885,-0.003860184135376284,-0.09185375911144658,0.03565875300355923,0.797333655810567,0.028148542027167257,-0.05007657600582602,0.04078530570210151,-0.008211177114349832,-1.2407290791129983,0.05990382075586246,0.3203125
-0.44335782107461563,-0.2720282470760979,0.18107739130075814,1.1102882878553126,-0.003653959788286754,-0.026147455145026942,0.01830876501694502,-0.6446619458345305,0.004533313058327929,0.01238601955168894,0.01548602792888094,-0.00502788939382702,-0.0803467909551457,0.12752426538768294,0.328125
-0.24402087868252118,0.0663526428824632,0.9423913959730834,-0.7157880975345605,-0.004865913934941815,0.05547811081604841,-0.019598490722088125,-1.3353074423308917,-0.01820859448796524,0.044440192137092605,-0.025257077750358674,0.011422459021440881,1.2258533267565306,0.01445200600900648,0.3359375
0.20837393960105527,0.33649941319064597,0.2510320835150997,-1.0078999194214326,-0.009315746793781911,0.053082007022747506,-0.027934033807519923,-1.140251816259675,-0.013996971802565518,0.020322011351941557,-0.031246039371989304,0.02387786837658556,1.425499750927641,-0.08545517762633509,0.34375
0.11906656719595676,0.13505003005419203,-0.5062479914593414,0.4854041032887025,-0.011372180495614293,-0.011760044890792756,0.00039779078331883354,-0.8314923493259647,0.004602533646038718,-0.007754124691828693,-0.0013332873833346727,0.016677158640982424,0.6214183251239076,-0.008902828528582613,0.3515625
0.01910079803163686,0.07419606882689117,-0.44915308872285187,0.7090764040200859,-0.011665916335082939,-0.016701057044984483,0.004267685697549908,-0.9653728956653682,0.0052693968201204975,-0.0046938394552035,0.0017917016933862817,0.015278775127515761,0.600798816744183,0.018534568671076584,0.359375
0.3392115832833202,0.43902305594816127,0.09475945887163108,-1.1550145739640754,-0.011590918916547328,0.05722693915027771,-0.03260623266549299,-1.252643999542645,-0.014287956105320179,0.016437645672740135,-0.03582178974863724,0.029907885538631464,1.6432217939188034,-0.11822632522682286,0.3671875
0.3406866355521207,0.47580060793109225,0.6855100414449244,-2.130211156527595,-0.005556574847661977,0.09383297574597099,-0.046803057686565376,-0.9423183657542291,-0.025114770897498143,0.03291893780436204,-0.049424593006655256,0.025214248429184998,1.701758098452463,-0.1539020145072428,0.375
-0.07344814842642731,0.008993288864594174,0.7247703348583411,-0.9548550990565854,0.004519765064371157,0.039657504279753016,-0.014613427706637566,0.15798317616159654,-0.012073278874575382,0.02303523156283982,-0.014249023575483622,-0.004622644477359849,0.13890522267803135,-0.020142696020140995,0.3828125
0.023985488735863033,-0.13553982053712116,-0.1296530192170465,0.08237818406993036,0.006815109993870338,-0.021856677530020425,0.009482995398431542,1.2074525042396627,0.007024705722154476,-0.015189180164079613,0.014761325888911634,-0.016402406001234514,-1.0382012447731268,0.005868666684892422,0.390625
0.23287044430053216,-0.029862288246101237,-0.5097628042354896,0.04353092205010715,0.005077188491276505,-0.028606964053973293,0.00796161920493769,1.3888078251172247,0.01061712442981514,-0.029239285067143975,0.014872729612141714,-0.011989841682444175,-1.0602801588319495,-0.0365047528045687,0.3984375
-0.7871619019293915,-0.642190752494071,1.0326389707645642,0.7308724988950711,0.015125237177446281,-0.02416583989326416,0.02728804684638206,0.9665149468663725,0.0014774047752372358,0.02440674235331747,0.028879077703868522,-0.04029572681996839,-1.5270173731588412,0.19042895106257357,0.40625
-2.0865773270094006,-1.4774950584258826,2.5836136461166737,2.2715358190046415,0.025748088760197123,-0.047153867602248704,0.06347143967800849,0.4817673644850748,-0.001639092194454191,0.07861831911011309,0.05872470490240163,-0.07695288880579051,-2.38238766115961,0.5055150613563437,0.4140625
-1.3086937805428946,-0.9397353672768632,1.0444105651874327,2.3770416693723595,0.008320503682888248,-0.06281359141440564,0.05213595000147235,-0.18281626800234219,0.008868619972124205,0.03530768492111939,0.04813993763936597,-0.040822428909601596,-1.3941937424456396,0.35100745851363635,0.421875
0.9592596814793395,0.6258931525274579,-2.2327696255935168,0.6764562060303104,-0.025315337076835722,-0.04229380668955645,-0.005465163076038798,-0.8536987055593878,0.019978942172419495,-0.06339741229574762,-0.0035173653221407253,0.04552889334275364,1.066317044025052,-0.16941671614100665,0.4296875
1.7371481706291385,1.1541819931141006,-2.944457393042739,-0.5938737540368847,-0.03047494651037667,-0.01351107369077885,-0.03314266063017584,-0.5816751486740228,0.017402468794859745,-0.08854651404819465,-0.02764062101520887,0.06765482657649849,1.7097434464637338,-0.37124523321272923,0.4375
0.5271195938083217,0.2873016763715839,-0.6984786657528402,-0.5265430811451595,-0.0034257037173523576,-0.000417590034350601,-0.010800912069646213,0.5670266134472615,0.0044548072082357774,-0.027160993573053946,-0.0060291787880942015,0.009861972588595263,0.0020422324973721137,-0.1210242768634204,0.4453125
-0.3179076571963273,-0.26857545183997067,0.9280671922800287,-0.5619893174744416,0.013088408678094979,0.01735856970643666,0.0007973001449178564,1.0063680806659556,-0.0071902051717876335,0.021160935439658822,0.0035931390342305762,-0.025207866887613024,-0.85606930378062,0.04840693533940481,0.453125
0.19431164031598183,0.20096348240857864,0.5054442485120989,-1.4354878628517065,0.0024454817115654366,0.05210115731732798,-0.02526901642665442,0.18987417456994365,-0.013700935786063736,0.015814764167724354,-0.023933975170305363,0.0038960750746187944,0.42402101213735743,-0.09179940057449558,0.4609375
0.827808826945912,0.6999344874675172,-0.3266164643086594,-2.026245072704661,-0.009788169877027813,0.06909981015450205,-0.04654615044991701,-0.4406694470315311,-0.014007398067596788,-0.004688449214767101,-0.04525322214821141,0.03445620197619277,1.5258072261041429,-0.24424686071148094,0.46875
0.9106761247683655,0.6661389520132197,-0.8567961207987833,-1.435397926307588,-0.010883675602190761,0.03737385592804051,-0.03509455863980075,-0.10904846602797388,-0.003914994447748198,-0.025295703034589313,-0.03188431112885161,0.032561373267955426,1.1008983937513606,-0.23621169014418436,0.4765625
0.8015584136396399,0.4898154098883869,-1.4047256897833789,-0.21228879993198793,-0.012657681212096435,-0.013461142453395279,-0.012136695030100246,0.057046341802754995,0.01037740029803721,-0.04515090385065046,-0.008093542711872785,0.026702096555195932,0.49578701539415476,-0.16669278084127032,0.484375
0.3498425017029191,0.2390614944066954,-1.0693950762232278,0.6785866517190562,-0.014445096338731605,-0.028518985816744398,0.0024104358993871163,-0.6671343727973604,0.011309600219494701,-0.02764301868168601,0.0024001043374099707,0.022125329737402274,0.551709100857517,-0.04690222375396418,0.4921875
-0.6469332122021947,-0.2985571453161846,0.7025609089311692,0.9261330426225224,-0.004809635447300764,-0.0030513246646860378,0.012406659828417318,-1.3232850639594074,-0.003957468246288013,0.035946586365155506,0.0060265561982358285,-0.002070440063310058,0.43903522621010177,0.1571570692930355,0.5
-1.4872598160836947,-0.8315167169210395,2.3849847699524465,0.7899085407225532,0.011173388301807355,0.02028358479741182,0.021443876662270513,-0.9939638064688986,-0.01726136487534884,0.087202534267745,0.012777605764426542,-0.03540625539946353,-0.29085197200815827,0.3212468225618725,0.5078125
-1.620720220453264,-1.0272532456562196,2.6749067172260506,0.6908112179561945,0.02125633746027136,0.013289959372777781,0.0286907093542215,0.03600451756526878,-0.016056815534547266,0.08655885789827047,0.02325098688840927,-0.054980276546737636,-1.2097953345435615,0.3502067501492974,0.515625
-1.347808849173716,-1.0014163408356316,1.976521719168719,0.9378908735658633,0.023503652887156865,-0.01864467268146953,0.03721160982937429,1.0350934604445243,-0.004370389552525067,0.0541227366741974,0.036768271618816094,-0.06025848369097885,-1.9778346114916854,0.3110976992611955,0.5234375
-0.8034499988241097,-0.7450652268525051,0.6946153947079842,1.313733629882383,0.01624117091679355,-0.0541137433301267,0.040294535755815306,1.38560835660315,0.010309460133587975,0.00914649496158103,0.043654505944953764,-0.04683444614181632,-2.08088639914777,0.21874321080627107,0.53125
0.14783714975519405,-0.08133209905002556,-0.9257222192519217,1.0094765467541873,-0.0017623944023697064,-0.058339309842220535,0.020730004348082618,0.7900630239987387,0.01870645671763203,-0.03725081236877852,0.02564982429182633,-0.005929326569660458,-0.9187208429161335,0.013910785364312702,0.5390625
0.9781290919043418,0.6321487225036477,-1.6668343262206766,-0.3294228693398101,-0.016723176760710817,-0.010181505626125457,-0.0177153446154741,-0.18195186152860998,0.010650176348257937,-0.05118515927771482,-0.01376651311975197,0.0361473958896983,0.8351278931237843,-0.20813578386469983,0.546875
1.1411363118400524,0.867124999241187,-1.1703881378303194,-1.6256938043314706,-0.01677764490958408,0.04511462237379332,-0.04374722768839563,-0.5189994936990817,-0.004493656707297264,-0.03137062562378528,-0.041161926982832275,0.04632120404528623,1.646601265608776,-0.29173026764134585,0.5546875
1.0664425200706003,0.7698582474648773,-1.135458207354068,-1.4624839365761753,-0.013719453657645443,0.03551722658265358,-0.03772532271966109,-0.17832772126362065,-0.002133217357571862,-0.03367245761960713,-0.03414074020639591,0.03885398938462914,1.2625110996956947,-0.26841791134259024,0.5625
1.0516508205565198,0.6392174919626905,-1.9680811499867157,-0.07312382613894493,-0.01771447049737487,-0.024833810607492825,-0.013034343993484127,-0.02689703791393607,0.015672813020796757,-0.06263838016473494,-0.008195498368994313,0.036449119783477577,0.668267703322168,-0.2115357577657334,0.5703125
0.46058303015616586,0.2426398767436601,-1.4726742029190314,0.9702563406261616,-0.014780806479685507,-0.0488515213020922,0.008660140748364955,-0.32619288390746687,0.01822023105740783,-0.044108863270766734,0.010559909512067589,0.020985846401897577,0.2297350945558651,-0.05585614239911909,0.578125
-0.5964079639547115,-0.35941952676206057,0.6844337483627906,0.7611069120375179,0.0014391010021258433,-0.009975910610206728,0.015371966334224557,-0.4599950772889396,-0.0014278119720260317,0.027045691691258575,0.012371765639799978,-0.012987824157318431,-0.21130796758988168,0.14574498093264826,0.5859375
-0.687303765304156,-0.3744069054559588,1.620611586151452,-0.49341962219857016,0.011035876711640833,0.03875865326855316,-0.0015293804952747154,-0.00800839087103936,-0.016546479095080033,0.053447947825104175,-0.003881423971937326,-0.022951605753298007,-0.2370619542789223,0.11851900059028857,0.59375
0.4276596808434064,0.31706791834656495,0.45052236295731046,-2.096156199005604,0.005877983458696824,0.0648230920224349,-0.034496055485876566,0.7985354053714705,-0.015679525111009323,0.00844610814691621,-0.03018116343752096,0.0027775359503956535,0.2602409563853018,-0.16007413896584305,0.6015625
0.8940980143660365,0.5823736577181585,-0.13934523067171858,-2.6101481668774795,0.0038916518690030157,0.06762074950082483,-0.04486752235035245,1.2408883539531514,-0.01288592658427262,-0.01472341097306133,-0.03731882915993468,0.012059473926325089,0.32793759483298,-0.2701133743516862,0.609375
-0.24726547599650803,-0.16114324478360575,0.8357543054640884,-0.6110519811723969,0.008354573878150005,0.024813386461394943,-0.004508743186027953,0.49086742043663223,-0.008959550972706773,0.023220439643130707,-0.0033252524037162383,-0.015300625352632722,-0.3625246416693422,0.029197752664209195,0.6171875
-1.4057398369065375,-0.901860045150627,1.081783188273319,2.666372925694875,0.0014103678736684696,-0.058161699200192894,0.05092385580861743,-1.1703037334261492,0.006647756355232706,0.045920171075649295,0.043009728400588955,-0.02969242267348239,-0.7083540347806948,0.37573074592363004,0.625
-1.07681787310736,-0.6964992433791195,-0.1143133419123625,3.6145954680852155,-0.01225122036239112,-0.09721509790265041,0.058572622188785374,-1.8321583112611024,0.020676670178249035,0.013299880481184153,0.0500367554885196,-0.008674470746430598,-0.2623692225333277,0.34291229181016264,0.6328125
-0.0547883760383907,-0.0652893348898908,-0.5348688761968214,1.0549730363764738,-0.007528771383804785,-0.03757222736004818,0.015102791307747002,-0.3843447992333449,0.01094341418923148,-0.013264163600144969,0.014656258451230246,0.004357679669374585,-0.04886856601380305,0.04994592661184744,0.640625
0.19020349544116757,0.09599398490864743,0.6630173409567739,-1.7221880608582625,0.011362000202683903,0.04943965965542729,-0.022517070095832873,1.234796047407183,-0.012812639961545275,0.010882983576894064,-0.017489663185888543,-0.01152958316272395,-0.36798129690882597,-0.0958326525035137,0.6484375
-0.31620920921250856,-0.14729490449585608,1.5930226555846168,-1.6322247267873988,0.014703257539961524,0.06721558208021132,-0.019698406062489373,0.6729390750381203,-0.02200164289034345,0.04633913926875769,-0.01873665571050905,-0.020504059367288923,-0.2192660441198318,0.005102187358788912,0.65625
-0.5325005180095425,-0.22451951863079933,0.9219490757814096,0.19784399087409926,-0.0007565199868552247,0.01876148133628333,0.0018932899388031169,-0.9142268412292484,-0.009469583569360257,0.039318667590296286,-0.002881910633941279,-0.004306718483469532,0.39943919394590577,0.10898396961348518,0.6640625
-0.0051552194524962965,0.0026841775588986524,-0.6162036531937748,1.0441660047957873,-0.010612303355742838,-0.03409452581470225,0.012090851567663437,-0.7017551904527917,0.010207634368525518,-0.012753992193849878,0.010749696414869756,0.010668411257290518,0.24990819176578383,0.03746195072054537,0.671875
0.7130940367207209,0.2719838147110328,-1.7438341196208467,0.5703465768649171,-0.007729539347688827,-0.05712610543283707,0.008438021782289893,0.9426279141964801,0.022668908515613668,-0.06495378334531264,0.015944318151657776,0.010946960387980232,-0.5702561249773163,-0.1143511919343729,0.6796875
0.9142644355980536,0.4060777236260247,-1.8093538554959658,0.044256375659717156,-0.007254387642112246,-0.04346378183752538,-0.0010059988959876468,1.1558986900825086,0.020202642623983816,-0.0689762870674102,0.007905718326151437,0.01453922700583679,-0.460855491493758,-0.17325831349178686,0.6875
0.6834237837215336,0.46625236561397204,-1.1468630982597843,-0.24768731253445553,-0.013551137463360612,-0.0036115664308772155,-0.014246225090146933,-0.32529699441914767,0.006503959233210972,-0.03310831982164986,-0.011932494149172362,0.028246181577557476,0.7582806158385386,-0.14681336705404235,0.6953125
0.641978933486484,0.5303955922199538,-0.8110723288010759,-0.6424633903755412,-0.015067908266136038,0.021320257111471334,-0.024075124580793857,-0.8223558740908009,-0.0012711544308177305,-0.01724816740745431,-0.024052522646546188,0.034006556835445935,1.2863807176677877,-0.1565398816854694,0.703125
0.6963084702287936,0.42985580112555916,-0.8966496967695277,-0.7234270543409611,-0.006918190609813425,0.006423892496138516,-0.017522301310858617,0.3445564704730036,0.003635313538335277,-0.03126548043406052,-0.013028167759744986,0.01880669504275911,0.35292431915581834,-0.16395846973691017,0.7109375
0.02952637060848826,-0.04758738187363572,0.03572161029866042,-0.17820316030547714,0.0036469879397813547,-0.0032346217308920197,0.0010297580574151742,0.6566281794488167,0.0014339044528274814,-0.004376387560014886,0.0042241185284635835,-0.008253936149704315,-0.48365097917643113,-0.008530430680502462,0.71875
-1.1925645355295489,-0.6186201230811357,2.220074885602608,0.1405628761958771,0.009866306398822246,0.038420305986322,0.008131782511960766,-0.8915390167890245,-0.020351897731340784,0.08109073661836998,0.0006552889744772484,-0.027052803983118035,0.010348347534995517,0.2385387593642987,0.7265625
-1.508925530085138,-0.676321403053007,3.158136371368601,-0.3657000775435543,0.010877677537529854,0.07967274069984574,-0.0027435623298568998,-1.6762998515841492,-0.03502073486572561,0.11919899297950386,-0.01480692869761155,-0.026429489369104962,0.6603086151917295,0.2780721908959454,0.734375
-0.3714986325050133,-0.18537770770746279,1.1440372489616293,-0.7088183642084771,0.008009218052476952,0.037659854640031964,-0.007438867979386738,0.13538748897069391,-0.013693405104586647,0.03664030005470886,-0.008258487063307883,-0.014341254743430084,-0.09703645651829419,0.04872300556073905,0.7421875
0.8205839799374953,0.22489316233201853,-1.6114284172666145,-0.03148274525829346,0.002672672993026527,-0.05342099391341814,0.0067173963855608415,2.255525861413031,0.022580879333400694,-0.07325630052826045,0.01918477615979997,-0.004693703948469127,-1.4228915649057552,-0.15114303901172185,0.75
0.7535960736285999,0.1835689313277365,-1.9222756308029674,0.6988659194417641,-0.0024186897555266845,-0.07609759378453398,0.016468555169012678,1.8072247366608096,0.028708517203558475,-0.07920299052205976,0.02745660717950823,-0.00026951812090100633,-1.324015378128175,-0.11279051318036382,0.7578125
-0.1747394681543305,-0.09980192199905104,0.05095020374955435,0.47088277541720547,-0.003045519281056306,-0.010813562531725832,0.006920476779879482,-0.33317117024799486,0.002062527347401119,0.0054677878754615765,0.005925494673019095,-0.0005726218470333249,0.024733130754835065,0.05130116333774677,0.765625
-0.8737661052426197,-0.3659659036033097,1.6259419207856942,0.13487405042180525,0.0011685085069850227,0.03761227467286249,0.0009242351591535005,-1.3988867897699404,-0.017687033094409083,0.06681302478891724,-0.0071741612516146875,-0.00881083579624814,0.6334047227812564,0.1720134000545615,0.7734375
-0.8515061232781943,-0.436191820720531,1.2889142420128223,0.6005657045860817,0.002067506222795277,0.01170458653611072,0.011490555583725573,-0.9914673473056687,-0.009768933578864696,0.05170867293329049,0.005285310685195235,-0.013922299939117186,0.1491644246396918,0.18788818976070407,0.78125
-0.15786618711421613,-0.08887171287947071,-0.2746511975856688,0.9691409186807617,-0.007594768458764638,-0.027361975071767585,0.012796477442575631,-0.6546941572888009,0.007091435576314526,-0.0022401897825161535,0.01097953090698399,0.004756851848198709,0.14696692063532787,0.0654678255742549,0.7890625
0.7437686619887727,0.48977071044312975,-1.644866986647195,0.38430271029754837,-0.01903798444986339,-0.02776063988095472,-0.006330159691378477,-0.6149904487765975,0.014001730659453948,-0.04658292188421926,-0.004547355984375902,0.03464424545856968,0.8306535283811954,-0.1366831963433359,0.796875
1.0239256929997325,0.6222331879096714,-1.7352530562867712,-0.37592400777825086,-0.014753723648967678,-0.014503031433695864,-0.0165279788411747,0.1553034483265181,0.012248170799901167,-0.05660788361356198,-0.01108603069088759,0.03275642846594831,0.5887295055954643,-0.2172759187093263,0.8046875
0.4229697434556531,0.14505484195905496,-0.3824831101998435,-0.7539413556585304,0.005063316425617911,8.328021402488462e-05,-0.0076744129016656035,1.3745384396842841,0.003520946336392873,-0.024603445409734585,-0.0003684677405046417,-0.005497660477904823,-0.6737515557011561,-0.10476309899154175,0.8125
-0.19176139693833158,-0.1978368806089265,1.1074943027160384,-1.2651740068912332,0.01738806558796473,0.03667209027819809,-0.008943000669179878,1.4862497205232534,-0.01191936192571618,0.022615219779068274,-0.004142446149001312,-0.02807974771933482,-0.9585795517965525,-0.0008528835872612616,0.8203125
-0.050329792399469594,0.0640592372287471,1.024185903073385,-1.5162694758267907,0.006335999543796825,0.06254022189224678,-0.024263328720582483,0.16338428448280037,-0.01862138252032649,0.03286923038102316,-0.02408323869699295,-0.0040124481172709005,0.3315195592224181,-0.04613757754082814,0.828125
0.359216844968012,0.37769693728572323,-0.3764779922211519,-0.4655050313188791,-0.013186855476623753,0.02495079383900184,-0.019826955684884726,-1.0669285720455695,-0.0045078723085484,-0.0008627998926190479,-0.021979315681314313,0.028060362683598267,1.2703939613915156,-0.09477703789260829,0.8359375
0.18962992568710996,0.15165970532327952,-0.978629628558836,1.0382739511426362,-0.015606411144368634,-0.035227258477472996,0.008029262199735607,-0.9696518167940228,0.01204380477787272,-0.021921634220091593,0.006446849281373374,0.02118493268016905,0.5933531789302091,-0.002990328169377131,0.84375
-0.3616361699672017,-0.29556447581084616,-0.12632467183166107,1.339614009309294,-0.002338700012709588,-0.04438393942550236,0.024700680836073203,-0.179318844410286,0.010667479743526463,-0.0022363281585217557,0.023976788688538576,-0.009005057509334153,-0.49896962971676373,0.12307813842564935,0.8515625
-0.4473536764313344,-0.3404116798702042,0.23684292911493496,1.0110185642415501,0.0014090243036901978,-0.030346711879880205,0.021175201300709306,-0.024219932884583503,0.00588287885345139,0.008124182651577631,0.020447109439675457,-0.014242416099237917,-0.5707068291515872,0.12861363009542276,0.859375
0.0445487142560159,-0.013767577029315014,-0.8347160260601154,1.236922369183278,-0.010102566720941213,-0.0472100876534807,0.016776238796531617,-0.4303267968884506,0.014558684082423981,-0.022611463530199077,0.016696036252199557,0.008429883834217436,-0.011080947752942315,0.03674824594002305,0.8671875
0.3021275492982449,0.12802736716790628,-1.1321679093474692,0.9043210962627933,-0.010512444908085262,-0.044784876680311544,0.01069329098560271,-0.11984491563531623,0.015779327254637182,-0.035059388459520585,0.012740562571665722,0.012564357480210724,-0.01738168397386709,-0.02587467062099547,0.875
-0.26738670697779615,-0.2189128264911264,1.0205499281908148,-0.8707231455419424,0.013714160956027848,0.02830701715587896,-0.004754911030202996,1.0345463529581145,-0.01016271400028511,0.02407889495023639,-0.0016590354319015207,-0.023986165847160217,-0.7531889638111559,0.026045984989771728,0.8828125
-1.1709603451218982,-0.7233494750655328,3.397415713506132,-1.937573821023141,0.03447774338398731,0.09215909504028434,-0.010530711142282137,1.3921218531703456,-0.035960032872461065,0.09790819086212645,-0.010428059891369018,-0.060081940534443566,-1.2382508584757488,0.1673340244321943,0.890625
-1.3303311117051604,-0.7581569518252207,2.97525415519013,-0.7016681691601223,0.02269378728217944,0.06299872298005753,0.0026778458202994957,0.11337310004202084,-0.028616037904350296,0.0961510750751939,-0.002030275439330303,-0.04655945434047173,-0.6484916420149605,0.2393997384290867,0.8984375
-0.33659084038552817,-0.10252849664818497,0.2920269137311183,0.6256886251253871,-0.007724666821896386,2.528882501685876e-05,0.004797232806988507,-1.2197201561137845,-0.0024302239173656028,0.021730616394831762,-0.00011068540468476991,0.006887257351592221,0.6358138299933881,0.08499746185802717,0.90625
1.0087385048532933,0.7180551916586195,-1.870702972666347,-0.05671802282235511,-0.023707529136605156,-0.011562158563804175,-0.018771337920172944,-0.9161085966489156,0.011313445303891454,-0.05088625394539642,-0.017373021065202682,0.047948789813440335,1.3926537236561125,-0.207363967692516,0.9140625
1.5875901746862917,1.0011285855350693,-2.2737032555532233,-1.2606380107368806,-0.018515391276111376,0.00489013288730667,-0.035872744063005585,0.36793951950758963,0.010918786764113585,-0.07580433621327094,-0.02790792692461232,0.04860048207590139,1.033607832155763,-0.36182981894004834,0.921875
1.2669461237153643,0.7286147586186908,-1.6898650610744532,-1.245220558200731,-0.008676502371609747,0.0030734859401730023,-0.027399638832826048,1.0314003949320436,0.009030008360066757,-0.06328145765554075,-0.01825455529204835,0.028061487307055637,0.2740758623502805,-0.29387637318841425,0.9296875
0.7965743123009286,0.4194709179781254,-1.1560043025396602,-0.6435269673005989,-0.004774680412440825,-0.00745930506929069,-0.013318704653580695,0.8868471124060144,0.00858999407387199,-0.044890327061479725,-0.0063796339305069805,0.01435116527288284,-0.07503458240326065,-0.17775328998839182,0.9375
0.4300603480415751,0.18357089120143805,-0.9492642854421746,0.18118615802169988,-0.005063812471633582,-0.02668511701939872,0.0017469789118801406,0.5093746081862146,0.011532965195180949,-0.034994906978395086,0.006168746262014096,0.007589314953574205,-0.23721184220386027,-0.07496488554753053,0.9453125
-0.2967555681781422,-0.27824685090348195,-0.45338359454890964,1.6697375272943622,-0.004795334993109413,-0.05958163193164337,0.02940043982908639,-0.2028432494199823,0.015697672424661455,-0.012738461918381393,0.029008240782722156,-0.006382403751496839,-0.5474459633796738,0.12276696398209902,0.953125
-1.1508263765540334,-0.7156552019290743,0.8110231605683599,2.3153529749444535,-0.0016585573025280143,-0.0492077506150008,0.04189763686077161,-1.2304439597698726,0.005979116508399363,0.037853705739976956,0.03452366253203395,-0.020236044850726782,-0.3895157805977171,0.3116190324520219,0.9609375
-1.1256781860164726,-0.5250228807499866,1.7949316591315931,0.6559865832670893,0.0011330418885696554,0.026094595626157888,0.010531864938775011,-1.660834108024046,-0.016234379134036678,0.07456868638711674,0.0007076927965117323,-0.013446565817951008,0.5351642832463287,0.24062409643967775,0.96875
-0.4287447472059627,-0.07284059847564772,1.2827062597719976,-0.7029239075176785,-0.00027644105486170333,0.056527846170478444,-0.01571908791964564,-1.0991127356405577,-0.019920633253271165,0.05316024740737657,-0.021306630071685883,0.0017178621935146773,0.9130935051736152,0.052898273445272405,0.9765625
-0.5142221471281534,-0.32983266230948244,0.44192187205890265,0.8995146609642435,0.0002350702979307377,-0.019037803049322125,0.01738291636163697,-0.38036287393188867,0.0018768406306546989,0.01835979215156031,0.015124329351666415,-0.011342495167679361,-0.2751931461508425,0.1351099794500889,0.984375
-1.2900512162072082,-0.9560050461569006,0.9972533074893593,2.3933506460840617,0.009601483058404976,-0.06714405605976372,0.05380244026015232,0.034129981185852504,0.01026841281402827,0.03165856025185381,0.050785089207597923,-0.04340565673034565,-1.573889295560242,0.34915953738750033,0.9921875
-0.851554562426803,-0.5859404241521056,1.5885445011630237,0.04334034642714196,0.01607601157862418,0.011834635378283706,0.013725082432276652,0.6070661468836224,-0.0097206271910843,0.046173677251250336,0.013273348155099545,-0.037373192006182825,-1.0299428267715987,0.17540971125318697,1.0
1.0190697632964034,0.7005543575515822,-0.04708791030182264,-3.1469244759602115,0.0038519753427521996,0.08726463194602678,-0.055452585689420464,1.217408221084782,-0.017753087794394544,-0.011271250526640785,-0.047781810263878115,0.01653556676557087,0.5983620451920706,-0.31575906113668106,1.0078125
2.0961475724777285,1.307115201704175,-2.464832576528234,-2.5706242883255848,-0.015342797586114768,0.03460618050310357,-0.05744703836024568,1.1798047343613223,0.006047033905755335,-0.08925542007597054,-0.04513290828327394,0.053756817099704014,1.071536726464184,-0.5088004096225774,1.015625
1.4492618681760472,0.7871854417031154,-2.6409689029711596,-0.25725667669255253,-0.016742235844538936,-0.04058689204808284,-0.014075025238924144,0.8370656457209948,0.023364982132243473,-0.09259260676273541,-0.004336788202664084,0.03728615485641111,0.22133259005520284,-0.2935717076013868,1.0234375
0.6370673763553311,0.2915399401764955,-1.0552937643897877,-0.30784415736204757,-0.003161106955679439,-0.018111756617479227,-0.005522461638878833,0.9437365725923746,0.010549112292038315,-0.042415336801630864,0.001241463009491953,0.008148501892927654,-0.32777322046875024,-0.1328089864955931,1.03125
0.3640563421850885,0.19552878954265407,-0.028658128103676038,-1.1216728673717746,0.0038065248690685033,0.024453578119322125,-0.016733175172441134,0.8910564859923771,-0.004109392873832449,-0.008425271961590687,-0.011832782708590135,-0.000515615633885366,-0.17220430484355995,-0.10941636418815974,1.0390625
-0.45404318027892887,-0.277017275279277,0.661664011997919,0.34575593661952075,0.0029722801673682064,-5.50020626348742e-05,0.008955034237349757,-0.1703880454065738,-0.0031602721592976783,0.02359633062593498,0.007269014319524537,-0.012462163640474021,-0.23146573425726466,0.10374759823071193,1.046875
-1.6452642495428857,-0.9687996448555926,1.9321672453182968,2.0378788070332576,0.005716410496251959,-0.02165091763445293,0.041092335990673336,-1.4130392912755363,-0.005982870120221717,0.07605541652862187,0.030827796878580158,-0.03438525647051931,-0.43321039989628585,0.39847416767875915,1.0546875
-1.512770075942029,-0.7913408905477084,2.1825999983581577,1.232589265857818,0.004367706473946832,0.013196332584004284,0.02378233573770109,-1.7346746232286823,-0.01537977360024555,0.0876095068264095,0.012487214415879248,-0.025377342220586702,0.1804682805031866,0.3392649274273777,1.0625
-0.1270010841437227,0.11200319041865625,0.351297111437764,-0.11111595705515905,-0.010277316076751586,0.029472373431144935,-0.011940887325069692,-1.5080693492999828,-0.00963451112330602,0.026752554892201845,-0.017420124470249237,0.01804095688376214,1.2443780844722856,0.013179796526123944,1.0703125
0.5723620124879549,0.4613697017647208,-1.129651400563141,0.09985946666371022,-0.018561581040813516,-0.004561702633701126,-0.012516072653958338,-1.0539473919522584,0.005850589177232291,-0.025614749217927314,-0.013366359375622484,0.03519492218477117,1.2017235264087098,-0.11536290765705298,1.078125
0.18484598380939923,0.07654097376383766,-0.38530840826675705,0.03759914833109134,-0.002508531248424238,-0.010728264380181509,0.00017305032923371408,0.26603600857211857,0.004851043808138465,-0.014305668005720194,0.0025969562294043355,0.002784527028276922,-0.12906186522579693,-0.03321974722224755,1.0859375
0.15666704440792145,-0.02707644192992423,0.49611662855273075,-1.3764080067881768,0.015305166820404746,0.026075965132206554,-0.011623931671598196,1.8736966482480268,-0.006166796981400005,-0.0007999184099174975,-0.004023078553201084,-0.021936012864017678,-1.0519473133543507,-0.07293984265770052,1.09375
0.7488316532299985,0.34771695222065796,-0.46160216397328424,-1.6607399170121377,0.00725359672086305,0.022051088151088954,-0.022646226304050446,1.8784331406935035,-0.00048632342995890245,-0.031709442530459916,-0.012678719598897341,-0.001996415018263551,-0.6163341688727126,-0.20184199157115912,1.1015625
0.6975386418852404,0.35220355989465263,-1.5700712177197238,0.3691113603480286,-0.011368699891238353,-0.03919738994395972,0.0007107506268678336,0.31418921079660667,0.017178461305514803,-0.05325643582042486,0.0057081235547089566,0.019510099399710573,0.01985693696555368,-0.12248597839946382,1.109375
-0.17000963094951432,-0.18235553554905032,-1.1064377438676083,2.3617631888404254,-0.013866969981580064,-0.08346613675894526,0.035329023861541395,-0.8020182388311239,0.023652413740334614,-0.028269116752049163,0.033609170398569914,0.006805747403718542,-0.19111938994515498,0.1205760438296607,1.1171875
-0.6234582576637817,-0.4528682976049509,-0.41219733155734634,2.649301976413896,-0.009322652041202457,-0.08073214928232843,0.04357990126517853,-0.9877315793731645,0.019376187278783572,-0.004083712892580055,0.03947493122759558,-0.005784372260025341,-0.393525762669599,0.22074290940784538,1.125
-0.28841560761768303,-0.168641730878601,-0.5641916528884264,1.8617938195261168,-0.013043302385591295,-0.053683900424187664,0.0252089262259732,-1.1968193037014836,0.013850056820314212,-0.006592774990358568,0.02136123788996588,0.008466503025917794,0.2372827101841257,0.12237657820193837,1.1328125
-0.01694561926259551,0.07348326558965168,-0.05331721635563417,0.17331130548936444,-0.007883589192244687,0.004476106077205817,-0.0032936741930111005,-0.8092826095880701,-0.0013060929297623457,0.006840644638107395,-0.005470457458851936,0.011650434510826861,0.6207911428785515,0.005883939316065683,1.140625
-0.08287751086634733,0.0060195689743434725,1.6397371103688358,-2.449587485593783,0.01715168460918769,0.0896612134341534,-0.033130319769958616,1.066762867868593,-0.026868008547516083,0.044402143189218715,-0.030082197391279104,-0.01851824501404468,-0.14976780853487837,-0.07043707161882033,1.1484375
0.0238729869730404,0.014598413249884729,2.288898994504253,-3.894960011090601,0.03122602544336647,0.127933525180803,-0.04864036351810594,2.4368689309200446,-0.037257391169735976,0.05266382508239405,-0.040914744059376805,-0.035186401981182634,-0.7756343602767973,-0.1391018107206524,1.15625
0.13090676180044267,0.12228929040199542,1.0572566618164307,-2.1667173781463815,0.012179915145951768,0.07314040395029316,-0.03114157377958488,0.9900276717547233,-0.02033850124826576,0.02616281455817271,-0.02745674258986053,-0.010079188947872311,-0.05112573764915349,-0.10259039501893487,1.1640625
-0.3878580390606595,-0.11656503231918731,0.2349147005519605,0.8899419763045341,-0.010216261794080828,-0.005425273650268568,0.007617181284261875,-1.5270581968187131,-0.001241546332614842,0.02272721766221529,0.001458758273826924,0.00968389181338764,0.7781875928234854,0.10334456539036753,1.171875
-1.0060566209127821,-0.5290367897001108,0.8504093232252223,1.8229422849872992,-0.005939097573439368,-0.024886373962754876,0.028237578635930214,-1.7591316126332668,-0.00021040146833777192,0.044499113348273174,0.019203676689760325,-0.007712483484476882,0.3045161197559926,0.2608297866421008,1.1796875
-0.5384342333803946,-0.35470124893489974,0.7759164062680747,0.4128193832929039,0.005359962695930818,-0.003633872558098105,0.01235129024492616,0.008937756165479765,-0.0028083915181562604,0.02556510889322795,0.011111393688520998,-0.017942020594094155,-0.4617255347203373,0.12359640326926806,1.1875
0.7651568409740296,0.4013581297218759,-1.022832603371905,-0.7620254145575756,-0.0033429967585011347,-0.002739730046252933,-0.014459405160257337,0.9517112625932811,0.006910335616306708,-0.04119052453688335,-0.007407033403708911,0.01228352484154437,-0.11223082681579072,-0.17585463521708136,1.1953125
1.4806005870178698,0.866687236880439,-2.5701926408204616,-0.45303549737563176,-0.01935708406757739,-0.027625874290921008,-0.020506562134218816,0.45080631536620236,0.01968511512620044,-0.08646466279698978,-0.012197398401552281,0.04393174527739792,0.6333418646572895,-0.30927696440303776,1.203125
1.2683329223504631,0.7166510316937874,-2.615887689792361,0.29487552273393147,-0.02098764258773418,-0.04927629811692769,-0.007652994378407135,0.17595036055046773,0.024498855474959134,-0.08562350953304429,-0.0008720911708227882,0.04089669114654131,0.4993725915056675,-0.23958035516534537,1.2109375
0.9489805014615115,0.4551611861651812,-2.1470400645660983,0.5100648784237295,-0.01347821151809878,-0.0561710818435282,0.002661539742545936,0.6301638320040256,0.024198532386896177,-0.07502276174315238,0.00991126343418209,0.02347451637341654,-0.14320504389166158,-0.16499377798681542,1.21875
0.6053653160507305,0.2525613291494483,-1.4200824869653734,0.39678529088487663,-0.007374306433442501,-0.04285904921918043,0.004705507569123366,0.6735293065780694,0.017647185174232288,-0.05191748030140747,0.010655824037777688,0.011161361069025192,-0.34580227333436864,-0.10088298647387235,1.2265625
-0.33470971476040523,-0.2145748368509198,0.4088873702420155,0.3808190725074833,0.0013748574335754097,-0.005723701497824142,0.008631357954268618,-0.12024349856467678,-0.0006209036935055756,0.014952647631210455,0.0077503064826126246,-0.009136386497682834,-0.22003874176497631,0.08095482277007553,1.234375
-1.5037985485981078,-0.8271177587701644,2.5781714102695434,0.5260587733202953,0.01282103884224616,0.03132277055453251,0.017491031130011294,-0.9439017084455231,-0.020593393627225353,0.0930466345590801,0.008756550868767574,-0.03673227185287421,-0.25382129023660654,0.3147869554521689,1.2421875
-2.0115213183714618,-1.1075928644240225,3.4109614392837515,0.769482479936504,0.01717150630359951,0.03988024833975427,0.024449006183646108,-1.2918866915773117,-0.02699805225101345,0.12321632827686294,0.012393707219584634,-0.048830173673596475,-0.3331751905298397,0.4236327273796679,1.25
-1.8522452126195716,-1.0152592798237063,3.028315583862587,0.9023793454503191,0.013776077470327669,0.03101306448649339,0.024582929836674518,-1.3489081425316702,-0.023130036123997017,0.11128880737121243,0.013028951698893,-0.04258235174841689,-0.2328674965361924,0.39686346720426197,1.2578125
-1.3090319332407243,-0.695389230726694,2.233161064914421,0.49240824182019566,0.009171339175664876,0.029300303069780993,0.014101320245507495,-1.0479693619589405,-0.01847812894308861,0.08283981670947713,0.005735639972795937,-0.02864052646209144,-0.03684253116421537,0.2744513811570543,1.265625
-0.08668806168941873,0.0028935605494522076,0.46288165558817873,-0.4747416882292821,0.0005065257633933048,0.024237591672277174,-0.008714379316865452,-0.1622767430317879,-0.0076472320553635205,0.01749220996551759,-0.009183845517869828,-0.0003014377413535075,0.24164743288234433,-0.0014105618377502206,1.2734375
1.5483973033264913,0.9182603618290498,-2.27482894886535,-1.1569915736855274,-0.015121261547832377,-0.004856373918839968,-0.03056642063413837,0.7967918120999584,0.013482911127564223,-0.07998548853567013,-0.021029372466542684,0.04102716253282665,0.6081742981172212,-0.3479233675175723,1.28125
2.2633059323262312,1.2796370256777712,-3.8462158569002636,-0.8442108605578026,-0.02473986237125579,-0.04237859456074802,-0.030228688051253828,1.1587375078170492,0.030107633007752144,-0.13445536059211458,-0.016229530600744665,0.06006452423147265,0.6185740523556584,-0.47611854353583977,1.2890625
1.5349709383945502,0.7750186536141611,-2.947670966043243,-0.04123258109992452,-0.015998724378489152,-0.057594463068435735,-0.008433246290876472,1.2310905549065638,0.029123549139325508,-0.10649521235675666,0.00321056170738312,0.03447736576761456,-0.13188260852291064,-0.2996695869663014,1.296875
0.5174142355094957,0.12262282296610746,-1.17563802792778,0.23851654241679013,0.00012164955895558178,-0.04475618467124819,0.008441195978967534,1.4197484794769384,0.01759726549220446,-0.051165310165589825,0.016712421248830905,-0.0027350052253486386,-0.9807967170129913,-0.08520422167551085,1.3046875
0.21977877452143285,0.02458253680485173,-0.33595020724065333,-0.18014799217306288,0.0033303442650828756,-0.013284449010902068,0.00155241431992477,1.011121105942043,0.005932435049689195,-0.0198535978610495,0.0068762168368840795,-0.006971160085300694,-0.6719622926366652,-0.04440665467452545,1.3125
0.2909905896262028,0.2813791873241764,-0.02616566692122251,-0.8455478534432334,-0.0054602835160154255,0.03265994102153843,-0.020457888004273016,-0.3681959616002595,-0.00730446142879959,0.0038384559888210387,-0.02032990670099336,0.015421802692902893,0.7599273992175699,-0.09186930592240669,1.3203125
-0.01757673290945058,0.2528374947823903,0.9898547043371269,-1.4996053928038684,-0.004866205955811206,0.0814789822042846,-0.03474952753649405,-1.2687312809628546,-0.024200374519085438,0.045674855957979606,-0.03968075212499396,0.01796882844949873,1.560575396739222,-0.06026725757383229,1.328125
-0.8569479857146808,-0.3219676997517881,2.6732989449570175,-1.6541331192728939,0.01395976953603733,0.10047734143857477,-0.023335729040778356,-0.56558492069717,-0.036112256415358326,0.09329404596020774,-0.02927969981821646,-0.020778669424811245,0.523901661666936,0.10525643890469187,1.3359375
-1.668144801872533,-1.0062909206437611,3.516878541852999,-0.5408735523039765,0.02947010317537116,0.06149625524376418,0.011050758847658156,0.4029423152615288,-0.03061117706571645,0.11067694909343634,0.005998104769708218,-0.06219012870114649,-1.1399053114104163,0.3148070494704335,1.34375
-1.5535160448118899,-1.0450521116152438,2.134101505853114,1.361895895142015,0.018225584946227544,-0.017539115072585112,0.039755326990796876,0.11050772800441998,-0.006359644268652188,0.0680495644557153,0.03523141041200185,-0.05364195522190124,-1.4512576157019195,0.36268262992263806,1.3515625
-0.40661787577350694,-0.33948875206772594,-0.6022592827915313,2.2681940359741444,-0.008447868261620748,-0.07613147157617332,0.03759303091992221,-0.616828752141967,0.01962462270877523,-0.013667529535803004,0.03563655442357887,-0.003938254973339134,-0.46081452423663205,0.16451852298417016,1.359375
0.5518118799465586,0.26631493694555786,-2.0819858637087463,1.6843364467960116,-0.02035186679452566,-0.0786951484383165,0.01833848771280016,-0.5184347595673825,0.027684956533984225,-0.06218526308829075,0.02031596066632866,0.02701854222319168,0.2096352319122349,-0.04796185784156392,1.3671875
0.5008187854277868,0.23447123261298614,-1.681165214473978,1.1780237052236437,-0.01516191072458834,-0.060623696181450415,0.012755874434418432,-0.18712438235448264,0.022015234668423464,-0.052250121719766736,0.015399199905935301,0.020356293700834513,0.067136845168316,-0.05496179641325515,1.375
0.28955870247326937,0.11426967796095507,-1.4763419522854755,1.514867710257254,-0.015117611111918804,-0.06527229791658008,0.018739346661171906,-0.4486689226806828,0.021786554237005054,-0.04324986607583069,0.01975523044593976,0.017079774895545057,0.05590432908939292,-0.001536809394907709,1.3828125
0.54891961353776,0.30958626157157176,-1.8665654264783444,1.3532713722161795,-0.020274941568023747,-0.06212919169789594,0.011533300968487162,-0.6860509017164291,0.022781924766865157,-0.05349925613187457,0.01276049673881176,0.029293931239410733,0.46044698729442296,-0.0610475568904316,1.390625
0.43217687673420835,0.3090048610810703,-0.6815188884957355,-0.22426373771672217,-0.009422115777259949,0.0014883315517794707,-0.010859990589176898,-0.28492324028382393,0.0030500186029295247,-0.01845156712701935,-0.00945303828529202,0.019128676213955254,0.5670771285671831,-0.09585674560365624,1.3984375
-0.15755513856918588,0.025095843080721675,1.612063622932907,-2.14159745843684,0.011688527395366854,0.08913211012396516,-0.03238492294230511,0.3350501699894501,-0.027342663152796383,0.0504429184745854,-0.032249211540300145,-0.010325502960418589,0.32549700807880133,-0.047827997482090566,1.40625
0.15877645214218888,0.22022657413902985,1.5120291046846495,-2.9855340354362343,0.013622453346910169,0.10926821156314821,-0.04645503451971279,0.8211963079520385,-0.030843750331506794,0.042860333208151496,-0.04372944866695767,-0.006843205900997015,0.3776132367318917,-0.14019616737831556,1.4140625
1.1591584660793999,0.739076693358182,-0.7680975145316293,-2.407746900430382,-0.001792876405141839,0.05354291507282175,-0.04508993305076058,1.1346584343317017,-0.006712473981287909,-0.03408271475904743,-0.036661447538191276,0.022649109046307334,0.5078683581519016,-0.3158578217873758,1.421875
0.6759672817846816,0.36687382385424766,-0.8072692696571204,-0.8258089481036874,-0.0025941655287334323,0.0041235786104542775,-0.015488958301071748,0.8350935702246858,0.00419402422122213,-0.03309990385138253,-0.009184514435566409,0.010940912353622748,-0.04261502866287199,-0.16101730330891695,1.4296875
-1.2853804761087921,-0.8115966113690328,1.979300948909299,0.7930644057878787,0.014317270586148395,0.002802812696104251,0.025461449514598146,-0.14886675629888171,-0.010430364740768661,0.06581214399321896,0.020859495292503232,-0.04091365423543953,-0.8888415020216494,0.2861229135864282,1.4375
-1.9862587136939676,-1.1920406568469446,3.0121474768781398,1.32133210880287,0.018288445954468997,0.00894203653151925,0.03702402519394737,-0.806665274077771,-0.01762583430854139,0.10536461514180677,0.027229781421639197,-0.05496695086304078,-0.9133868547254147,0.44227065393116105,1.4453125
-0.5721907712807199,-0.3322606694182048,0.704996623484094,0.6526802627799507,0.0012539215142202092,-0.005372423248004537,0.013031729281932268,-0.4932920203837587,-0.002593170029233345,0.028075664156592437,0.009812099701234166,-0.011686928582290357,-0.13076970846885355,0.1365964605522289,1.453125
0.7696660764729193,0.4625535161580941,-1.3691767087381093,-0.17816059164953338,-0.011971726920856848,-0.014986101360477636,-0.01088463758492808,0.10003353668753896,0.010525656631660827,-0.04436751751819917,-0.006770734718896745,0.025004281088638787,0.42460192408952646,-0.159171747980542,1.4609375
0.8253785121055565,0.4790607171856771,-1.42260298821689,-0.2701312938841887,-0.011032781130801679,-0.01535679053201467,-0.011578828316334439,0.29716127908751655,0.011118690649069616,-0.04802664562376774,-0.006524149297619902,0.023987661750372587,0.321549312523878,-0.17236461232407416,1.46875
0.6469923744275712,0.3137683609608087,-1.5835277762684112,0.5490405334690331,-0.011587494592000811,-0.04460705629333653,0.0039601161550913595,0.27433236775801206,0.018474491431511343,-0.05340352173838161,0.00863126029742669,0.018437662515522684,-0.031049303291105387,-0.1054045173436538,1.4765625
0.7534014734474662,0.30058889929195826,-2.502092937215929,1.7121899859110443,-0.01832441451440624,-0.09530593276811235,0.021822698629645757,0.19043023331653786,0.034290555435020534,-0.08274489176026463,0.027286313284692533,0.023519230452876672,-0.28102279725157975,-0.0828243402013326,1.484375
0.4351016022595025,0.12491020131585875,-1.985205776391527,1.8696281941785584,-0.015668555319549686,-0.0903739283849291,0.026208290006139313,-0.035688373038821886,0.030322454988862862,-0.06384137157686988,0.02966169789626016,0.01605374744469695,-0.3308342217450209,-0.015016278727151958,1.4921875
-0.399895930725804,-0.24210793395761418,0.5846507438950946,0.2977088153670392,0.002334099977514364,2.9671526512705228e-05,0.007615197355193186,-0.1677979983928846,-0.0028748380211678286,0.021188029978719856,0.006262350370031818,-0.010677196713767052,-0.19252626328910394,0.09054914970593313,1.5
-1.1012289094259138,-0.5430733885140466,3.013379039508191,-1.4678746862419467,0.020807283165374356,0.0917782337899319,-0.013906200994706585,-0.05770908722957371,-0.035365930043987595,0.0993137404127559,-0.018789600165552284,-0.03644712077840243,-0.11408966872354041,0.1637924555116732,1.5078125
-1.3234429424726144,-0.6758105652969908,3.4377855315577386,-1.4626143228679234,0.024218067675509044,0.0977559422332724,-0.011495661201745132,-0.060753473309983846,-0.03878727745548307,0.11300422019096873,-0.017347351689496682,-0.043942316828530864,-0.24094907191473458,0.2084357386509313,1.515625
-0.9215590526513279,-0.4964929610439301,1.9659665151495682,-0.31332965555923353,0.01205600288544069,0.04148413847371773,0.0021106414952151964,-0.2659841601073862,-0.019078727222813882,0.06695286711555817,-0.002168380542286699,-0.02707472969521674,-0.20994946158112932,0.1708711416240189,1.5234375
0.07832991383148943,0.07793276447433163,-0.14610488935648153,0.0032901086391765944,-0.0046383111148649795,0.0010587730086386957,-0.0031279720694249334,-0.261659329839603,0.00046792222322212347,-0.0014263833760845767,-0.003018499925379971,0.006854354807630877,0.26565201458373827,-0.01658833851863578,1.53125
0.947819087124152,0.623445531711367,-1.45997781892315,-0.5758853944028492,-0.014760359168541508,-0.00014532466024659287,-0.020994281425996828,-0.10686408723865032,0.0074414875896176395,-0.04511828135777644,-0.01702465599810997,0.03397880497216201,0.8343309416933378,-0.21110135656299028,1.5390625
0.9630205225107233,0.6711700911514548,-1.3936794702456643,-0.7183164656362969,-0.01617684005076306,0.009008339171422112,-0.02526434795597369,-0.3391174873347529,0.004857213840703941,-0.040691965018656726,-0.02222208840926146,0.03785201966545881,1.0907531812462283,-0.22055794673842544,1.546875
0.45391372394508506,0.37835359678877356,-0.7649578607901958,-0.13248139573112133,-0.013987495022882619,0.004901454224720783,-0.013391801406750378,-0.8057772884591159,0.0021912414205120957,-0.016135984857145735,-0.013908766586953922,0.02750280960934803,0.9984200009227504,-0.0991459569131625,1.5546875
0.17953415771750134,0.14695219505633572,-0.6399018727037666,0.5107793627346455,-0.011024001099325902,-0.01720578631989636,0.0015255097973751752,-0.648486329312398,0.006659705621627662,-0.013896550156574948,0.0008358748052777314,0.01602697543380014,0.4903045852347823,-0.019193298818405244,1.5625
0.3709576710681053,0.12281026674027828,-1.155828612985735,0.7063430310196971,-0.007044750001817427,-0.045783925695381214,0.01035755293837109,0.38769582179479933,0.016643824064922038,-0.040676861112424946,0.014499274601823044,0.007440390721416928,-0.34642659509753126,-0.04439064056176306,1.5703125
0.8451557361015403,0.31456497334202954,-1.800708193960689,0.2324571220403482,-0.004658148680145267,-0.05403517077170746,0.005106973634517727,1.4545794686513351,0.022777590325364055,-0.07165177283296288,0.014973370938424416,0.007858759617644583,-0.820724466697821,-0.15107714863040067,1.578125
1.0109514722189838,0.4527174492937193,-1.7113098402713878,-0.43105750820710753,-0.004010225196581871,-0.031707136596036196,-0.007186733258258218,1.5458264394725436,0.01745088407580656,-0.06937930329931957,0.003301367207771081,0.012014758538894464,-0.5804687275098347,-0.2086667057275732,1.5859375
0.039288637573700526,-0.03293660815745895,0.012384054382090495,-0.16659488757242605,0.0028450444244975366,-0.0026220684915103753,0.000531595786418141,0.5775645976944026,0.0013850732793355938,-0.004405835538776882,0.003433222108899354,-0.006753138940224061,-0.4110674959683856,-0.010051165129369533,1.59375
-1.712727904249907,-1.0290736090497674,2.726552834751423,0.9217249325304668,0.017483768480328482,0.014778225549763605,0.029311114191650302,-0.5468431572389719,-0.017189709295059016,0.09375525954077008,0.021300872193423494,-0.049543173194949795,-0.8401437706968722,0.3743669992453368,1.6015625
-2.4704750954501815,-1.4657979422074499,3.9513173236507777,1.3050509178492822,0.02490615636038462,0.024354144135501722,0.041047961693446045,-0.9318507794434053,-0.025846259554986258,0.1369056698872506,0.028704397808875143,-0.06955356002027167,-1.0857538628802448,0.5376011618877651,1.609375
-1.5338794205260682,-0.8981702401104655,2.5545937876132214,0.6447412341347899,0.015545564578066585,0.02178637394211563,0.02255667077159527,-0.5779585638032826,-0.017956594081051266,0.0886118250347756,0.015128726555631352,-0.04309167851738849,-0.622600429887337,0.3275073626737502,1.6171875
-0.33882262667558816,-0.20396718655892712,0.6046509264152139,0.07117037050007816,0.003216585052800508,0.006160051499228552,0.004083721934027759,-0.038709438557844554,-0.004188709942537314,0.020621749519324474,0.003338044966685419,-0.010537216380641295,-0.19081533435174852,0.0705288181900699,1.625
0.1345122203352158,0.06565421911789243,-0.00899078028576942,-0.42213187096095717,0.0009562145778156873,0.00827128000113386,-0.0061836880964515895,0.3904914943871612,-0.0011439417754950576,-0.0031566548191145245,-0.0036870497253703714,-0.0008341664540070425,-0.11236255427774958,-0.03997604467181513,1.6328125
0.7282081038328756,0.4769305259322259,-0.49283760943815685,-1.4899215553872294,-0.002620205866404113,0.03449573929858626,-0.028990216529022873,0.5962319895029029,-0.004349510643451134,-0.02036662384373981,-0.023920235223677117,0.016083983273815418,0.41436042362749637,-0.19776587087400846,1.640625
1.8011286043209285,1.1831837058169403,-2.2824456091557295,-1.9083472411173246,-0.01967221987837224,0.027173203866885518,-0.04938049989444357,0.32379933600813104,0.005950737407957002,-0.07540526493557091,-0.04110297518208671,0.05635966895556807,1.4111280192541853,-0.429240905344522,1.6484375
2.133885957119302,1.3643966221739066,-3.752391878215427,-0.5273612280357922,-0.03545758117832641,-0.029766850360626856,-0.03483998051489498,-0.3930077062511983,0.02525105397470084,-0.11649552053912422,-0.027031233892219935,0.07838933077243833,1.758276585364251,-0.4470992761214801,1.65625
1.208769276319873,0.7831225170863051,-2.741160135237487,0.7293726145060013,-0.030090588690930585,-0.04986544907595359,-0.007934494451408656,-0.9522248779624795,0.024082558769426766,-0.07884142204871795,-0.0053322163412670084,0.055432446520082314,1.277223265466349,-0.21793073939294283,1.6640625
0.19738405337191467,0.21343903666114666,-0.3573133880446307,-0.002548127186169849,-0.010412778763989638,0.005867383440986581,-0.008400511843916474,-0.7929787085855243,-0.00012590542308623694,-0.0030140414504753344,-0.009827912677022169,0.018647646998498732,0.7911009577792254,-0.043308938193655874,1.671875
-0.12130027638681229,-0.010153858185885437,0.7629071457547381,-0.8616729271254505,0.003864752346023443,0.03889756881009458,-0.013575405528603958,0.019019342060572847,-0.012258997320242548,0.025618336070381394,-0.013742036986824767,-0.00420353563446288,0.19669184319424604,-0.008067494331639988,1.6796875
-0.3819759145157025,-0.3341191832846572,0.6195992291066402,0.15247017412682912,0.009710992073517383,-0.007942999710034792,0.011897884369997605,0.7849927649447712,-0.0002705668387881807,0.013054753941747843,0.014147851105401092,-0.024027669459827494,-0.9426745952593912,0.08675752259605732,1.6875
-1.1239822753618767,-0.8422153899148496,1.3253537789769783,1.3226080074597193,0.01521898873794449,-0.034403840338886015,0.03805733928382528,0.582201127532667,0.0019365046657696785,0.0373012880917688,0.03711044824964201,-0.04599650671799314,-1.590905075223438,0.2782305457945411,1.6953125
-1.8650315133155884,-1.1080125797720066,3.0410020198864154,0.8896129161535139,0.019310773701670118,0.021345613962576948,0.029779173266151,-0.6363486164864498,-0.02031962694598154,0.1047590208822696,0.020851128660223175,-0.05343030239286954,-0.8459145517098724,0.402811970313838,1.703125
-1.884221170527652,-1.0057553229684288,3.3142602624378403,0.5332591930278019,0.015558681182731793,0.047350712065104356,0.01868291253971135,-1.36402684147296,-0.028244806412196986,0.12082185766968559,0.0067077308475188245,-0.043525413800947745,-0.12094838516526657,0.38906119577245873,1.7109375
-0.9676765698698335,-0.6534983019246956,0.9413213004567134,1.492088360951051,0.005423947204734896,-0.03273638955651624,0.03270152732165875,-0.3186617135020328,0.002565197462771926,0.03358810670431231,0.029050448909933885,-0.02748708816361592,-0.7881195138346078,0.24878731563847853,1.71875
0.4711433081650087,0.004396917457078235,-1.9260815090500343,1.606923604221114,-0.005183129682367948,-0.09962579635364323,0.031226422774699118,1.3164335818424955,0.033520843585497624,-0.07501290428755521,0.039773535874759416,-0.002513469685607775,-1.3706324555623655,-0.024365247303060018,1.7265625
1.564550198513964,0.8043362802287639,-2.7212175162159213,-0.5064329915988932,-0.013174282142782791,-0.04136913718969072,-0.015207866941216723,1.4303204877536744,0.024604156926668223,-0.10091783222268506,-0.002961020464762244,0.0324866691422898,-0.12788824776452568,-0.32218725164406137,1.734375
1.6548923879585569,1.1464656107762603,-1.6396242273275141,-2.4975190050891665,-0.015531802228192755,0.056775692037532736,-0.058181179816948515,0.2709170868948203,-0.003942771512507414,-0.05381420776012625,-0.05109895939350464,0.0520681100323764,1.5656660801710491,-0.42288595942301216,1.7421875
0.8862848850469256,0.72361679382052,-0.4207898182218921,-2.0650479439550575,-0.009613557489074782,0.06733679791261934,-0.04698614680857486,-0.3148218850400603,-0.013040366437781106,-0.008859381220276387,-0.04500783253965565,0.03463196657135898,1.4664311901226477,-0.2569117169775023,1.75
-0.12143156493781326,-0.041788245009998726,0.3534731180989941,-0.19575345306861727,0.000170282367169158,0.012865760929451854,-0.0034515343871916386,-0.13504744774972305,-0.004568419601245124,0.013632636699877724,-0.00384652412553048,-0.0018015514658442202,0.10509038652189001,0.016192057583574167,1.7578125
-0.7799969709708502,-0.5135642320438918,0.9037599276293417,0.9663275139948722,0.005304688285756709,-0.01707273448418147,0.02254006168784446,-0.21676425839227087,-0.0006822323965580389,0.03167145802860084,0.019779610280750867,-0.022723621767441922,-0.5915034581771335,0.19172419312413025,1.765625
-0.604367178335663,-0.3892154316602124,0.7284081132652365,0.7083197722846609,0.0035904031351034122,-0.010752134015405548,0.01633781806070166,-0.21401543739618153,-0.0011907938165433994,0.026051281928269828,0.014150128773652279,-0.016866698893188856,-0.4029694320264565,0.14715998947280798,1.7734375
0.3299972267997784,0.15924852186473945,-0.3993833173582228,-0.39999781245695487,-0.0007953251418740361,-0.0005876519103314036,-0.00653717877309907,0.5724436890944258,0.0029622373161740526,-0.01755515747441167,-0.002506424369101647,0.0031215679043249418,-0.16068840221808597,-0.0771773148026424,1.78125
0.9671596537106706,0.5533060095552903,-1.1484803369575274,-1.1840028901286024,-0.0048223948849712385,0.009542872390495056,-0.023703836041660566,0.9551164431991558,0.0048011819399856,-0.04512906605945647,-0.015987512292114512,0.018985033413188933,0.14147659279497862,-0.23227230508921323,1.7890625
0.440815967451699,0.33924868932117186,-0.3942260839043892,-0.7234599849449369,-0.006882864010172851,0.020640268158403995,-0.01860662297737173,-0.18219214754823396,-0.0026110957685401897,-0.009921474951933707,-0.017066413216306406,0.01781358210327473,0.6478244914522547,-0.1160856314948858,1.796875
-0.5093519277953498,-0.1709811955228754,0.7914262336179134,0.3593854642499362,-0.004980692325824454,0.01765949282770798,0.0012225616106363774,-1.3497795112458628,-0.009020635649151384,0.03922641844205923,-0.004996327864564376,0.0028424345037802562,0.7312802487015685,0.10845838857101443,1.8046875
-0.6482592808878992,-0.32569450551062307,0.8361823720828373,0.7036790692326597,-0.0012655824365299616,0.0015484170193522998,0.011290199998678158,-0.9620583468851879,-0.005200869820645983,0.03673515616933433,0.006072789074357424,-0.0074380950544261,0.21054175766619393,0.15164916771419354,1.8125
-0.24436398547547844,-0.152267423546854,0.1674256772045061,0.4990007373549501,-0.001528248229856979,-0.010880758002406642,0.008662774706681899,-0.2593564041918841,0.0016423933062136226,0.008415695287583238,0.0076058854198062615,-0.004002339739983942,-0.08378638340411487,0.06708648138379061,1.8203125
-0.29111201803397274,-0.1587445184998943,0.0726501016696889,0.808010036381667,-0.004800087755256828,-0.017479906383883845,0.011662823599615312,-0.6359199585335279,0.0031768955499145777,0.008924380852938382,0.009191369954910053,-1.1644170876823786e-05,0.10355232127760614,0.08582429468255535,1.828125
-0.5090248368454987,-0.301745350640993,0.3208937474529886,1.085013382152373,-0.003029760698890326,-0.022371230211739358,0.018146638177563176,-0.7085670783766459,0.002937796799845143,0.017534028836292848,0.014683984384565942,-0.006297749205503748,-0.055130546836623405,0.1394302782498024,1.8359375
-0.06771668374868145,-0.1410172620920266,0.006639571052719437,0.16604027761564286,0.004379041722285313,-0.016183978688036896,0.008450963378523104,0.7338630536070496,0.004610240302053918,-0.0062718751906209605,0.011704548855452109,-0.012588246074416557,-0.7183853893486553,0.024704475772720617,1.84375
0.5512027824544801,0.1892414590425601,-0.4570552663798087,-1.049241697012456,0.007659297239218339,0.0026494205893482893,-0.010623601728488407,1.8373176326761904,0.0038562879872347943,-0.03145718039078609,-0.0013705270918881742,-0.007954991716338452,-0.8915201659095063,-0.13875333313209046,1.8515625
0.421920373893032,0.20764128564853976,-0.27428005660943594,-0.9057380744773507,0.002523220360164201,0.012918526865814949,-0.013330115314026928,0.9485809328562282,-0.0002710340481981979,-0.016947397704687745,-0.0078373877946397,0.0006573789792126212,-0.25930242237149276,-0.11266071221922865,1.859375
-0.05952248333975606,-0.0033452207117176417,0.019459189876661936,0.1709805561081455,-0.003971438580023169,-0.0005253681252596916,0.00030585345113935355,-0.3750444168039248,-0.00011089647557740861,0.00496056413854533,-0.00047225592159169747,0.00385387611081436,0.22721664368916575,0.01671913839988878,1.8671875
-0.15795967081203363,-0.0950285646631476,-0.18639537153150695,0.8171570174834593,-0.005932859165558012,-0.023271497221475708,0.011278256574365113,-0.5101570879617248,0.005834668067899754,-0.0006476847218722793,0.01000849432504418,0.0026111417404070508,0.07013375656925717,0.06013217631803868,1.875
-0.3004894973536983,-0.2132795738740487,-0.060487227402797675,1.0484188176421334,-0.003660876270676648,-0.03110040989404916,0.017636561922865897,-0.38065718917945673,0.007066411156355726,0.0020879158497654647,0.016360929526576844,-0.0040550358453028375,-0.19926087544553261,0.09817055394845392,1.8828125
-0.8049618497007688,-0.5042920410533814,0.8390450922251282,1.161692100986758,0.0025230905409083988,-0.019940022304706807,0.023730850234816653,-0.5414183218893175,-7.345961171897936e-05,0.03267014921553041,0.019736628165087932,-0.018781604794815103,-0.3936737657234539,0.20234700437648834,1.890625
-0.6780158797451021,-0.46275149897602463,1.0482330355778926,0.39667247466683037,0.00921615651864726,-0.0020956659783868993,0.015101087543947898,0.22870893886497895,-0.004272894459707685,0.03221147024992784,0.014036001194089008,-0.02587626385708895,-0.7203557482031137,0.15236648226166558,1.8984375
0.5322216626585001,0.23862609946744884,-0.26205949157853264,-1.2893800639156219,0.006221646326770508,0.018439028367136467,-0.017053719378255547,1.4791861973815443,-0.0010118226407710795,-0.021618764999931882,-0.009345823480188788,-0.003438133624675152,-0.5192580327149199,-0.14618618718351373,1.90625
1.4388486343111933,0.9314963351528812,-1.3446411447046531,-2.326822436228322,-0.008364300543332858,0.04643874298828891,-0.04858048061943005,0.8717814494236007,-0.002510645915944114,-0.05022652492387675,-0.03994559421675562,0.03596323439879652,0.8678985766443392,-0.370100981848993,1.9140625
1.1135318695520044,0.9471526936496198,-0.8592619598890225,-2.0252674989180095,-0.018970349591407906,0.07049226264822621,-0.05424015009081192,-1.0782282397231846,-0.012340324841739374,-0.01564886218371238,-0.05411754258796999,0.05346516840093191,2.234459164027611,-0.3048118231954542,1.921875
0.6918613026992212,0.6661672196802367,-0.3408856397628691,-1.5547819746612286,-0.014643949922408741,0.06285538563775639,-0.0422297481619886,-1.1317622600766237,-0.013259146607203034,0.0014242778675500692,-0.04384671551785419,0.04005537356252277,1.8795322873773215,-0.20292606021646106,1.9296875
0.946354215337676,0.5667453702826549,-1.05912881189471,-1.2586322659125404,-0.005447822189563139,0.01595926727195706,-0.02593355068271313,0.7916363079558291,0.0028349810694015326,-0.04068132678731503,-0.01912780825079285,0.020682470889164317,0.2984579299609064,-0.23128823766490325,1.9375
0.5771013019173389,0.1752223657066479,-1.249764861138499,0.17941188920644138,-0.0013710506677258425,-0.04226071693896175,0.006056377020984893,1.3142742756895007,0.017370320700237345,-0.05259907292160907,0.014165586834960312,0.0008246793091724924,-0.8356837854914814,-0.09985885075854313,1.9453125
-1.1062575314648373,-0.8179041325730285,0.5402366880083419,2.576445556821434,0.003415990802028209,-0.07467965635237815,0.05248065530744898,-0.31599057985205925,0.013993072504681124,0.020080154452955072,0.04892656602688449,-0.031992441756833016,-1.2274636861114532,0.31779328225512216,1.953125
-2.290387402049608,-1.4554076278422123,2.337714549279509,3.3857574265887593,0.010466709613173747,-0.06109125888792274,0.07061141241600208,-1.4224407116868134,0.0007971639096637527,0.08864844342124546,0.05847386887210494,-0.05585126218499734,-1.2485204809857284,0.5783000919964288,1.9609375
-1.6591300464737062,-0.9848848718036348,2.116936129128299,1.7703094944762696,0.008689512513747786,-0.013417705073466306,0.038381166075541595,-1.1820859309738443,-0.00855994903433633,0.07994146575713755,0.028825752234276664,-0.03828816141979509,-0.5511753880349499,0.3920418021586426,1.96875
-0.738955852735969,-0.3255543469055448,1.2065473990566842,0.3889189340501647,-0.0005663673872625516,0.020655422114414585,0.005018113539955764,-1.2225781561855167,-0.011689346301261967,0.05152645492154517,-0.0016519261586519008,-0.0067746737163477625,0.47685724373167876,0.1555782886432748,1.9765625
-0.9222071255322037,-0.46050801659104357,1.2063355920810206,0.9671855178582223,-0.0010937047454033326,0.003415072276985306,0.015613048518226424,-1.376083976629542,-0.007970556983015468,0.05272686569649321,0.007965300560330115,-0.01063286309643797,0.3093618532986216,0.2133656966741363,1.984375
-0.8242883854443409,-0.5883460782842012,0.7686179001940717,1.3187864159243323,0.005986849947457213,-0.03325464063499087,0.030265925642639992,-0.035627951512785576,0.00381527759149185,0.025355209248071692,0.028233331174129045,-0.026799950015087805,-0.8869188149623833,0.21504906587853387,1.9921875
0.8727076952404909,0.32787086568437984,-1.3559350105835273,-0.594909503370225,0.002180369187936848,-0.02748063817880946,-0.005166731176407366,2.004633226524178,0.01522836665989028,-0.06232191719721395,0.006323030188687196,0.0005980165839775116,-0.9948084199796965,-0.18460950936840512,2.0
2.596799497113632,1.4679283578963902,-3.2862291045078367,-2.84580644194645,-0.012096817963486066,0.013626069166667872,-0.05767357773478461,2.517191162361082,0.016188658363326523,-0.12870220796430368,-0.03844020370043055,0.05113879573885504,0.3202886921790636,-0.6114118812656982,2.0078125
2.484489545945638,1.5197950235282216,-3.0069115764046606,-2.910626424156094,-0.017237106792413897,0.03304001878705974,-0.06452630396740314,1.557956783457306,0.009470476914555511,-0.11033139126666709,-0.049351334745861355,0.06130928117094711,1.0890379319960684,-0.5970409892208924,2.015625
1.2658710474204917,0.8069944488041655,-1.3568285818153263,-1.7624063499434577,-0.009194145845285938,0.029855572413180445,-0.03852317881843615,0.6924484615283977,0.001081829953270304,-0.04912455260631563,-0.03093942229769059,0.03283314398583967,0.732878644062816,-0.3150191096370244,2.0234375
0.27989492208155753,0.25029768865761914,0.26309859675494995,-1.30107108985107,7.391917718333775e-05,0.04529446474063279,-0.024456944158498167,0.12165176971611694,-0.011013893301392687,0.008555417280810239,-0.02286286134538605,0.007815681348649042,0.4913315149111824,-0.10377554176618058,2.03125
-0.7351392766316245,-0.3015241779791487,1.874373118163717,-0.7269540629256876,0.007483763870097038,0.060299636989169715,-0.01002800658122488,-0.7034291300087238,-0.0232578806804879,0.06842854447967858,-0.01546422543892737,-0.014444891815065168,0.4098286480639682,0.11582612563602074,2.0390625
-1.8153985954587017,-0.9989344298160479,2.8583630285356545,1.0614480998955123,0.012191919766403889,0.023802076877196984,0.02652232230031064,-1.4011242994463398,-0.020759040341194215,0.10628883976807052,0.015022361596014949,-0.04052997372891182,-0.22190782197568062,0.3951205904246134,2.046875
-1.6399663044750885,-0.9858933464408285,1.667930664077365,2.4511734336850903,0.0033642813045591242,-0.03813826867437064,0.047354397101524455,-1.5047354998067775,-0.0011098285582192184,0.06824610742376185,0.0370416840345983,-0.03277762508312474,-0.4912471696960185,0.4123346156692207,2.0546875
-0.10061957654904262,-0.05784313858157833,-0.9334500608653366,1.8749146845611833,-0.016008551530145694,-0.059514574756530485,0.02353800843126831,-1.1961866687015994,0.01696786532080414,-0.01858230427578033,0.020436596041106887,0.014823581033842596,0.33973627059343736,0.08537528810475224,2.0625
0.8322724929257531,0.4878675274974949,-2.0705740044303194,0.7878342047662495,-0.020416096017941372,-0.04997328303797657,0.0010499717340701222,-0.40366585426163487,0.021340332289877185,-0.06256186162961533,0.0041190625923510325,0.03468673316283307,0.5735430721938326,-0.1373394742619783,2.0703125
0.27910903560028155,-0.00038377669388479685,-1.0594986656035568,0.8125285879114452,-0.002274167121078873,-0.054934660096617426,0.01679017777536189,0.8957053295661824,0.018737368516630278,-0.04250869725866635,0.022456006235707773,-0.0030388863295516843,-0.8639870977469749,-0.018869390194538597,2.078125
-0.39325847885587173,-0.48282429164811314,0.2091035014365629,0.8166453987386191,0.013057146085357357,-0.04682102216086423,0.028844664492657445,1.5566972775092118,0.01126313927384507,-0.007959621223170297,0.03427684484683214,-0.035512823534347815,-1.825087937511991,0.1187294326906996,2.0859375
-0.45182264003846795,-0.3161130857068183,1.0995418122523046,-0.4059608738427222,0.011777613557367003,0.019565288232293365,0.002148384859779456,0.6292616573706291,-0.00895115860471536,0.030276409069552437,0.0032000965711778424,-0.024238311364209512,-0.6701818167061317,0.07843057291194251,2.09375
-0.6395623127374445,-0.1838396633921072,2.191283063543982,-1.5358781254580063,0.009083571911666406,0.09173643294969577,-0.02465656203227104,-0.7096193070252406,-0.03186591412974971,0.07899557060797212,-0.030102686194616157,-0.011303797894908287,0.7329046564361009,0.06545763270718102,2.1015625
-0.6961036550736274,-0.23145850496610826,2.106790303768747,-1.2192532469203454,0.008170638603026508,0.08126543735820171,-0.019334617015600825,-0.7867273313028871,-0.029176567949677358,0.07691202105597739,-0.02519098028863517,-0.012016923951364842,0.665116756086449,0.08862422561349986,2.109375
0.4720293836348637,0.31495647684514205,-0.6789355086866011,-0.36290770697783076,-0.007669322816977427,0.0030209009882926578,-0.01189195003183305,-0.03742473652707316,0.0029456133803522234,-0.02067434156886312,-0.009602493302560454,0.01686437787710298,0.4316050955933354,-0.10737899730617605,2.1171875
1.9137927155424277,1.1368794681043015,-3.6101201513962584,-0.09756773346743101,-0.02971614044666923,-0.049617849551275864,-0.021413970426906865,0.14235104127115045,0.029489038161719952,-0.11721226617097841,-0.012275942072948043,0.06320636429039404,1.034367889872431,-0.3838005383519204,2.125
1.5002499191445586,0.9161562395029591,-2.8193141357840927,-0.0860705425539984,-0.02509931310071192,-0.03568669867520684,-0.018524259159611665,-0.09322718239983796,0.02218256895500887,-0.08937978783258335,-0.011967185359618961,0.0526135579326602,0.9871312349350961,-0.3022694633182688,2.1328125
-0.2877842632168391,-0.19014482476804145,0.5747917945351362,-0.04664592305808927,0.0045065291008008395,0.00678144127657133,0.0030977014979401496,0.1790342690680564,-0.003964606216065514,0.017629024925648013,0.003259343747862523,-0.012012980419396434,-0.3046183431494456,0.05727280388935325,2.140625
-0.9966489954824161,-0.6432027871265791,2.0730328233396,-0.2901273291780548,0.019356614503691586,0.030463752152426384,0.00936023289199743,0.5715406011235189,-0.01632819068997687,0.06232638442397086,0.007906852267014257,-0.04184343863625031,-0.9728559982170932,0.19153226094896794,2.1484375
-0.38887316449130255,-0.2341510079133632,0.9022440729572502,-0.26236063675795496,0.006872078644694814,0.01864099979034406,0.0005193850739403564,0.175362420561799,-0.008223126351829662,0.028289101365230197,0.00013299357542496208,-0.015436581735415244,-0.2896449313879661,0.06922653836520196,2.15625
-0.3301931658833473,-0.19393082076084203,0.17683774208279265,0.7609754776133317,-0.003095069207521425,-0.0162600368901694,0.01221034399218035,-0.5119725379173126,0.0025295736967040567,0.011037412578091675,0.010081257849438974,-0.0031930047699748115,-0.009386071703099954,0.09273401950198207,2.1640625
-0.9098805547935644,-0.6289997210008906,0.738115093439245,1.643212044883118,0.0038455379510090987,-0.04060234483000933,0.03459790257988842,-0.3307980120058698,0.005349864585997803,0.027041532539624574,0.03124072844016714,-0.025313118462825177,-0.7951777716474028,0.24287830198334384,2.171875
-0.4991368618965447,-0.42035412329458227,0.4093589084417663,0.8646233351877194,0.0064390542863683,-0.030457947141593472,0.02292909597337277,0.47100558921014024,0.005488765507425856,0.009025740197203237,0.023841527122750186,-0.02324855158969659,-0.9808973477845027,0.135564653595576,2.1796875
0.6619654474790035,0.37286759838681566,-0.9293132532705028,-0.5766982794501101,-0.005371813993101517,-0.0021092815224855494,-0.01311728910489591,0.5577030567366735,0.00587996990222883,-0.03440227101500276,-0.007873913613569365,0.014571115200094195,0.10074202553721967,-0.15052927618071338,2.1875
0.773034377146701,0.5448158277907814,-1.020968621813542,-0.7394809430438469,-0.012255972682758609,0.013189511366466353,-0.02274647231554128,-0.22059204406681335,0.0021466985595443543,-0.02974203422539075,-0.02005859541222614,0.029672554817387026,0.8837548011943952,-0.18306225898914372,2.1953125
0.0596664970486295,0.09565925890356303,-0.020655611999505916,-0.13425916370520402,-0.004971641950739794,0.009895300339176282,-0.006394963295894281,-0.4148899281819885,-0.0022457398787785513,0.004151237847935655,-0.007071833679914312,0.008441154371270786,0.43502173450285897,-0.0185104256268748,2.203125
0.32543027712814115,0.15351703111585707,-0.3745943527097095,-0.42682744013303964,-0.00029912625887905565,0.00029805847188095155,-0.006627627305672559,0.6168014288344768,0.0027475294773396377,-0.017232327253092043,-0.0025161042361483963,0.002330321117649051,-0.189017317537229,-0.07674657372476339,2.2109375
1.2949943663518244,0.6949538174633286,-1.8487472633785622,-1.0803690454144985,-0.007332538140754217,-0.008991523439837824,-0.02255278541976545,1.3542901426372764,0.012902685533025014,-0.07174088492240778,-0.012029666259512125,0.02431368794613256,-0.034863701678311466,-0.29106002874723946,2.21875
1.023502133769214,0.6021834781870571,-1.627839169577555,-0.5605760997249067,-0.011883252400841727,-0.010692629993102524,-0.017526431897944304,0.44379554597811477,0.011203522806512121,-0.0559204499861683,-0.01124887397838784,0.028508667540567124,0.4064312088468919,-0.22250220797754125,2.2265625
-0.4607050508570031,-0.1900444733413354,0.6002577460202404,0.49731723580840687,-0.003877967538774389,0.0057830557132443755,0.00534300595997015,-1.0284061069239,-0.005111480927490306,0.029961006428157386,0.0005468733021479814,-0.0001259698158055546,0.4400316639924213,0.10549038749138745,2.234375
-1.356265043945768,-0.6729357669961274,2.2909442993443014,0.5611062723543914,0.006134426681530691,0.03434523590296001,0.01236327480793679,-1.5167506292510644,-0.020397533902311193,0.08926984573922879,0.002063578795039225,-0.023378201043169903,0.31145991998561096,0.28399448916705616,2.2421875
-1.3797294921582401,-0.6418485458731917,2.5740814941153864,0.1847451908358263,0.00688896758586676,0.05302880973475764,0.005231607904180501,-1.659848993912502,-0.026094190568445336,0.0998998362976853,-0.005912478779335835,-0.02218263776485696,0.5445002184513219,0.27368332217956565,2.25
-1.5740829392970141,-0.7261338518331893,2.6790636758598336,0.6419116337225022,0.0040253551936300334,0.0469214952082539,0.010973368682850764,-2.2154432362231447,-0.02582145834511028,0.10848347426390029,-0.002790537222003291,-0.020572824626038495,0.7510759094830846,0.3265784063143062,2.2578125
-1.5347482468293623,-0.8396499278852596,2.301226521997965,1.092703474320604,0.00809877980250611,0.01416890956327395,0.024448320337055112,-1.351591949553561,-0.0157796434524272,0.08775909904172037,0.014387449194221226,-0.031741516000611564,-0.1118812552624628,0.3404426611564656,2.265625
-0.0704068770774758,-0.30276495490832656,-0.013369022538804187,0.14933516658557228,0.014521332019056496,-0.035132997860353836,0.01798643874948491,2.0830096468762824,0.01025210080408112,-0.019926311239519927,0.02640773761438998,-0.03238508990592196,-1.865482173087482,0.03168251001056206,2.2734375
1.922356670434139,0.681228014239389,-3.1374498785596003,-1.0812613964076787,0.0070714315616608675,-0.07310134481549278,-0.00557148178900498,4.605118423755586,0.03691248711949957,-0.14486011064026966,0.01988548605040938,-0.0018483333161891252,-2.4355873823129874,-0.39812874705144324,2.28125
2.277265300672038,1.1090137241113076,-4.090443019768024,-0.5453981935369309,-0.016348088711876308,-0.07413732917785235,-0.01583787098965266,2.471510237057959,0.03977454334463204,-0.15521831351617477,0.0033186641667369097,0.041450093951921146,-0.5859357221111156,-0.46004033077509027,2.2890625
0.9815443671918953,0.7039765552508023,-2.474898960237499,1.0349381204105506,-0.0326918155005073,-0.046761814649482016,-0.005186621924698788,-1.6166162208114416,0.021450934182299514,-0.06400259372175959,-0.005922848166432397,0.057495393497366105,1.6126613737270918,-0.16427451642786933,2.296875
0.12354588187738519,0.24364452578349735,-0.7553689022879309,0.9264496691109201,-0.021768003667154912,-0.013850147203948003,-0.0006399923818921536,-1.994770686270856,0.005103832614377563,-0.004689514293611201,-0.006418304292025917,0.03387952802999538,1.4646524100857523,0.0002589309494205076,2.3046875
0.4602485325934318,0.25103455548471204,-0.1268416195271945,-1.2693712773656043,0.0037131428597848002,0.026108595401435574,-0.019403705581356415,1.0016282911335748,-0.003939275203544419,-0.012529982491280222,-0.013743569312147867,0.0011006276968119335,-0.166844098959065,-0.13413171204976598,2.3125
0.49919051573775286,0.26557677372763044,0.6123134034808664,-2.6292472659261232,0.015181471570974563,0.06907333121100431,-0.036038809186554305,1.9232360052939903,-0.016283546841689374,0.0029549175520848223,-0.027525150130094145,-0.01131594769431151,-0.4796999856985163,-0.18860355264606088,2.3203125
-0.6346179285353369,-0.230583865296256,1.867126120415987,-1.031412178777528,0.007845269015591284,0.06900793759067317,-0.015500473286133964,-0.6047730610972868,-0.025074574043203554,0.06734425067469424,-0.020320195377357415,-0.012541670056343457,0.4840330085047214,0.08451081001322049,2.328125
-1.5898147743314688,-0.7978148555114156,2.1052071655942277,1.625358005687483,-0.0001751529458669957,0.007451671130474466,0.027031995761728954,-2.3041248709774997,-0.01421733043478561,0.09041166019448518,0.01334550783460717,-0.019577318496263114,0.49765060874031686,0.36697798575936574,2.3359375
-1.0308731664404263,-0.631335482382507,0.7927815294058376,1.9652261548263998,-0.0012767753061332801,-0.03930817385919451,0.0355419349010106,-1.1093232077039856,0.003986190530566972,0.03627010963884127,0.028881640189090212,-0.017978486313339263,-0.3050427098587516,0.2750325440053358,2.34375
0.13583437364656573,0.09384486992417213,-0.19007600121342655,-0.11569067753988148,-0.0033747228258660085,0.0011733823083329398,-0.004045033938553882,-0.03222205135094597,0.0009005883569855792,-0.005044949234773212,-0.0029494678720398486,0.005438021658733909,0.1434416947383047,-0.03127714290621441,2.3515625
0.2503831386716695,0.36842695071367754,0.43255761120141745,-1.4458857487011105,-0.006673193255249433,0.06696970991036912,-0.03418027110991566,-0.9250443334809133,-0.017856734071772812,0.024343703488367473,-0.036708219323933165,0.02206836022626613,1.4068871678642576,-0.10992983191762681,2.359375
-0.46631622097510594,-0.10076010570898551,1.1041756510543903,-0.29026031120619344,-0.002874480904130665,0.04329123791866698,-0.009944020474372563,-1.3118360882022624,-0.01630749693634483,0.04933747797968141,-0.016273373094887685,0.003646266033473641,0.9381495522750052,0.0751559706509592,2.3671875
-0.5363803819920671,-0.48544513158066604,0.1474200439635575,1.4064830030002973,0.005122890017920812,-0.052302134267754936,0.03252992045691605,0.49564410092946537,0.011705809067292999,0.00013154227961536462,0.03367035802805835,-0.02475069641555189,-1.1970517923918595,0.16412143918254568,2.375
0.18089002789971792,-0.24923165894725732,-1.2859585632513866,1.4385732646765088,0.005739316692051311,-0.09603324966122874,0.037077229487565394,2.0909497942025808,0.030277011940811,-0.06173660559804163,0.04728843924649076,-0.023709358712963268,-2.1458199419753217,0.031058239708321476,2.3828125
0.49358545742017285,0.09742092238626114,-1.3131601257533718,0.5454240595797964,-0.0014562050885943802,-0.055616350512125684,0.01305213799717693,1.3122466812035498,0.0205797588109918,-0.054698157000085096,0.021196562350178458,-0.0019450933420046056,-1.0078386288658163,-0.06986076366322501,2.390625
0.16837748447469134,0.0815226142343302,-0.5563935927078004,0.3863611580140116,-0.0061901537314844055,-0.01988790201991165,0.003654164635335935,-0.08485385473186395,0.007394590520579545,-0.01660040538340629,0.00505970362976332,0.007383468647493982,0.04396397129545158,-0.018651554936671137,2.3984375
0.14395157038026293,0.030333951271302603,-0.5364398354331905,0.4148688204813899,-0.0037636658609835846,-0.024549263162055752,0.006523771223542181,0.20743530402149807,0.008655219902867913,-0.01879651425030295,0.008828177932734901,0.0023209111006318923,-0.22624275113870057,-0.010776130991370687,2.40625
0.515940283945712,0.229983366175028,-0.5631585890373192,-0.7389387761407081,0.0017118317504479033,0.000682210177396502,-0.010163969460395583,1.1252039488630903,0.0041002886995624745,-0.028092799065133203,-0.003555615631266003,0.0013154181259702688,-0.41074091157042525,-0.12391607528148332,2.4140625
0.3925681915685513,0.34764977909305617,0.6327775282792815,-2.2695396039731333,0.004689518707041497,0.07761968923006407,-0.039335453207471886,0.4775657175921369,-0.01972696373948004,0.017475233761667815,-0.036483667739074785,0.0062489860053719145,0.5684537674530191,-0.16152740106915464,2.421875
-0.21756019347052827,0.180713660722222,1.81606230472011,-2.2217280741983956,0.0013956771727344486,0.11645923701664915,-0.04437747551694952,-1.214622184102362,-0.03604845150498834,0.07212379860593557,-0.050374112345288845,0.010250614948122053,1.6348470208028543,-0.04748671950277171,2.4296875
-0.330700199207905,0.07389233034726897,1.1407972681639662,-0.7492564668582143,-0.006876206931300178,0.0662013620322331,-0.022694629039004866,-1.8051497828974918,-0.022065312398705284,0.055435493491762196,-0.03061876288357151,0.01535215095082916,1.5890671765250948,0.027944214499128275,2.4375
0.19478241916450492,0.20967694579652987,-0.4534405135070651,0.16465284714980716,-0.011603928613301132,0.00020850855493990194,-0.0061220635811271365,-0.8752918368784719,0.0015590287968285576,-0.005463664252875176,-0.007905086098378237,0.019811552801811242,0.8058296420545543,-0.037031480019829296,2.4453125
0.5510804363428978,0.3070302593019808,-1.0160223870288474,-0.07779263279252173,-0.007867918681265622,-0.015461635408717516,-0.005819386683136837,0.2462387970741814,0.008997562704145697,-0.034413001329965505,-0.0020051260930457025,0.015476024387724004,0.13900826282922704,-0.1111735273101348,2.453125
0.49146835204710243,0.21200978666205095,-0.9423182001072627,-0.030102084881203417,-0.003716468438624154,-0.022526614884625002,-0.0010110689459962897,0.70886917820318,0.0107091587768045,-0.03656684893408901,0.004383828770182613,0.00670211221297522,-0.3041556167076264,-0.0945113103238595,2.4609375
0.316286162640004,0.026618074810636272,-1.339851990795457,1.1663188344671553,-0.006176861484171312,-0.0669485271621898,0.02044725075990709,0.6323248025335138,0.022584968093386438,-0.049219661403257994,0.025523685756722803,0.00212093158588255,-0.7328629725931778,-0.013980885523655081,2.46875
-0.15906829733247443,-0.30133651212720025,-1.2146619809119534,2.4610203814524034,-0.007095934622144479,-0.10229287452000119,0.04405355263122715,0.18388526288020227,0.029393397473759904,-0.04136890854222947,0.0462233365003358,-0.007193481923683148,-1.057227747918024,0.12748508925661314,2.4765625
-1.042006526922928,-0.7643402451289594,0.42031826983857984,2.575553475200102,0.0015274837572621118,-0.07468008661832083,0.05082475186115786,-0.4406677772551225,0.014368502252182141,0.017542564769336102,0.0470969979713599,-0.028009013184973834,-1.0856492043222485,0.3039079453847238,2.484375
-1.495560539635728,-0.929291311176812,1.9540128543311508,1.5031137369354781,0.011017941766019251,-0.014198032961450918,0.03593398611645642,-0.6634666368358147,-0.007056526506895081,0.06976923912459518,0.028896598711916764,-0.04036412034050385,-0.8101744327842044,0.35210534301495966,2.4921875
-0.8677944472399783,-0.5074968992701753,1.6845207235436543,-0.03314478936289209,0.011494221697844023,0.025554622139374362,0.007578151231414509,-0.08262480391432316,-0.013958837943698276,0.056027472494479064,0.00440458349619812,-0.027864658500606734,-0.4266605172488526,0.1719672553205493,2.5
0.17111713591606847,0.10274406321222566,0.5046279101947198,-1.3841386966987785,0.0076271415524673935,0.04109664115660673,-0.019316045022911607,0.865647735578996,-0.0105230404126578,0.009172047330847689,-0.015441147017520146,-0.006751101483623487,-0.17688370475898968,-0.08117621203543791,2.5078125
0.7399329153114352,0.4405300788108805,-0.21299013028670935,-2.0065884954882156,0.004265441551073118,0.04591856097491953,-0.03280553165447796,1.277803682938177,-0.007605514719493501,-0.01778045729402053,-0.025380614565712768,0.006394869214120646,0.008180150679714152,-0.2162322378035826,2.515625
0.8189123751457495,0.529916832038946,-0.542977266863706,-1.698685082627663,-0.0022117984494957185,0.03844687064931043,-0.032408796609566186,0.731133863301379,-0.004887413117639666,-0.023204185693685403,-0.02651730721841624,0.017130107088720817,0.41443874719998886,-0.223574682875131,2.5234375
0.4820642738336836,0.404716175617285,-0.2885907162273701,-1.0212291793061485,-0.007491444419254957,0.03432331241969315,-0.02516783862290637,-0.33128571403026086,-0.006325703713382946,-0.004906013666362821,-0.02428503905763012,0.021367988871162792,0.8981835680833561,-0.1365301683739577,2.53125
-0.2594784006032595,0.035547454376010854,0.9834994117240834,-0.7429870737763441,-0.0029866411790709815,0.05428761117858879,-0.018445735727090424,-1.1296285012299268,-0.017915642548716783,0.043805034720349544,-0.023498357802146208,0.0079195284131923,1.0542001697758951,0.017650028335986948,2.5390625
-0.5418750252198669,-0.11313238951751045,1.5395514361246059,-0.7563833230001595,0.00024213763264172676,0.06493478961638749,-0.016859638882730333,-1.292523408691668,-0.023204690552908885,0.06330117638567972,-0.02371304888049743,0.0006967391499354762,1.0334174774390639,0.07272819416398135,2.546875
0.3373053400871706,0.3320776616917882,-0.49896481868187154,-0.19457190403870392,-0.013122023335697114,0.012903355055197933,-0.014325742491074293,-0.9653677055906821,-0.001066152511752615,-0.006000491560877257,-0.015984688281433033,0.025858939659663054,1.085134007577705,-0.07918430756969476,2.5546875
1.1718814898544483,0.6626025159906753,-2.917574908316733,1.107708392424101,-0.026615365885325135,-0.07318523141164007,0.00314642270140617,-0.36486397025459366,0.030828685539266917,-0.09049081927259736,0.007961651199880473,0.045691274398307724,0.6332970479817088,-0.19262192688636998,2.5625
0.5264367784463626,0.1315396395268757,-2.168611492314238,1.863624459318961,-0.01405899267240354,-0.09852580680274804,0.02809275495113035,0.36964742912523696,0.033450356643648274,-0.07366974707739464,0.03345974582640865,0.013242786405832475,-0.6210558375888747,-0.03127559071595813,2.5703125
-0.6137534688587905,-0.5486413042896539,0.597542702536184,0.8919065716810131,0.011689498920705386,-0.03555160418096422,0.028070985385081623,0.9531426880356009,0.006124463311993663,0.010499521508424507,0.030377355623689893,-0.03416226619930326,-1.4675638187757616,0.16206578410041217,2.578125
-0.5665695420592031,-0.409627689614512,1.518127317969805,-0.7517120210471933,0.018027931160108316,0.031062813193531987,0.0006023641129247739,1.054886538455642,-0.013235918606442756,0.039919378125324825,0.002532299280659014,-0.034403030964746964,-0.9839117829582613,0.09073594224248085,2.5859375
0.039796758542062396,0.003643580455146904,0.3416587928587348,-0.7041383485311213,0.00512574668348031,0.019493886672730377,-0.008294474098725626,0.6081865417050306,-0.005171169289001271,0.006137590008982628,-0.005540172340993538,-0.007311088412911296,-0.2606075058196359,-0.030485574255567086,2.59375
-0.1366253720804506,-0.15164583558432443,-0.4545458592755645,1.171820853027624,-0.004962559183476901,-0.04376590380835949,0.019683462077813442,-0.14884789740112947,0.012201289426359814,-0.01307508245770081,0.01993138173623609,-0.001855702506182434,-0.3363630776374071,0.07205411101020853,2.6015625
-0.4060918069773673,-0.3273468052218666,-0.5322952011967941,2.155998718288538,-0.008243741319185902,-0.07092342095747758,0.03550505212958193,-0.6451709347062569,0.01812101151994295,-0.011134061653899307,0.033370189890962125,-0.0035420014033122537,-0.39795337500189304,0.16026720932210659,2.609375
0.2228588007149868,0.09590253753378145,-0.857707881094959,0.7043361317798132,-0.008552079659072905,-0.03416730962961738,0.008098940843204571,-0.12535583788749616,0.012015753771544705,-0.02599997097865951,0.009706507925585368,0.009914846185182104,0.005803284688451347,-0.01776625859913304,2.6171875
0.7151657483475062,0.3569417023278032,-0.677536829682988,-1.1807269696392924,0.001950284018306462,0.0110364276123413,-0.01827106865996038,1.3407553089624107,0.002509127612505394,-0.03360029868245575,-0.010236371112134178,0.004833580386495391,-0.32956052039516787,-0.1795039372716017,2.625
-0.0095432911783278,-0.16240253230478105,0.7492868879188962,-1.273801715629587,0.019294528068896772,0.023322813916176407,-0.00649487773352861,2.114933669903848,-0.006529043726382272,0.004962205519111117,0.0013513990800309529,-0.03106807635050876,-1.3805096123348644,-0.03410790008985201,2.6328125
-0.9740106215021985,-0.6262469185409022,2.0784316255243485,-0.36742300046629767,0.019453715233252525,0.03282245576864872,0.00801285038489356,0.5928395672502778,-0.016806352478879117,0.06224147166015767,0.006686133436974587,-0.041386698785399884,-0.9524521431691332,0.18407935056640984,2.640625
-1.0273715722484014,-0.3236454432154395,2.144801512469216,-0.18905695503143397,-0.002067791080857944,0.06857059642418124,-0.009575147780814672,-2.322850096103868,-0.028107397349279476,0.09262522720421645,-0.02193563696819289,-0.0006074431486408349,1.432706927329406,0.18487727862469297,2.6484375
-0.5373836053365197,0.17384518484172748,1.4727845483235118,-0.5636539436405681,-0.01917607141379252,0.09238907121745674,-0.03180637966692243,-3.7969053847723586,-0.031612655361982926,0.08543197246513175,-0.047919179558759864,0.03745452240889636,3.0953950895763995,0.06454224083111776,2.65625
0.028975383763808444,0.360516746880295,0.3978326871335051,-0.6369139911500988,-0.017849478397510853,0.06123896468633043,-0.02943746260103797,-2.473275601914998,-0.017953198947125243,0.037899183953742546,-0.0383299005110468,0.03733640484766414,2.3278618374110254,-0.043478301676263396,2.6640625
0.8241286195798309,0.5362448972733761,-1.2194725800984658,-0.5861737752096885,-0.01194992345772028,0.002012838557587159,-0.018982458907197075,0.008736618442852182,0.0059066940558379875,-0.03851088937812076,-0.015187077146949661,0.02808626588425522,0.66858670234698,-0.18579755638145673,2.671875
1.3306806605066477,0.6723488347353083,-2.23106406910134,-0.5739905192331484,-0.009538770483598337,-0.032098763890795495,-0.01406985509374309,1.3975456244384121,0.020023714915199053,-0.08472100272573124,-0.0028322049511274408,0.024983574697649696,-0.21912247782331654,-0.2784248168810185,2.6796875
0.7304672272311393,0.27258939888193684,-1.36444071961001,-0.11521782160762906,-0.0016168582767407036,-0.03599649721756003,0.00037706894175383083,1.446549428075347,0.01661218093576218,-0.05737632996952232,0.009613393668250397,0.003992353822048249,-0.7638213006927962,-0.14110848832943548,2.6875
-0.30264016727745696,-0.39465589511162635,0.14616468757241527,0.6456817364969457,0.010990808163387164,-0.03938654068767656,0.023686758802923716,1.3790487995812382,0.009723416949636549,-0.008192088560095095,0.028736795647823155,-0.02990141741813112,-1.5627744305489375,0.09337904651054417,2.6953125
-0.3778443994193034,-0.5020289824254386,0.06852956285456752,0.9897417477078727,0.013121726860118385,-0.056416886072260336,0.032554128085535095,1.6874568373433199,0.014209990299266152,-0.01382689334917697,0.03857058689891118,-0.036867117933833134,-1.9831411640375298,0.12320183615596739,2.703125
0.30543853557845674,-0.08158749573816283,-1.22139727932832,0.9627345350382354,0.0020413108940413186,-0.07249434452787348,0.02429309098849399,1.6097700570405666,0.02418311265236248,-0.05477153323658832,0.03284968298733633,-0.012555886199855187,-1.5075059795618875,-0.014402881378615121,2.7109375
0.4176552949407462,0.10576868555901205,-1.3872656054432937,0.9280608646781618,-0.006872072023197753,-0.059630288288417765,0.015339339495773086,0.6263354129027023,0.021170672500696968,-0.05060319852767747,0.020671110699764662,0.0055930504959775095,-0.5914414242833302,-0.043444679645398825,2.71875
-0.17225018615902835,-0.07585379934274274,0.007476504660728045,0.5508626492137055,-0.005152739253376062,-0.010399095771775778,0.0064892537757809884,-0.570302443062421,0.0019966420476772127,0.0062512730527484375,0.004628795057144642,0.0029726905350433964,0.20729537326506733,0.05311097544629207,2.7265625
-0.4033333863121482,-0.09797949456916395,0.9644741461184925,-0.2672460904527778,-0.001808615824517036,0.0368297988691999,-0.008211135878649493,-1.027383420862813,-0.013831566177317905,0.04201840073930407,-0.013246081270937713,0.0016511059700241566,0.7290417779668905,0.06511353731862621,2.734375
-0.054969122357351616,0.12031090139164179,0.5737689593569253,-0.72942716376489,-0.003885690824242839,0.04369338624862043,-0.018185375717006815,-0.8191579550419333,-0.013242944706358995,0.027629279247129105,-0.02122503345428059,0.010347543018030557,0.904714226999469,-0.021240157647923384,2.7421875
-0.08667367859320747,0.08210361055518757,0.5018908691295445,-0.5164874065023569,-0.0040399783723107,0.03507838986530212,-0.01404763667101835,-0.7947375876741909,-0.01093721419289483,0.02497668621731862,-0.016958229833448035,0.008956428724247904,0.7933695724797173,-0.00675837849807282,2.75
-0.8494507252032695,-0.3330300842680153,1.7883264543153734,-0.20688269393190642,0.002538494016699764,0.05047057468726937,-0.004655737066096586,-1.3400145812013313,-0.0213114018806071,0.07162839070015425,-0.012599815292289596,-0.008916483827580996,0.7093915407438703,0.1543830357113569,2.7578125
-1.3096879343901595,-0.5689927712060933,2.476590086761884,0.13381658549252412,0.004304689488021063,0.05648195470833641,0.0020206092828882684,-1.8867672819488028,-0.026603907503146902,0.09894759935666332,-0.009708436785273843,-0.01649870782375772,0.7939400947732953,0.2563798533175387,2.765625
-0.5477921138400023,-0.20263022604972308,0.6250813009248374,0.7556523148304153,-0.0072084865007370534,0.004553984635977501,0.007046417797176207,-1.5252025893318728,-0.005393632999562818,0.035343105551124285,0.00020838059746122,0.004192843373444913,0.7273376080222553,0.13023702027270118,2.7734375
0.8695713606273726,0.44977957889922227,-2.1223568927005485,0.7358736162331054,-0.01682393312529591,-0.056731514817376996,0.0036953948157994886,0.12899189479169193,0.02365766462443631,-0.06941877661338315,0.008979880732001802,0.028131529582339523,0.1553519334436101,-0.1439922679894057,2.78125
1.663129442293031,0.780896475586618,-2.707776169837681,-0.8771941379178007,-0.006480786715662533,-0.04216429509491064,-0.015798971615413195,2.344214210933993,0.025555614225517907,-0.10912253981992544,0.0001867511148650672,0.022387609347611317,-0.7334749697914337,-0.3514082476500936,2.7890625
1.3523134538570114,0.596640352212392,-1.0335107281777678,-2.6745966481155694,0.013499476342820473,0.025979934414062503,-0.03470999573002685,3.4554622151024232,0.003124792322281511,-0.06508912045745714,-0.016909024058188876,-0.004750514494395471,-1.2670447259363833,-0.35166580910905354,2.796875
0.32381228037552434,0.08469218269807345,0.6760030402877161,-2.199821556123244,0.018982992473341294,0.05063469146461795,-0.024281579933435302,2.291580255129661,-0.012067769395716332,0.001216069231561388,-0.014900420559626553,-0.02255304965844959,-1.03299032793582,-0.13481313960080576,2.8046875
-0.9178767697218009,-0.5457877615765002,1.504948742507569,0.42527755042166404,0.008934711491714237,0.010821792122656864,0.01428376718405827,-0.2960575115168893,-0.00994506654492066,0.052059406149127845,0.010287489897571457,-0.026354974066633993,-0.4232558647234735,0.19841713185625778,2.8125
-1.731289693956962,-0.9806500029067499,1.8433900171427,2.4753989481153456,0.0008846111635022319,-0.02903046617393929,0.044947714458210185,-2.017735371452265,-0.004518321950942179,0.0789060014543244,0.03231320314801668,-0.028388529657536573,-0.11321123561926315,0.4288958647613123,2.8203125
-1.3091448383526436,-0.7549379939838113,1.1692406200650944,2.2390941734259093,-0.0019930804320915526,-0.03597086827925482,0.03923477171872612,-1.6455070849854472,0.000750078216394962,0.053593796899834636,0.02961971803002933,-0.019547653331447958,-0.10688178040806817,0.33760802899734427,2.828125
0.2820446718471675,0.14881618048576503,-0.9986638842977758,0.7542267614968503,-0.011016074151694892,-0.03540011238212956,0.007097288103504965,-0.30465793047855655,0.01282102486304414,-0.02891191301222584,0.008224289267366115,0.014557750508002062,0.17598588101798057,-0.02853129606595179,2.8359375
1.6087134751876264,0.9572805754962573,-2.9663649078127503,-0.1949748828056769,-0.024385531715699786,-0.03767207412273901,-0.01951962942351269,0.17573765216887044,0.023677336221958566,-0.09678436494352993,-0.011668265243748897,0.05236223006458058,0.8616287312684539,-0.326118475784748,2.84375
1.4745661678162465,0.9544828659464932,-2.63706462394432,-0.2857078943853705,-0.026335603473082895,-0.021589457490035577,-0.023956032670602846,-0.41416411634696837,0.01786951094340396,-0.08036529887488644,-0.01890373038885857,0.056401866211791885,1.315903589871673,-0.306065932943361,2.8515625
0.4515539190589381,0.38517408053434543,-0.6289456574433742,-0.3510184528181723,-0.012614974505441832,0.013119755506045576,-0.016545474717363565,-0.7382729581578878,-0.00024469474259839,-0.012291650892389382,-0.01691421935388983,0.026402758804988068,1.010070533373087,-0.10681335747349298,2.859375
-0.20873624698244242,-0.06623252387460411,0.8600895013673255,-0.7477664784169505,0.004443468435916029,0.03694023106897946,-0.011005997602278054,-0.02641946448841137,-0.012319065226705471,0.0291032710775619,-0.011598652259971214,-0.006479043247877424,0.1433447421267336,0.013222284374701422,2.8671875
-0.4452843243283893,-0.3081761133431761,1.3550351917173673,-0.8567449075757709,0.015253274812731032,0.034633733109993646,-0.0037389688454214673,0.8787232109765178,-0.013398355478383436,0.03640398738693541,-0.0019640706054155624,-0.027736184665746337,-0.7312929055683576,0.06115003781666164,2.875
-0.8883291937226774,-0.6222081295143994,1.7982713159647674,-0.19745491334756549,0.019576640695020023,0.018943680649558942,0.012029469197120607,0.8763491072607431,-0.012099050008658746,0.050481401306766184,0.012286499203217227,-0.04258964358611926,-1.2035835334831788,0.1748175523123873,2.8828125
-1.1983567043137116,-0.7818916628733679,1.9271830603718652,0.5924495867085562,0.016100442495701348,0.00454059637800891,0.023461311028216032,0.16847227456427613,-0.010184157774430947,0.06111808767730481,0.02016930763771291,-0.04261467814099118,-1.0390498122512257,0.2631206862526313,2.890625
-0.5490449843574766,-0.3376087723710589,0.71503506584371,0.5636275528519179,0.0028376882230411763,-0.005113770976170319,0.01284862811252691,-0.2768722982907522,-0.0023958640485768038,0.026228254454448364,0.010560681108271651,-0.014103186166626758,-0.2688129854208715,0.13019986663443625,2.8984375
0.5967378038253914,0.39164132384556605,-1.05654099934837,-0.12871584146141954,-0.011749831494929088,-0.007922251087693776,-0.010455014536925879,-0.20622406627196588,0.007101577762226898,-0.031368086575474095,-0.008081985931079868,0.02358876321840134,0.567964862068558,-0.12444728621268232,2.90625
0.906095376134969,0.5848918529148522,-1.4122636090461058,-0.5260112766454745,-0.013674804003745081,-0.002324742144173964,-0.019109213109337865,-0.024532411289620665,0.0077480816266174675,-0.0443800137767376,-0.01501071642581131,0.03135891075052706,0.7231678212344069,-0.20047231968463966,2.9140625
0.2428995101529134,0.14664809071748983,-0.25987048919387007,-0.34580116167427044,-0.0023493460623707618,0.004587204021797092,-0.007333250657487302,0.20901293888456068,0.0006945540007182833,-0.0094883654838485,-0.00508386633019754,0.005500149508816026,0.07800808477373866,-0.05992624958643655,2.921875
-0.23806166923535071,-0.20125329592366886,0.5125627090422125,-0.11644120944882551,0.0068811146604820465,0.002859864727897232,0.004248722636714068,0.5670505015129217,-0.0023522219794266455,0.011825372489690709,0.0059460840477611205,-0.015995886625610405,-0.5810076416282084,0.04706130394531037,2.9296875
-0.007374571588528018,-0.06336670978673511,0.00881714107861859,-0.01084065996255879,0.0023881053706579585,-0.006802709350956961,0.0031030989135317974,0.49992954845315274,0.002285410341877745,-0.003890064535752657,0.005631876474416385,-0.0071781305773657034,-0.4233405519207588,0.004833809089137965,2.9375
0.25705006793921303,0.1809896400071728,-0.6244923839117522,0.2311231190517244,-0.00913776190589853,-0.011599968468784479,-0.0019701261467081127,-0.3737121952029153,0.005620038039208647,-0.015962668819502403,-0.001428176753348207,0.014592812933960588,0.3931146150379699,-0.04370935560416123,2.9453125
0.05803901258284179,0.14370775098408775,-0.32883013073327794,0.40111935878113514,-0.012573939218893982,-0.0020425756686699046,-0.0027368868665834764,-1.1643029953553983,0.0011943160430359864,0.0012198339259778819,-0.0059237568073178745,0.019427301170606565,0.8919285843286202,-0.002124834737350512,2.953125
-0.21569158248489798,-0.03902510642701197,0.3401758182879053,0.15131209362778938,-0.005024382685188847,0.011277633914213225,-0.001751346110688573,-0.8492546914919162,-0.004804447945368396,0.019906008413463704,-0.005071601061521374,0.005500125512657257,0.5455229264998193,0.0446282386833493,2.9609375
-0.1814690185297092,-0.10283569672504711,0.3832219119761245,-0.06052759007459992,0.0014720879430244593,0.007125151486387464,0.0003876230235134717,-0.012630686804166145,-0.0032574005375874196,0.013288424023138524,0.0002734794461599946,-0.005597333963953163,-0.07701461081640475,0.034357056101680924,2.96875
-0.10834891182355635,-0.10350341446450421,0.0044128295093085555,0.32285851780579117,-0.00016521812462927306,-0.012904938818797748,0.007005756930710863,0.11821015669000529,0.0032262172064531345,-0.00037904817504571945,0.007961970487095012,-0.00495543495900723,-0.2716143160374107,0.0351459983923487,2.9765625
-0.29060008146691824,-0.20644450294233377,0.09540160298247531,0.7571161582647146,-0.0013917651806433032,-0.021538842437036472,0.013906556664061454,-0.20348414033024334,0.004379315275930343,0.00547979227645119,0.013125409951222187,-0.006355397284062586,-0.24611797659827767,0.08634528354456585,2.984375
-0.3466572627463327,-0.2561617557456901,0.37241086930851985,0.46823362838227234,0.002966372396341785,-0.012381657565389047,0.01195038998351095,0.11529173759194883,0.001279202486896133,0.011453744399834062,0.011917248509225941,-0.012966879897125149,-0.4541498542514774,0.08827603096790305,2.9921875
0.22205009856336644,0.049318941490920594,-0.36898944775883497,-0.1260707933259227,0.0013847109136912142,-0.012312371120544069,0.0007469474644470051,0.7813373711905678,0.005627308943760182,-0.018690630395249708,0.005239450161172575,-0.0035173627243344115,-0.49303160509752314,-0.044229153382835874,3.0
0.9495613000471899,0.5239709798202902,-1.6117492978929426,-0.3629946238481789,-0.010320945776483228,-0.019331339357976877,-0.012268663941951082,0.6020519610853736,0.013210808384682854,-0.057001590735801695,-0.0055290395133342895,0.023725698195030093,0.16288836340479407,-0.19937892461812368,3.0078125
0.8840932898363614,0.5988128862906952,-1.1985306239014932,-0.7990282230960061,-0.012703708521388583,0.010777756886610864,-0.023885653910255763,-0.08013366881197426,0.0037505328444128695,-0.03688480837657349,-0.02023088350737343,0.031363104035998436,0.8499050709283225,-0.2065638990602449,3.015625
0.21002898631392825,0.22858808863335434,0.7189690362827915,-1.8295340782981435,0.004427751349433377,0.06717393227108386,-0.0314430997997177,0.28610942727813626,-0.01802158237136314,0.021919481459347214,-0.029841011753139367,0.0029331337366814863,0.48510362877346164,-0.1091914624552456,3.0234375
-0.06030798790153103,-0.07281223897173225,1.2676704740768188,-1.9320646363147034,0.018182799465407955,0.06095424820510038,-0.021339672642719007,1.5196497024607938,-0.018111902749282528,0.027732610505172405,-0.01631166769569509,-0.0242582835968233,-0.6880609278952757,-0.05230692922370592,3.03125
-0.14062094855703744,-0.26961051459738006,0.11577045712421415,0.1900230688502598,0.010659420256104545,-0.025230902663029613,0.014669703416265825,1.4356622338674137,0.006790646937051518,-0.00953461863351875,0.020284176269728116,-0.025309570607178627,-1.3642080609661955,0.04394521927293536,3.0390625
-1.0865733822519303,-0.7575301373251383,0.47447119289205747,2.640448501450857,-0.0003893717321136038,-0.071580915433462,0.050064283356489624,-0.7592181827732427,0.013094203834417862,0.022346347535441426,0.04495714824722672,-0.024854426598030624,-0.861731022601409,0.31346336626525095,3.046875
-2.116583269305414,-1.110558948876426,2.5754285863352018,2.52099366914135,0.0001639352071917882,-0.008151774843832274,0.043464180123833,-2.8951012704427845,-0.013755747920145417,0.1110236325145302,0.026001728451892702,-0.028645628453828415,0.38891127161680833,0.5022565712579532,3.0546875
-1.1608136954166537,-0.4014228072468048,2.0608526694864837,0.3749599882300648,-0.004939337300584802,0.05381455727857322,-0.0013918309569757208,-2.694377530850054,-0.024808214998621753,0.09334832892842967,-0.015413214116955929,0.0004105760973975037,1.4867788001634115,0.23123800304991665,3.0625
1.3946320105882677,0.9683696418986567,-2.1203525165718164,-0.8726539166283539,-0.023977059566802406,0.007200445661955454,-0.034061081899808394,-0.5665246200631836,0.008684773712622612,-0.06191462231163974,-0.03024505650211778,0.055790647811944746,1.5880631211150387,-0.31359891103228443,3.0703125
2.6260432187121183,1.4525097793224475,-4.656639368189657,-0.6679087005420624,-0.029080794884066893,-0.06329817639751349,-0.02917381611816415,1.4225739516958322,0.03913237976384265,-0.16330180831610974,-0.012627344975696944,0.06856567335689612,0.54927383742623,-0.5401847945961967,3.078125
1.344176362434059,0.6265582054688943,-2.1760014903857403,-0.7315875504129892,-0.005073728664212595,-0.0339721597440312,-0.012805760749944585,1.9444011080984023,0.020704268068349768,-0.0882022283390243,0.00040803020288837053,0.017432656497872158,-0.6284909497264694,-0.28440603052157254,3.0859375
-0.5398186835790391,-0.37596905523934215,1.6130510164148668,-0.9858651646043969,0.018494733586095123,0.04025549279543559,-0.003610285157697383,1.0515952749121664,-0.01571447128676442,0.04301766778510017,-0.001718302323242701,-0.03350664888867964,-0.8891356788526424,0.07645228415899318,3.09375
-1.2815388049729477,-0.7412367415926292,2.3903686177826895,0.1178229059872762,0.015778902121942745,0.033421391276682026,0.01300760920735092,-0.2927578469927441,-0.019424298064503465,0.08075403451661582,0.0073453308398902135,-0.03880579824361299,-0.5390125529899961,0.25911914735409947,3.1015625
-1.092436617656917,-0.6760854491038442,1.0762503162278785,1.6873729442947265,0.002549148212021373,-0.029324567814656668,0.03321347972707311,-0.8678992438763811,0.0005601003750351109,0.043263498415653176,0.027062033442378328,-0.02365482472751647,-0.4535338188196061,0.27809255969755403,3.109375
-0.5368253244724325,-0.37139130136859644,0.2953660813151904,1.2011936731064634,-0.0002076369810173456,-0.031733057015805984,0.023040182985021727,-0.3300780820702119,0.005507779232846649,0.01305532575192813,0.020983971924461747,-0.012750608489262334,-0.42805712907955484,0.1514924949624191,3.1171875
0.2553607253592604,0.17805251176986142,0.11516555200646994,-1.0028925187458384,0.0015403871817250936,0.028874438264035095,-0.017032926855013383,0.41983346159180984,-0.00638119252232537,0.0008706034521956392,-0.014223719892230455,0.0027158615749664845,0.1218828132708538,-0.08648043272853016,3.125
0.7695880255422951,0.5397084474839166,-0.21694467063872327,-2.0687689268237417,-0.0007107852058653045,0.05697385271808528,-0.03885936320020852,0.6386139465646838,-0.010746275309236735,-0.011594743034345675,-0.03373692306750898,0.01673462734196195,0.5900567312251308,-0.2282140196619901,3.1328125
0.4899306193432059,0.30236810235142975,-0.28196795005578784,-1.0885158177534402,-0.0003420431191794097,0.023772152116347048,-0.019583393643441322,0.6104367263501994,-0.0030022655099280235,-0.013884393638942498,-0.015190955336655,0.007852781864780835,0.1297661643845443,-0.13496531611787885,3.140625
-0.06894792528087423,-0.11553095222214552,-0.04434146960032106,0.2705718590486004,0.0019405762158024192,-0.016291720935848044,0.008123439113455939,0.45412528400218716,0.004601467285795269,-0.005259306592008805,0.010412168710212895,-0.00854323151151677,-0.5130362981483783,0.02740773576203665,3.1484375
