AF3,AF4,F3,F4,F7,F8,FC5,FC6,O1,O2,P7,P8,T7,T8,time
-1.8585230592280948,0.09663973028066847,1.1142845430160417,1.9074544859900444,0.050332644890985455,0.057431226548748306,-0.011876407276914497,-1.1714379336062106,-0.011864155707249158,0.05375830934263208,-0.010684337101027359,0.001889158564417289,0.04609030779053189,-0.2636431015684911,0.0
-3.0912493347398398,0.38607927083431537,0.22392199903581486,3.012606577652493,0.26035691548973566,0.18133542996432664,0.0626967116196285,0.029349328561396115,-0.15230456410023432,1.4433184544131128,-0.026258000071145288,-0.1333786880806312,-0.2304033646702585,-1.9656844508667244,0.0078125
-1.1808912391248323,0.3750139564685061,-1.0819788987627046,1.3025025227243183,0.2412013570915124,0.14793685492391795,0.09062590510999878,0.7131936097090057,-0.19391582039539917,2.162641312580418,-0.049565911947554955,-0.17935764763226922,0.18036371856033753,-2.5270961557122984,0.015625
2.4246228501678395,-0.21756447621228078,-0.26368788686667055,-1.924654686195478,-0.15622544190523946,-0.07511257499360123,-0.0022841472772762326,-0.40282275751627045,0.02501704455702671,0.4451419278441347,-0.05223367364893676,-0.0063107206055607505,0.3514896416739628,-0.14570674161210362,0.0234375
4.010064310648649,-0.8878374132797671,2.0997401814425483,-3.563709635374507,-0.5619486593592796,-0.28059611292674125,-0.133068351999493,-1.6461689431386233,0.3322054093932311,-2.6417734732948794,-0.003246625117441481,0.24304749912817017,-0.45434414960371233,3.4860352764442832,0.03125
3.1371098678532796,-0.8952417767191925,2.2446490426649013,-3.2439038504855366,-0.537493914431403,-0.29574446539204646,-0.1562880900354337,-0.8080714554923469,0.389783467127319,-3.9075261772635215,0.06936056622011648,0.3087976461811445,-1.0298573801425341,4.722321085694606,0.0390625
1.8605086998812603,-0.15178459383862167,-1.232749297959274,-2.498065853664454,-0.09432401354414709,-0.156854664469391,-0.05274566319828273,1.5550500805317211,0.12003746001079062,-2.123528193727111,0.11252597616202986,0.14272458103784452,0.04080853589934668,2.4762473179548397,0.046875
0.7046431022368922,0.637726032146927,-4.596561514442324,-1.4537108790043687,0.3553187469686206,0.015446525715118547,0.0697678328224955,3.0751374527156456,-0.20386263608554342,0.7047336399052672,0.0977209059154182,-0.07984223761606869,1.5353521940751877,-0.8638570092205219,0.0546875
-0.733006276946043,0.77012139545684,-3.9023324933411563,0.37486511912710613,0.45190175308282976,0.14487109501573195,0.12271235771128236,2.4240163162967168,-0.3079578262945911,2.393039923623681,0.018559137695623253,-0.20700728274641786,1.2899444006584322,-2.8407318683828224,0.0625
-1.866596229222782,0.4122588122802809,-0.7066109059908576,2.0399598998964503,0.26894396499813633,0.18408412421304007,0.09785862290145204,0.4398359968984238,-0.21163422505212842,2.4240395246014304,-0.06301612566849524,-0.20026174626838325,0.06921582107986075,-2.887081908461418,0.0703125
-2.7145046720341757,0.3293802567937421,0.4513433895835398,2.745324087173488,0.20254586562097301,0.1446547663212456,0.03862605876043467,-0.6193919525136761,-0.1204679675094468,1.1537430683578866,-0.02805791122447122,-0.09385790212170167,0.10442871215984793,-1.5909510674270686,0.078125
-4.018621073279966,0.6772559602760654,-0.9958438581330823,3.1629428051669812,0.3901069090369218,0.12410568683271099,0.010005113449712909,0.4260171101420301,-0.13426123343414867,-0.27429605574548716,0.10301981989891051,-0.004691520478785984,0.848183856728151,-0.3108481087539736,0.0859375
-3.950326220011579,0.6788419226849823,-1.3417998619843003,2.9467666990657864,0.4170136277407917,0.13645391351309613,0.02865218837759082,1.2991258949244309,-0.14534317941240982,-0.21590384631951332,0.11326633841339882,-0.02861493115134129,0.44643425530720937,-0.38254772688215766,0.09375
0.29089796919548877,-0.1540436819459105,1.090778750310723,0.3120291777379975,-0.08830714452735632,0.03256449421985585,0.01756903178271522,-1.074114264113908,-0.01012207100960767,1.062992629065278,-0.08904602726412406,-0.06398338364236314,-0.28203904296592547,-1.0441050029408685,0.1015625
5.9870607823149316,-1.1638940273974923,3.884436150667915,-3.571003342035338,-0.7713492740155877,-0.20560501813109158,-0.07201396095107804,-5.06155742525546,0.23412025717570267,1.1607845598400448,-0.2766630439427408,0.03924101600009962,0.03222559898959946,-0.21520122622625348,0.109375
6.372225409860849,-1.4298387148496923,4.973942186083853,-4.099306352501983,-0.9398722266378727,-0.30571284644874896,-0.14433396386825995,-5.731987376821364,0.38352482395089466,-0.5848930608351935,-0.234343939542345,0.1791843689324969,-0.19642743345008368,1.7574338481951803,0.1171875
0.7444386744737375,-0.9090104721705837,4.5305663792425035,-0.2189627906593221,-0.488907576957273,-0.10537629323522385,-0.09124096166404905,-2.0188991544780355,0.30359423951225806,-1.7944519804723826,-0.06134867969654375,0.13955677484912873,-2.262543453396766,2.230992403378524,0.125
-3.554846395011443,-0.24341206792321984,2.550951892989595,2.7451139229882893,0.041565535802934275,0.14280938620451059,0.03551877775948957,2.3474206587670197,0.0854933928062055,-0.9909699804066967,0.04299719618045023,-0.044003583743126004,-3.8263208130931314,0.6664516462057126,0.1328125
-2.017709784693374,0.10897452200460196,-0.7394500657009069,1.0218956141816427,0.2328381402040839,0.1495883057694576,0.10256919819173493,4.393820720383355,-0.07072819478578281,0.20123748779804726,0.06442590127695509,-0.1415463354504547,-2.7606499746694606,-0.5450317337239016,0.140625
0.9416893454421841,0.1936094633622143,-2.829583337043572,-1.7282193529403234,0.16625244812100382,-0.007574925220039996,0.05628892637349593,3.6156341670507137,-0.06933852011779432,-0.15575764910198045,0.08904165731579644,-0.04952560122709103,-0.3858856662057637,0.1630876116702162,0.1484375
0.15791668675169873,0.29127544656131404,-2.0483725336900265,-0.9670194301415778,0.1100007782042897,-0.10879338097176718,-0.059013865183136394,0.7174275892760343,0.021293640389419735,-1.9008945580549539,0.1457266939950337,0.14868881198193865,1.5239898148314932,1.9646736479407614,0.15625
-2.603760915824161,0.586197122680092,-1.3338583165068298,1.3914007449319,0.2259559226682916,-0.10210287869526004,-0.13069018217291328,-1.0339641445972043,0.04290949210858055,-3.268457267393262,0.2225743801744504,0.27540606646616594,2.645600031475792,3.078855864783169,0.1640625
-3.112741183850183,0.9739379394681335,-3.7128503326456594,1.3929446334412297,0.49764276588022227,-0.011512177999172655,-0.04687750671040964,1.5959805481672384,-0.11511028335827239,-2.2382902921176866,0.26079397076532457,0.15050778256369507,2.5712235043582643,1.7939381081312777,0.171875
-1.3706822649958967,1.1542340201354302,-6.378910331286795,-0.04143393644740372,0.6825740044707332,0.12537345705973452,0.12399008475155976,4.801357893439606,-0.35398934910152413,1.203436205697757,0.16347313310104092,-0.1561052932733498,1.8211000640389365,-1.7708142244921332,0.1796875
0.3576479822045984,0.921089790150539,-4.925924182417006,-0.22092576687201032,0.4894770940944325,0.15444364842040723,0.15125239007280455,1.7378352825208854,-0.40700540562374926,3.8334810748038888,-0.040762330420411205,-0.2781598972598391,2.500243041351024,-4.269006634735953,0.1875
2.059830015758468,0.26586447889217646,-0.5253505966818144,-0.29032739480265446,-0.04250588425488665,-0.011290367555948803,-0.0011262272498941336,-4.961583477545863,-0.17400556329954386,3.173252390067065,-0.19060661641246468,-0.0862062396020346,3.8948367216849467,-3.1098518884177757,0.1953125
4.304752467199349,-0.638316114271443,2.779602446225749,-2.000279142268384,-0.538459943731974,-0.15646428605694782,-0.0784948130476568,-6.202621998468947,0.11002152038090479,1.5902345721946882,-0.24723074312859644,0.0414596945280362,1.9887670741025227,-0.9539465859709771,0.203125
5.048876913947256,-1.3507921433057604,4.449625544608822,-2.991422075726286,-0.7214111017882113,-0.07911946852284399,0.020469610321170572,-1.9917582407033354,0.21629402484167903,1.8388767782912825,-0.29337245441343135,-0.1097339799654834,-2.979231045907062,-1.0583411267320313,0.2109375
2.2140862721208707,-1.3395496295936737,5.52915583342222,-0.8288273084720637,-0.6000773276129938,0.04005014140612671,0.05452087214838241,-0.21019449732202092,0.22555932990780594,1.3625660531900803,-0.24829142129260806,-0.15319240007897142,-5.140883086340212,-0.9052584598367108,0.21875
-2.1774682431856514,-0.5948203763736812,4.531056824477802,2.0460820211534063,-0.2730178666762689,-0.01449519209680504,-0.08415117540638588,-1.3484763725228273,0.2568332904735706,-2.2847227172308,0.009213013464086503,0.14061927791818948,-2.5492947025054424,2.3431813817195675,0.2265625
-3.9143551682222784,0.15565378941358227,1.011911675420012,2.2776286346414434,0.10134251512287833,-0.06850076977826536,-0.13248420911659736,0.3673697378074671,0.18832660132755985,-4.514668365138622,0.244076084645541,0.2947959503117889,-0.33713693665842176,4.326993015129447,0.234375
-2.124717705840792,0.23780074452522157,-1.1957220984977803,0.9027579750392591,0.24945071795413917,0.08292367316344906,0.048548326940080766,3.641884636117252,-0.040011025723306316,-0.8664649594329369,0.12429340712611939,-0.0347962131860874,-1.5914934709796678,0.5656963419261241,0.2421875
-0.08968431113101508,-0.14142693326481712,0.23811788254957642,0.6258380422510912,0.09462140112659316,0.2468803933648122,0.1978329603921185,2.982901683720037,-0.1856230642090095,3.8675761042081604,-0.16947337462468462,-0.380964195390236,-3.1368215794833363,-4.150663571367437,0.25
-0.45859386178670736,-0.2230937344160869,1.6737524003473951,1.3257885437367078,-0.019773245329032883,0.19558033186183552,0.1271908306883639,0.42634563060318326,-0.11071957716250533,3.1790305540341905,-0.1843046887807661,-0.2778013627256574,-2.2605564032858285,-3.3932256325790786,0.2578125
-2.035180321996061,0.2640526469417598,-0.3298619569107703,1.478998310177543,0.17765377921995243,0.061520163701590594,0.008578307216015707,0.770917382360994,-0.04390658645156672,-0.38570717086942186,0.061878224758467805,-0.0019683072096691296,-0.13911154255657418,0.11317934394743531,0.265625
-2.040686359721212,0.7507988936847537,-3.0846315734237053,0.7769272707573226,0.3789654259394096,-0.014644884361342423,-0.0309777510285803,1.2815208593802427,-0.09852734677869192,-1.5492014910670742,0.1937589043306631,0.10578099842293677,2.096514569302175,1.2354571197663082,0.2734375
0.05373299065898045,0.6093317556522186,-2.6991284140240763,-0.6139248254577443,0.16333104542814383,-0.16561420265865381,-0.12031001097343337,-1.877134777011268,-0.017566053999022828,-2.0630432404338395,0.15895774851451525,0.24011805925756463,4.225441012728939,2.1052738728292577,0.28125
1.9497545441942268,0.06417542531929032,-0.6542589557038397,-2.2402559858514204,-0.22885150002920412,-0.38280527828892874,-0.2619451059139336,-4.396589753461078,0.24798157583640829,-4.640128616417026,0.18148663219320346,0.49185794943981753,4.641929804876092,5.225994700280984,0.2890625
1.4240683087268728,-0.06676516233337952,-0.781487520501885,-2.4505565071176183,-0.19239153639240117,-0.3530569551023577,-0.22751741155968008,-1.4415255705418164,0.29104869630243885,-5.4462569805855034,0.24594504760468952,0.4696353580304172,2.5275254169837345,6.000010177098058,0.296875
-0.6219399384256071,0.39529341644615645,-2.8655363749824367,-0.7153402902716585,0.2500118624411146,-0.037300370287588494,-0.0023211528293534903,3.123662723789762,-0.031343368460057926,-1.6981795336049434,0.18291797677653715,0.07201159854117012,0.3507006959826025,1.5968841099227502,0.3046875
-0.8054317033571419,0.5965851369251408,-3.4084472839496467,0.22757974299659064,0.40687116145675534,0.14939649799717625,0.13120620212835285,3.4879902707172064,-0.2572075238046887,1.9495102138590945,0.03244801549511916,-0.2092854568968384,0.056004885172948375,-2.357122918041924,0.3125
1.9148354122505895,-0.02714255571499252,-1.1668628205499159,-1.4287793125051669,0.002571447177341308,0.03340224980570972,0.07846014345689398,0.9829646407323108,-0.1032937589000172,1.9771073593500268,-0.08406781651713498,-0.15290491846637794,-0.12587610571779081,-1.8999182326484416,0.3203125
3.7973822804727173,-0.7185861827630043,1.4047021240799267,-2.605031438236106,-0.36610349759683924,-0.03247521327101685,0.05436962401444749,-0.009998688155854299,0.06290789519774305,1.811124559876209,-0.17991483233773878,-0.13279023032328444,-1.7414506730744423,-1.3433672304343818,0.328125
1.7477296525553774,-0.5681224630773882,2.0976773006653784,-0.33215756684191583,-0.21090769716432484,0.15126460303354355,0.14093340127589177,0.3462207994554739,-0.06790567212098961,3.8042320371098715,-0.25870535693863445,-0.3147680556085948,-2.8010956668033735,-3.7336944369114153,0.3359375
-1.133689038594609,-0.006653447000075371,1.7576679488630107,2.589769217981158,0.07298241022987575,0.28747599798614987,0.16587280640326996,-1.0000371691202599,-0.23672060261896485,5.059100005907752,-0.27140459844577125,-0.3860984227771152,-1.408295570864722,-5.489669112298196,0.34375
-0.5055425433417557,0.03186087269413337,2.0852174427805314,2.3804749040645956,-0.024620145889451352,0.1881399573582236,0.08390991238658242,-3.9058200301305033,-0.19138267800450012,4.464670172957291,-0.27740058406519197,-0.26083783331411214,0.6731099276572352,-4.741854409453027,0.3515625
1.2710025063953574,-0.2608548495981445,2.565375832256547,0.9218950861352703,-0.21482181380629087,0.10100802294009945,0.0536563972262514,-4.497377602526993,-0.10565743137466513,4.080385510824934,-0.30253917325052143,-0.21039389018896446,0.6585574869922535,-4.060302749996298,0.359375
-0.7476609529637775,-0.17256111027833304,1.9679329785402584,1.6520967709904977,-0.040550026853553675,0.15663959685076373,0.08170732166288586,-0.8609539667463167,-0.08082526964324441,2.579956183384851,-0.16675385163554923,-0.20202494364382106,-1.3900912297745764,-2.776834041400443,0.3671875
-4.394902170206616,0.02100702678491002,1.27984407935911,2.7561290147011275,0.16817141473350394,0.08686456837233275,-0.01123537130222272,3.102080441935052,0.10744679138061025,-2.738819148684393,0.1757010001690917,0.07823396143295705,-2.9917128092318794,2.360848638765376,0.375
-3.540613319493163,-0.27509216055248187,1.6246158008820917,0.7415108580615134,-0.07457096216174156,-0.219635916827801,-0.2146488958413858,2.7316315900058292,0.4469182184776193,-8.297290122202421,0.41035069715542455,0.5111463274251337,-2.2913436054468654,8.446031932018185,0.3828125
0.8458940487407032,-0.5590537305751118,1.153401626398969,-2.6516228375623596,-0.3806333742053222,-0.4242416358571907,-0.2851706336356718,0.10278975940938394,0.5246965401180581,-8.265228779136269,0.34147176552160985,0.6137032650855035,-0.03156284437377692,9.015186807870759,0.390625
2.125543528468306,-0.09121667687762282,-1.5725484715462315,-3.09612221560768,-0.14230232907226645,-0.2889097559287508,-0.1487849175921193,0.4117909916421691,0.2150191499021534,-4.137053005108152,0.20556116894598042,0.3329805398636679,1.5307429247640487,4.656672117438347,0.3984375
-0.6737529787824379,0.6195097885993531,-3.568909784629397,-0.5619960855461074,0.3138293049988761,-0.05471907482280134,-0.021874893898314964,2.051441079415371,-0.07806232767001287,-1.5587866622324873,0.19073294400704766,0.09946252798321083,1.8325561888851918,1.412254128180468,0.40625
-2.156553255678704,0.706599717319128,-2.17377172022731,1.3780256646496618,0.3242108136902598,0.0013649158620189109,-0.03841272760104404,-0.29216812601532927,-0.10507554342099358,-0.9331601348137516,0.1337954620941377,0.09078628640455831,2.4603067709547504,0.6038716378394889,0.4140625
-0.31667498740771594,0.4469695857042881,-0.699789402767724,0.9249014005516961,0.09893138006792028,-0.01778080228174177,-0.04461474692948717,-3.546393843265838,-0.1097264139008809,0.861087104870346,-0.03479738787403258,0.03775392174089415,3.3810797561736003,-0.982073893630506,0.421875
1.5943928884960072,0.45832386837187594,-2.7937481870754293,-0.8401310337654174,0.19801374300997124,0.0737082115487399,0.09645369282927611,-0.22443627003666394,-0.26556673585941076,3.3393805470895312,-0.10477796387395269,-0.20503401574836028,2.1421196024429174,-3.468107802022207,0.4296875
1.9285735087296354,0.4484596349802869,-5.032822631092765,-2.157914120927569,0.39159984389880037,0.18724033638355497,0.24433918783428843,6.099093207587031,-0.35619565600351283,4.084921926231397,-0.050455248827597984,-0.40710865800253027,-1.0393228047759255,-4.338562409814759,0.4375
1.8787378009968985,0.0302107369901258,-2.5376998460255993,-1.7175061918587182,0.17319298372115494,0.17328929637919313,0.21376693168568614,4.854868321646754,-0.2340185138217563,3.691577188966046,-0.10572673616249853,-0.3736067356099346,-2.234636699736251,-3.812566761840307,0.4453125
1.418119793161953,-0.37042223325912044,2.250003668089519,0.32189651324661944,-0.21059319234704696,0.1020612841971727,0.07538219058816856,-2.465855457995022,-0.07343434622397155,3.5423976242858584,-0.2604154659016677,-0.22105718940998623,-0.6265544181292514,-3.4843411249204777,0.453125
0.10904222566492458,-0.4130702327489575,3.887059983780207,1.696362339204723,-0.27699282510975665,0.07750545081161485,0.0064237506958865894,-4.567800865015069,0.006648173879001218,2.5165227327612274,-0.24838687365383852,-0.11297078246370545,-0.19155445636024332,-2.4915506161406915,0.4609375
-0.2689456898206934,-0.46950271386682574,2.821538449539842,0.7079549144427313,-0.21762521281474337,0.0205678306183261,-0.008008158587828612,-0.8887469288920175,0.11102644822413511,-0.010968795592356686,-0.07668416552861723,-0.012205282624717114,-1.810499796975052,0.10125252179398575,0.46875
1.1291818599752688,-0.6546762653638731,2.7293199939783914,-0.9282528897153436,-0.37091590212650066,-0.13260636391857838,-0.08922968933829561,-1.2530796538760671,0.24904466383921697,-1.9708455293139675,-0.005984590171065866,0.15614574585881227,-1.2500920913249556,2.3923005625995146,0.4765625
1.5955490498225084,-0.47256988666941885,3.0949578986318578,-0.642238542437205,-0.4526729279305178,-0.2385154189542543,-0.19377244465484822,-5.910757208007652,0.2603714547528688,-2.19325178274395,-0.037073983069147554,0.30016713450567994,2.1621019136801083,2.728350871012923,0.484375
-0.5567476652351483,0.10892743279372098,1.3357799958468033,0.9158586754382276,-0.1308620899167607,-0.15687430950738976,-0.1694432787697627,-5.17189176895061,0.11848508900455798,-1.978404013180995,0.03722603135026631,0.2718937088281833,3.2597439585014327,2.1173767334572595,0.4921875
-2.8424773245645323,0.4609697119511438,-1.3239555837179617,1.5690915954879676,0.2908794271008446,0.03429343673968063,-0.015954614144207367,1.7984270435799705,-0.03179177624629783,-1.6824135849710193,0.1669469938088625,0.07532614083915437,0.1625473988453826,1.3391421297005548,0.5
-3.1202344871341525,0.3228808423099372,-1.6822475149662748,1.4666459156076184,0.3825078335041923,0.17151252795187155,0.10965235779381043,5.82134149335381,-0.09636631968650057,-0.461768607022744,0.14512295465804245,-0.12586235113181707,-2.896624541383326,-0.0362004631829521,0.5078125
-2.6669894731196377,-0.005859357819413035,0.28895673388386656,1.7195681625292372,0.19701411548759837,0.18115779255384934,0.10618040845402371,4.278902223944592,-0.04361630307442431,0.20397370678616497,0.04552377234401606,-0.15505902899866658,-3.556058603416024,-0.5932935148794778,0.515625
-2.3934864539342917,-0.2834307429050747,1.7009171066281337,1.4054694342779468,0.008603342550558644,0.0771567809128759,0.022803669314212762,3.0391205293129473,0.11459471365386305,-1.562365828597695,0.07876476655893634,-0.002320772263030441,-3.6061645290722733,1.401769938289557,0.5234375
-0.8078505903326091,-0.3387109861556042,0.6493998897688954,-0.45530922816126973,-0.05961382131889931,-0.04414293677887722,-0.02156737999658699,3.4800947877671815,0.1826029376908061,-2.829704880330593,0.14475780332985858,0.10410140064180967,-2.9351312948050308,2.9328195787849216,0.53125
2.2716735885575896,0.005410973398466297,-1.8603352510362177,-2.225021527393494,-0.004441521588577985,-0.05048384922536787,0.03207842639898709,1.3274584534843115,-0.044058864511731625,0.5476550031571391,-0.002153647194899546,-0.04335615944021394,0.39794335929800706,-0.3517695997153146,0.5390625
4.317469690674866,0.46634035783951266,-3.287526778037135,-2.230234447069331,0.07976678387383955,0.03064274487243314,0.10260442534638714,-3.131477244716255,-0.3547626713728729,5.5645402497167895,-0.25135447892400065,-0.27093688710127484,4.444130330013111,-5.4797810281492545,0.546875
3.6231204032970443,0.5568865745778319,-2.834725205844617,-1.4580217573306036,0.0835000583845354,0.015124191076239803,0.0628545655900205,-4.611083597291318,-0.342060352450553,5.187783156190345,-0.24338112313798682,-0.2112074272202857,5.318465484079788,-5.1480459169431585,0.5546875
1.1781436894803097,0.4659307611998419,-2.54295480017222,-1.168356640832709,0.10759936394408168,-0.11922359652124723,-0.06236523236340119,-1.6988952340078005,-0.07016734815095024,-0.4065061322425698,0.06150777109527335,0.11433099871783146,3.641423233874783,0.4987111902596855,0.5625
-0.9047394116790567,0.5554474345261209,-3.158577184983287,-0.8261947793727464,0.23011185110882681,-0.1796906167390941,-0.12345939291143992,1.2730561864615646,0.06637140675767816,-4.071976479317526,0.29605215745943153,0.3051708154195656,2.445974799627844,4.091048052807661,0.5703125
-1.0422385165879398,0.306647839637486,-1.5505662153551574,-0.17803370488713438,0.13323641728048968,-0.11263494822544126,-0.08830271248537082,0.8598352988088893,0.07202596262891423,-2.994579355279923,0.20202163216303365,0.21444597124311016,1.1877066154947025,2.988431651738113,0.578125
0.4105608194953415,-0.686654367047593,3.5212597192436887,-0.00021724676902279546,-0.3638946142466807,-0.06850837346995597,-0.06427652786055206,-1.5078329591413953,0.2242618157815264,-1.2593646637525695,-0.051135673340947804,0.09521666957538177,-1.8146115386077286,1.5632886527840177,0.5859375
0.7861557284098776,-1.3334024744806545,6.837391832592441,0.24362249198503494,-0.6705874846803564,-0.06043406420152363,-0.0704582045977897,-2.4188786956356316,0.3705947022971352,-1.1872590837218724,-0.15512382366719837,0.0767472814324372,-4.106912478730779,1.6873536485471419,0.59375
-1.3511524236976136,-0.5946639974555417,4.170625804829399,1.74715406435278,-0.2549492372482653,0.05320112420249111,-0.014936183341561188,-1.0980256025705324,0.15768078242982622,-0.32936563246460115,-0.08329297703317991,-0.005299061431934854,-2.7480668537288637,0.35078768358627566,0.6015625
-3.1317571602337204,0.45439906485904064,-0.023902130955926165,3.2023919054180454,0.3060336826457493,0.22208222064723826,0.09252613893756309,0.13642769288950524,-0.20799419087909607,2.2562308815273098,-0.05625967551995523,-0.19520518270197754,-0.2019990508302412,-2.8524132923418617,0.609375
-1.6881754301924385,0.30605348233570556,0.08882908107683135,2.3900520373696605,0.2206011804362259,0.23614873097231837,0.13048108110830883,-0.18817986720284263,-0.24403087428736672,3.671989150997557,-0.1488123029394788,-0.28622857213456465,-0.3267062170318544,-4.160454514204307,0.6171875
0.6109020980635409,-0.36171440616760603,1.8441271003194344,0.3111740947159106,-0.14617608986957784,0.09450157184257867,0.07088323981735806,-0.4248542827802955,-0.024510629444464863,2.1624776707256026,-0.1622140606696398,-0.17261687582604737,-1.6531790594166291,-2.1461213263800576,0.625
0.24781765240286066,-0.11896538128474815,-0.026767217919364338,-0.49145687218208317,-0.025139235226281722,-0.008230840659718993,0.010674150488836657,1.2140701714759754,0.03306687719074318,-0.38631016779206967,0.021520656048429933,-0.003965586559296533,-0.9080683119145208,0.44475411413116667,0.6328125
-1.0413541780250888,0.5148202891737623,-3.3679079516565493,-0.46397662399371,0.33023160368822374,-0.009390556502814304,0.015009325740950203,3.6926010218559835,-0.07021828435831849,-1.530627503506742,0.19817558361059923,0.04719577379895466,0.3512574621483994,1.3358558811372263,0.640625
0.3555570245856823,0.28059629778315975,-3.3783995813318506,-1.6671842235624565,0.2399089885711449,-0.011578232944168244,0.052170902994184906,4.750364624737842,-0.058527392584193594,-0.9499406871113834,0.15578754276144008,-0.01757133905425978,-0.6570280220413862,0.905550483711069,0.6484375
2.9879667289422076,-0.301917677244321,-1.580295248840545,-3.247293854010233,-0.09264975961481756,-0.06068384852754487,0.05661425974002052,3.4607851834289036,0.029055039031175425,0.030550705941071597,0.014625298517038685,-0.06227567620517177,-1.5420605463018096,0.3066782357267192,0.65625
2.6061568330392824,-0.07294230017977886,-1.355103281325922,-2.3841508619489384,-0.0857200753038426,-0.09676203013359722,-0.004501423687502278,0.22132752894839758,0.002495163241455324,0.1381983270354003,-0.0077189734408881295,0.014124526994331477,0.8656204021403907,0.158645996451306,0.6640625
-0.6819246435474843,0.45342646100982104,-0.6698257705846226,0.8848571611620488,0.08573753560096559,-0.07740558414479352,-0.09533015385685249,-3.602259960534676,-0.03861981905312993,-0.6006745341243749,0.037718128237220074,0.1476536451087388,3.6240537267416766,0.5319479152813656,0.671875
-2.630438815039422,0.19114055444330363,2.4738515016558935,3.0881797097607615,-0.04328749936529188,-0.035916945330600386,-0.13539257865109394,-5.519804724416907,0.0643697555315094,-1.122464508849814,-0.004074620030822704,0.19009894362254282,2.5210396068948535,0.9608237907431527,0.6796875
-1.0390141090427185,-0.40851917278676364,3.933127509839136,1.7540901364270975,-0.27695026857333305,-0.031328173151055794,-0.08998062918702573,-3.872516658656612,0.1626973346479174,-0.7798554800319231,-0.0751026537073737,0.1103950365746468,-0.26388270267161607,0.8750383663687205,0.6875
1.9022526895071936,-0.3116740911249096,0.4912279924662644,-1.4747367111249663,-0.18725208805859245,-0.06524841323009282,-0.009233518466216955,-0.38348371361082867,0.06293113155396034,0.1080109798717349,-0.04898100781065827,0.006372148300728664,-0.26607816012609664,0.1756032030202219,0.6953125
3.0169975930901574,0.24373598684984124,-3.456695985689449,-2.9282473390273185,0.08532869151426337,-0.06760370424202054,0.04200200602481974,1.3263697177051557,-0.12296503610709364,1.0683167458383978,0.005748176759598872,-0.05887094960584185,1.7193473841159514,-0.8732869830264309,0.703125
1.6322222883513124,0.42188261028310126,-2.9414771597449336,-1.3210219986856324,0.16627463532950254,-0.00043672245889892695,0.047670006285345734,0.0722709884588634,-0.18405981411841194,1.7814143491150531,-0.0271720502054574,-0.09299333223331818,2.248480263244,-1.8040098514311447,0.7109375
-0.7437456834779652,0.24425990872007564,-0.003257333563310842,1.2774957777647138,0.09919823742521358,0.08006877929501313,0.029459312166721385,-1.5293088026193227,-0.12223646867507947,1.6750875266017997,-0.07461055126365453,-0.09085029851946584,1.0473395029926993,-1.8902768644557824,0.71875
-2.8309563322591984,0.15567839695129998,1.2472289112620367,2.698089139476141,0.12027102061382501,0.11162284257508732,0.010172595982003492,-0.5550126697238208,-0.036437507791282873,0.20817120054533145,-0.0035971970950417604,-0.03434562948178027,-0.5289176311030097,-0.5620845997942792,0.7265625
-4.2105229393554895,0.084385877692834,1.1258715560598025,2.7865183366862696,0.17813455620582877,0.08984633544943188,-0.009810381501831932,2.4646630512147802,0.07670654472924247,-2.2837244267181083,0.15247410275878454,0.06434316922110907,-2.4132612281436367,1.8956296360141511,0.734375
-4.015908321061382,-0.18213819584820412,1.4460617162010545,1.9026155114573227,0.08877116912279692,0.023993863131657873,-0.038360909018313974,4.322685715403434,0.21334182148943032,-4.216392958548863,0.2405788514084548,0.1568436151102387,-3.939033432504459,3.9987702100551985,0.7421875
-1.3631939314602552,-0.4695835062919484,1.6934736362955676,0.02534682025256978,-0.12324636469635597,-0.055309802650425136,-0.04840813106196891,3.1092804174862008,0.25025595546274715,-3.5394266943006945,0.15584347868789675,0.15208569801456046,-3.4461644491964982,3.6611094356860967,0.75
2.293896352319562,-0.555056197954778,1.255119795404882,-1.8225222182083731,-0.2840940525924612,-0.06738195625298898,-0.0007473929474136095,0.16065945129555956,0.11678215000193125,-0.008563403665489924,-0.06746586285489328,-0.006756571843157654,-1.3983146791456198,0.3861552538679517,0.7578125
4.0059132328864155,-0.454584460353769,0.831299670812299,-2.143438833945675,-0.29270072664396535,0.004631495583189847,0.07175560827337134,-1.9205166026239282,-0.0623150046443321,3.520511943341463,-0.25714514845337916,-0.20145603430731462,0.06009522024602906,-3.1616716584507505,0.765625
3.3354685432208697,-0.2243482826568111,0.16556843783033942,-1.5278730284532376,-0.1698160241869226,0.048973761548064085,0.09166287598555711,-1.8765278893433164,-0.13890731722269206,4.063517115608771,-0.25398110252237815,-0.23987798081304326,0.5905012168857012,-3.865113420055451,0.7734375
2.48415691831369,0.060821621614561075,-1.4540719628792247,-1.6604514024446442,-0.010260842506485297,0.003852653614031274,0.05975867813835609,-0.3724247404819965,-0.12877642092685793,2.3319726543450656,-0.10851248976191834,-0.1355221154170525,1.1352146517235102,-2.2063408672149616,0.78125
2.069108380792075,0.1969451640657755,-2.4323010482708978,-1.9335512181973742,0.07003662669172626,-0.03844153234280542,0.033721000183307134,0.7521262623474289,-0.10154482746722512,0.9731847749505468,-0.0064149551946047385,-0.05406276133112944,1.328518816954502,-0.8574610193296299,0.7890625
0.5242928569466326,0.12174158399931376,-0.9084683447757951,-0.49004710811321733,0.04202640839221489,-0.015807078873465514,0.004664878854366634,0.0027744210492950698,-0.0421142641409309,0.27429155701291463,0.004183291691269875,-0.008188277115067704,0.7488156687065353,-0.25886575414098995,0.796875
-1.9908997131363746,0.1232625545052018,1.1609717841576375,1.8858137474379488,0.0294174030401266,0.003910815790302859,-0.058199675737858815,-1.823539843569995,0.03508900930965068,-0.9072108505368013,0.031456567735887335,0.09151001623915646,0.6680600536597381,0.7487885248396902,0.8046875
-3.2871298428416766,0.45615407509575345,0.30153572252201255,2.688471808189696,0.1775350884569988,-0.010049732575233051,-0.09497953627250531,-2.09855877097831,0.012183481769040886,-1.8437355094216326,0.11662220646304765,0.17277050265966581,1.8733170238181391,1.5344336950957005,0.8125
-2.959697246945217,0.8962134561380868,-2.7429777909720405,1.8418236312087197,0.4239080048354721,0.005968066996465397,-0.0483774463371847,-0.05767946535001822,-0.1255975237585927,-1.3805853221866478,0.18353558451621094,0.12027538514709436,2.896109331984583,0.9466830103731989,0.8203125
-2.178978040647294,0.8763997487698689,-3.516728848695001,1.1181370986351507,0.4578862794660689,0.04702398419158527,0.01251849771477225,1.4172664845315386,-0.18571692824648614,-0.35324247405093473,0.15257890762894996,0.01573007024345,2.2203643179284747,-0.08274921544149723,0.828125
-0.4314498526648161,0.13646787434021565,-0.2834935918537463,0.4645125995815717,0.0673091743694268,0.02720789734283231,0.010567523821141636,-0.20394632220432607,-0.0485884865666204,0.40746283980023845,-0.00574785470051939,-0.025961104247356228,0.3937110650441833,-0.5074268687315501,0.8359375
2.5018794698929945,-0.7612425630174845,3.3072977872884293,-1.0039081349277827,-0.4453952026920642,-0.04408382958347727,-0.011233437843317824,-2.742026700263718,0.12677081328253753,1.2284841451877122,-0.1993209969647252,-0.04411525549804735,-1.102592406908681,-0.8103149640912254,0.84375
3.146163148131872,-0.9002157704334165,3.2890399455020405,-1.739542867130119,-0.4991390244481159,-0.06632435760749933,-0.006653848609233661,-1.9557967146634694,0.16266628706027175,0.9612829253741534,-0.19199256201048034,-0.04152129308115194,-1.7216483361429642,-0.43637291910135606,0.8515625
-0.7043499477697455,-0.23986296004862295,0.6409977418855618,-0.15543481247607127,-0.04842366609387127,-0.032350582049251696,-0.021613576957612835,2.1744193543434798,0.13385981283224724,-2.0447948796409836,0.09996103177959802,0.08131490985733997,-1.9955790906607747,2.112189381196661,0.859375
-4.107217865693532,0.22303250623577506,-0.9114085918924355,1.345404361175981,0.27108453679034233,-0.027031035609499536,-0.06110530661997377,5.120218378574976,0.16133124551700992,-5.115584657321109,0.35214863065659857,0.2312319878177809,-2.3243106763663866,4.843133073100317,0.8671875
-1.7028674377806172,-0.020796005605736738,-0.6147479836264508,-0.06291039516141708,0.10212427690331577,-0.04394107020935419,-0.03181199872707663,3.981972951276305,0.13673129234337034,-3.3858249130224145,0.22117029149131934,0.1424466729742844,-2.06559596804932,3.3451706082418804,0.875
2.865800558233657,-0.2616809564076767,-0.5074629500303314,-2.08512561503934,-0.12315292796756991,0.010368497004750203,0.07832957771797446,0.7671727574919041,-0.05879221522574637,2.13220033336918,-0.12472771647651974,-0.16099827104320782,-0.6276575265555259,-1.9033836730215052,0.8828125
3.043602186821012,-0.0724999785786778,-0.4575303825911113,-1.2045195111302367,-0.07023580200872308,0.10593172094073257,0.13217052424332396,-1.3871509127028452,-0.2204213961009078,4.96638660775057,-0.2720409734585085,-0.31605384773133155,0.6532556507601773,-4.90083915559248,0.890625
0.8173408767636998,-0.2034491582304449,1.5474515239566626,0.46187607626080873,-0.12698855221476565,0.07963420237563254,0.0525680353039253,-2.055077319115041,-0.06926848903448451,2.6546084357558373,-0.18868335554880758,-0.16015559163871576,-0.16230486430901728,-2.6491194830542066,0.8984375
1.9468317592883022,-0.9315367192150029,4.112821666907254,-0.9313574960735058,-0.5120545708614985,-0.08908337530336097,-0.05377777650379151,-2.2036185131889394,0.2423886943365143,-0.4461304941684926,-0.1319138446354056,0.05476084170148407,-1.9986468645948727,0.9387798572601481,0.90625
4.0276446067956995,-1.0200322867503329,3.086490510670265,-2.949589163975291,-0.5959760011741597,-0.18323005296183775,-0.0695384839220139,-1.9118999849124454,0.2714679383128525,-0.7572335300317263,-0.11949592411725349,0.09546087468542483,-1.391855100870665,1.5167256235384579,0.9140625
0.7783003854104713,0.28349972904989373,-1.501592380959947,-0.6423429935411967,0.06646948380405529,-0.057322927387296746,-0.026378561191672895,-1.1368736964060462,-0.061637016003380514,0.14581051088707223,0.016438529086462823,0.041865555343909296,2.202788018680196,-0.10759260868648486,0.921875
-5.37678334769556,1.642662494064907,-4.584558812864093,4.106911032146047,0.8035236173710102,0.13639463208364508,-0.004616064956211712,-0.5199268559926524,-0.3540868470913912,0.0839116164003239,0.19951271855493138,0.029847705675754933,4.878663187633151,-1.0396939166245276,0.9296875
-6.636714962743158,1.562455410349683,-3.5827996364846832,5.1829545509584305,0.814776504346216,0.19250922440652746,0.008622155227876037,0.01056047175065154,-0.33128608605622756,-0.07873596119516076,0.20165160901870832,0.007612969067606385,3.648537126593492,-0.9997586777554699,0.9375
-2.737988699056814,0.5897310502905192,-1.563873360530997,2.1299744601768213,0.3682656311000445,0.14268516611489906,0.06062077929157153,1.3737817431154546,-0.17798015567428166,0.7998946415175188,0.05398042209609136,-0.0978032937362983,0.36944125085359797,-1.3102554989128903,0.9453125
0.09902840822931097,0.09424332835904249,-1.3962224673511539,-0.32576548663687127,0.1575673174102171,0.11416329089805587,0.11507381059411055,3.122695633191122,-0.12751163692163967,1.595588001695381,-0.02133025210190624,-0.1913648064664083,-1.471371434509188,-1.7631228970786736,0.953125
0.3753940858369986,0.07608860821531832,-1.5656752755128953,-0.7180353757482251,0.13583172165834548,0.07741698638947891,0.09589978534539081,3.1601800526171173,-0.0984752261405334,1.0677646970576717,0.003928544919570875,-0.14856912194859456,-1.2937540075032095,-1.1673373418595077,0.9609375
1.7256795441268247,-0.2789322719774878,0.09096248632125668,-1.564031468684766,-0.14446817505263362,-0.057170504278724,0.001781598419251761,0.5425688721413908,0.05816169657674855,-0.10581646572067034,-0.020641960458324615,0.000815033306865895,-0.6097210627749481,0.3586602165837444,0.96875
4.266642803092922,-0.8293102098674102,2.3237089404867746,-3.1408432699350013,-0.5591500225319198,-0.22965323461090276,-0.1033543149946729,-3.0004596941178594,0.2496860386766669,-0.981201264616655,-0.09766659638945584,0.15333228166390672,0.18464633854997428,1.7607336163410374,0.9765625
4.139947749270011,-0.7913849685077862,2.7487265898135047,-2.906674729048867,-0.609347076906475,-0.2931146592646938,-0.1678050382811281,-4.84806211735635,0.2973814315156147,-1.7867646534117512,-0.07950692863522937,0.259592277802472,1.4058967168600647,2.6301304149584697,0.984375
0.7231164930362446,-0.21542992079357556,1.5419129637107403,-0.511707709484869,-0.2588707488896074,-0.19930338350128807,-0.16022475944456424,-3.6327817247902576,0.20082259399587682,-2.5172804958562645,0.04538532684331936,0.2754379493104503,1.8323687688879475,2.8770207873496103,0.9921875
-2.157585302009957,0.12044343690442884,0.45139031375870475,1.3024848446366606,0.0694956374983384,-0.032963126727633914,-0.069645175288689,0.0856938013707098,0.08826945067728714,-2.311385916631307,0.1285256093671966,0.15282581754691035,-0.020038337639724863,2.1930127744004135,1.0
-1.9369134596874946,-0.05837872523279946,0.0480463178599067,0.7535305460678833,0.11893931301373842,0.0689295982640472,0.03938054808687044,3.8135393045495767,0.04650196089658799,-1.3354840286395306,0.11029277869364772,-0.018039753008251388,-2.7979407152014524,1.1483974361295481,1.0078125
-0.13191736126661127,-0.33267026374028974,0.07149341329714809,-0.7878899860848658,-0.012331620401590344,0.03688867950284143,0.061147518212556866,4.520377852398326,0.07894468227620191,-0.9500624524460115,0.068177599367696,-0.05614365001559041,-3.5511586238380266,0.9862967282026435,1.015625
0.5325028043959441,-0.41332318400735746,0.969964494198914,-0.8514939728054216,-0.14590000777829415,-0.027244607484683266,0.004473167149145414,1.8221898228711915,0.12171084291596622,-0.9961723541215322,0.021715903997346103,0.015035924538569072,-2.2301801155881162,1.176889851345048,1.0234375
-0.4952491511804687,-0.41889770726937736,2.792994271470246,1.0109781535905034,-0.18689020608919138,0.04698161217303148,0.005315454556387754,-0.9685164279757098,0.08084104868596231,0.3977772859899232,-0.09191060704818577,-0.0420684142404197,-1.7634835776418292,-0.3691545122762279,1.03125
-1.4548366930292398,-0.38815321398670016,3.5957765427666226,2.6253218242434966,-0.10358834344621126,0.23063431025196302,0.1125589647094346,-0.8922843996232038,-0.0648017316078116,3.249960283637582,-0.231700337881298,-0.2762172203564154,-2.883381308996806,-3.520500897970193,1.0390625
-0.7510673321341539,-0.0814164926299198,1.2824432052669834,1.9181735793771642,0.08253870153295509,0.29244554180117116,0.1933670934718105,0.7047263171207755,-0.22921147238681766,4.921048282102509,-0.24888753167573968,-0.41465540913607085,-2.3530225713379957,-5.31626597427219,1.046875
0.8486545211122392,0.6155736585987011,-3.3887959903233726,-0.2904138267024547,0.3223358159122437,0.14030734663005096,0.1384326681292203,0.8146101506251352,-0.3362239724727636,3.908168805963615,-0.09829585616283966,-0.2741179221552723,1.8130229639584674,-4.211761694801809,1.0546875
1.0876645039601749,1.3320916962751883,-6.996335120505756,-1.3356222655521608,0.5421636412528837,-0.04081029189145714,0.018682578773831397,-0.4165874223335979,-0.36967619372908056,1.5887047646985135,0.09776192513969181,-0.01861775076790847,6.360943518574068,-1.8482586545613826,1.0625
-0.7483529555033027,1.4604908875010365,-6.506299802639643,-0.12715571213905638,0.588990057835421,-0.08322978723768254,-0.058062878675581624,-1.0658366339265242,-0.289040255768028,-0.4613371434216574,0.2042846648821101,0.1377537859290053,6.837310497464326,0.1125557772483275,1.0703125
-2.672905228817365,0.8365462502241013,-2.241904636583427,1.7026692818815674,0.3398829309603438,-0.05470691627670178,-0.09826177534565624,-1.4196185138393225,-0.06933992763162063,-2.02375320489587,0.18833259372076816,0.20237550062620227,3.6102655893743023,1.7015129510139666,1.078125
-2.1628408354286033,-0.03996749141865487,2.0151522846685466,1.733990268394343,-0.07940090354706236,-0.0840231811176743,-0.13156944326182546,-2.320139351090623,0.16940725482703037,-2.816852370065466,0.09703010045857506,0.23859912248928225,0.5710819940725702,2.8088111881953575,1.0859375
0.8859414506777837,-0.6156379895809984,2.876740509999655,-0.7061619692745149,-0.3785335174848619,-0.1579050658227181,-0.11893809606659711,-1.9844956617779044,0.2695640403798015,-2.4303520938015413,0.011230437593772354,0.20794555189807373,-0.7192814689457755,2.8573574965030795,1.09375
3.656945869158598,-0.789665006356809,1.1518219436226367,-3.467590702830008,-0.42154578861326975,-0.18237536827973375,-0.0478770189038368,0.7453309238845246,0.23699152100808307,-1.558790876344616,-0.010004760279035976,0.10415056381752441,-1.649024537638059,2.2283222052207003,1.1015625
3.388789453879183,-0.6370983721965506,-0.045180999261040224,-3.5188012390622507,-0.27771398519170487,-0.11517878651625547,0.015155185043866847,2.777376587378698,0.15197776967486376,-0.863999649326623,0.0049423994796488875,0.008218930307509548,-2.280306089870323,1.3894412850939084,1.109375
0.9017370336027878,-0.2435203789389483,0.26918937813968485,-0.8200614856271958,-0.07934370624054168,0.01131967961179345,0.03771719523294944,1.246742669123949,0.02040978450667254,0.4077214161648766,-0.03328611583326064,-0.06483015992161026,-1.3542739557894494,-0.2997013255672424,1.1171875
-0.39256834231520904,-0.09098943237449988,1.5760853591617916,1.3353179219299693,-0.04542980478829179,0.10860667094660724,0.05003143145191306,-1.6821507615733255,-0.07495609306646014,2.236373721048093,-0.14985144239754639,-0.14633687601323606,-0.351463620607914,-2.371375375386514,1.125
0.358894084866625,-0.631411220551187,4.109560118501775,1.1389480291184042,-0.3199039764435996,0.08884391718514324,0.03489560658179571,-2.623557501567376,0.05353170032498246,2.184013147411536,-0.2325998722052799,-0.1426498983359003,-1.9194496033912198,-2.098338227938811,1.1328125
0.16195222059913053,-1.193329474943711,6.2947278741235,0.664594256734749,-0.5670761757675766,-0.01455113883812243,-0.04266620097525468,-1.608394125122343,0.3183998843486654,-0.8803499895956756,-0.1408994050831752,0.03395023524328465,-4.2705009538038805,1.2439092799539555,1.140625
-2.2896483185144225,-0.6488478426072888,4.141893087208726,1.5236927494001868,-0.26402823022868005,-0.050917118158978154,-0.0976602782251471,0.2737066364651353,0.3192679301256055,-3.6085540227320823,0.0917246122934336,0.20028847062944394,-3.3115836846602056,3.7207758618807563,1.1484375
-3.6493441559155984,0.6424836446317261,-2.269926317437195,1.740881923143837,0.4151220680269609,0.037323102729605206,-0.016750019352931612,3.1234435097464255,-0.04310226871654972,-2.4787810457695323,0.24893432235120277,0.10568782800243554,0.11104945319836362,2.0341008891326395,1.15625
-1.442757755043955,1.1950457282064084,-6.791319881532145,-0.20286304414953082,0.7158538557609601,0.11914058292223878,0.12463842347141961,5.421985995746038,-0.3528596710020095,0.8862916676197928,0.19376139073926724,-0.14469376997468017,1.7414041579285566,-1.462075309456259,1.1640625
1.4598330912395416,0.7158291022456581,-5.556105475776779,-1.886767035391294,0.4286129546894638,0.08927977041344826,0.14995161624651748,4.044048300800785,-0.32356853847862094,2.6015579988118622,0.029136778697152452,-0.23417300334280675,1.3173583440419283,-2.833194038873337,1.171875
1.5614013345968072,0.22119317844109324,-1.6009110406567155,-0.8739927484738492,0.07086442098148069,0.027794968057658315,0.055653233557606915,-0.5961634141728931,-0.1576368736547675,2.2665060907567147,-0.08865280051156811,-0.12802849282003376,1.5164392927777206,-2.272692328469889,1.1796875
-0.14533791894939954,0.15595393264084967,0.8126220346327403,1.1863417802076344,-0.02174776044953694,0.025403198967050667,-0.017626637455956978,-3.7474158433196765,-0.08138743401455964,1.6203429973876895,-0.11488508263643243,-0.03168281534280527,2.063710681999158,-1.7040966866176044,1.1875
-1.1937142091546622,0.248510163968914,0.3849133599130435,1.5059722646493465,0.06539920429767333,0.02017871002182035,-0.03107670165207747,-2.375867046276524,-0.05045677327988672,0.35723665271723026,-0.021384976438326937,0.02502091649865678,1.5857035451918944,-0.522294585546393,1.1953125
-1.268502240733794,0.43705837505383516,-1.9597098711223926,0.20227400719004981,0.21328693055931666,-0.0558684024232317,-0.05038717359198591,0.9770003052507471,-0.007954057315625814,-1.9585320142147853,0.16894505387372374,0.13616005190106906,1.332920869477235,1.8318045131257175,1.203125
-0.29221152142420626,0.3988356171038236,-2.7277657928019687,-1.0192357486986594,0.18223959531055423,-0.12431228428564221,-0.06942562506085101,1.6635918218746992,0.03102695866117697,-2.73535468644035,0.2148615232829353,0.1914607748589102,1.5227801730784116,2.763818727700038,1.2109375
2.0137020663469523,-0.3967278446257958,1.119484577373771,-1.408706840284966,-0.2558132654609017,-0.08774740613205259,-0.032330067543661384,-1.2597945353697522,0.09865407196032742,-0.08681830038307163,-0.06331653035075883,0.03841274105738297,-0.10868643130954297,0.4294177491382668,1.21875
3.2823119312104385,-1.1235866654013236,5.323100424198817,-0.7594613960982061,-0.6294968556567164,0.014737731216533113,0.028458356166442333,-4.109355153161331,0.12779720200233238,3.055980539540625,-0.35814889070395606,-0.16485951704620114,-2.1260877616678338,-2.564013175913743,1.2265625
1.0945644910711378,-0.37627030388452287,2.870742206086567,0.7694852274092581,-0.2496252256291369,0.07923066371555014,0.039532936960571426,-3.729391640311768,-0.04229728899313886,3.1699028052385785,-0.26171065401332894,-0.1673580323266119,-0.09897961737230268,-3.100179562659753,1.234375
-1.553715777167804,0.9126664561150584,-2.783866598331188,1.5771199027468061,0.3869062616751644,0.06065984219366942,0.006888877502279685,-1.7611299497971518,-0.2505629218111184,1.3612259428485176,0.026645392647050778,-0.031608771839318,3.8365246428011406,-1.787308259198199,1.2421875
-0.28626076961484564,0.4635462292865607,-1.7012964781110496,0.2537629543146446,0.16819987468324735,-0.01972411773074206,-0.02209904147592492,-1.1655692815168301,-0.1018349886113702,0.19919216540657883,0.0352757521374491,0.03455713616953144,2.4641391386849762,-0.3205013087246732,1.25
2.5142443092973696,-1.2191634090566645,4.620739679077288,-1.6869371204520494,-0.6081925758229735,-0.10068543332849687,-0.039616472299181214,-0.7234840309069702,0.314574849235329,-0.9095234983545992,-0.12500447922510927,0.04629321931400771,-3.614385304944189,1.5311572303325969,1.2578125
1.5538621918624473,-1.446233171554367,5.1197456672535635,-1.754939154263773,-0.6260930387391023,-0.11586238379329022,-0.04981159043968694,2.1050472410365964,0.4445953829899118,-3.027943327812765,-0.010504395795726847,0.11693116194632201,-5.983307633508883,3.674432917248167,1.265625
-1.9754521208000433,0.012036172226884065,-1.120192924574003,-0.271239886502075,0.1465594554831906,-0.05782013973271752,-0.0357858653108084,5.180399298812228,0.15865038602247178,-4.189357196435898,0.2827746181270847,0.17477828918274005,-2.444320994657094,4.140379185651853,1.2734375
-3.2164388115931133,0.8331841576366956,-4.093526562308009,0.8492753938364208,0.5309472207654236,0.021519759778580255,0.001648128226019435,4.762401909430552,-0.08945710691992749,-2.699108635630684,0.3107552382465444,0.10200218773242402,0.44415402853439456,2.2442330189462085,1.28125
-2.3786887117716624,0.3829555675395974,-1.324303454283621,1.313403229417446,0.2813094012143394,0.07545639653633349,0.028398104562144845,2.4323640591051814,-0.0669942371400479,-0.7398166666370339,0.11929936096910863,-0.010971262805375265,-0.5059388943039765,0.3940454288096413,1.2890625
-2.349423790449241,0.18012241352347713,-0.27556369587262824,1.4283933179775892,0.18946453095671092,0.07889046799952604,0.02604194807270489,2.2552124407753467,-0.01771783176329676,-0.8027546140678578,0.09238012285417019,-0.013923804528363537,-1.302726451574163,0.512198350409785,1.296875
-1.8650955414543886,0.5427807040142023,-2.716741892980803,0.49828141908827567,0.34719176258869633,0.031183917197902724,0.018280224212389232,3.040344024228192,-0.0857206962320676,-1.198920155001185,0.17403597841075422,0.027157438668638862,0.2935642645933031,0.8950323300255897,1.3046875
0.9988463800194836,0.33930224617155047,-2.345674138804184,-0.9449107020654103,0.14696245482988754,-0.001483589588299871,0.034060537256868466,0.4400013890854208,-0.1323855262728996,1.0492852524881304,0.002282076622648631,-0.05867793391910967,1.5580370393761493,-1.0850391586046881,1.3125
3.335065592613576,-0.35993834994793056,1.8776247630198633,-0.7612414826498045,-0.3052652897712093,0.04297914348540265,0.05790064038848686,-4.695688499838939,-0.11043288744415608,4.595909060950689,-0.3400077744374671,-0.2231366952307774,1.2367472347437978,-4.351780606474307,1.3203125
2.412683292124054,-0.38053636915946426,3.4119120523273794,0.6862944466514252,-0.35104904847066787,0.0794882125944995,0.0398717007090226,-6.93242678796898,-0.11237834026703536,5.160031575894449,-0.405776280123187,-0.22842900504540445,1.62752219860758,-5.009250365008625,1.328125
0.9907413502576341,0.24611520453531446,0.04759894946125701,0.4054858813023593,-0.03260308772517948,-0.012651902825613933,-0.025321649913697095,-4.72567604321127,-0.12120601590896944,2.1734115227117963,-0.142149631270932,-0.030456016422685295,3.3904541968207704,-2.1652483683718584,1.3359375
1.9178972372894616,0.39251228442051744,-2.498455814043552,-1.6725643611312677,0.0529399441002753,-0.13692567912841713,-0.06190074576769711,-2.0314214852055974,-0.06593475531990532,-0.12542891236382497,0.034185260260606115,0.10614479414062658,3.783797987447478,0.3041681871520523,1.34375
2.8078832425281743,-0.10593019884527476,-0.8324131202492536,-2.1778520423451644,-0.1335400700067049,-0.0941098824090655,-0.010255750826781639,-0.9991383264531557,-0.005643959513176597,0.6666909263740154,-0.05609101672354386,0.0026229613671796426,1.2888058306753913,-0.3517438355936243,1.3515625
0.7419280846712845,-0.30672716433755143,1.0273059608776967,-0.20117589873312797,-0.10000427285465255,0.07528234777275039,0.07234818011644893,0.7014546239785369,-0.020749190417057892,1.630060190685794,-0.11132183434518834,-0.152649411975754,-1.7577592840645353,-1.5979760918745058,1.359375
-2.794691444852834,0.12433134924862974,-0.10665073490200307,1.7896608823999913,0.22984937320975393,0.1538870475991853,0.0804097691350294,3.6465635467188844,-0.050006781814856,-0.1322522073428341,0.07058953358110318,-0.10796971379924668,-2.6367146195835214,-0.2660023924428123,1.3671875
-4.794717581527676,0.4324585443455113,-0.924733499937442,2.6196117138608175,0.3834313949898637,0.09212226286143524,0.0015097865481377057,4.239723973649858,0.013942246245985978,-2.8671138064300496,0.2535826819508233,0.08097188970937494,-1.8734024406959155,2.343842598376734,1.375
-4.136342907759557,0.059942655756630055,1.4174507250629513,2.568657548133928,0.1064861839484611,-0.0034542750634626073,-0.0852298722649759,1.2756331587225733,0.16484728119077866,-3.761724565215156,0.20601873951495725,0.2062307889171088,-1.5227337856572138,3.5048216258198064,1.3828125
-1.0162381331097388,-0.5747616341487136,3.578196585416366,0.7318904222300653,-0.30607974044428127,-0.10629997716922854,-0.12066522489921759,-1.3445542119434881,0.29160926944741533,-3.121969437390878,0.05650423762335284,0.2227009116786095,-1.6493483147411705,3.359175396930409,1.390625
2.924413441636791,-0.8215819041683274,2.409358393356654,-2.520654984605966,-0.48797337475873515,-0.20596532120207284,-0.10167336943509697,-1.2833939987981917,0.28945601052896797,-2.0970895590395418,-0.018707114424848625,0.18136684726364669,-1.031176393092196,2.7637905266304506,1.3984375
4.351885800036353,-0.5827724531923942,0.282629279493818,-3.690965678485123,-0.37545762906229513,-0.18423203039334285,-0.04179979653857885,-0.5857063566692823,0.14748821034954424,-0.4371145182352046,-0.05607170941443031,0.07067954737024598,0.007306253927103282,1.0937820458505678,1.40625
1.8493259310418053,-0.05537351927811194,-0.8097682889162611,-1.4430440935329685,-0.04922582524260056,-0.023803427137440363,0.028033944328124245,0.11559532371772709,-0.04161113733569215,1.003794751920214,-0.051918438456464294,-0.059899398170723754,0.3848991319128497,-0.8482114664773934,1.4140625
-1.5448550477198886,0.5890015634135989,-2.78764952097505,0.6386352076335178,0.36343462349529315,0.0766370945960232,0.053164688539406056,2.4904580829464424,-0.1584320323142401,0.1675023590984366,0.10460628705826289,-0.05853317410867241,0.5889477995726584,-0.5233926492752058,1.421875
-2.377258584646842,0.9403932078062779,-4.971031774557431,0.30012145174480553,0.5655581528627679,0.028599524037226678,0.026532086903220314,4.579825972161451,-0.16134901261183876,-1.7029383332305408,0.27463474498381674,0.04724774722481917,1.1922663829729925,1.2591368066310193,1.4296875
-1.0344016068662607,0.5646631837716167,-3.0517829557630054,0.009848008807566365,0.32620513054099387,0.019358931578142884,0.023790096380140072,2.3980158002216276,-0.11826046479489365,-0.5425896853214257,0.1366332889626842,0.004284460740712708,0.9699038685711605,0.2964702357539275,1.4375
0.32588487072426914,-0.17447673202616232,1.972038170794778,1.203929393804974,-0.1042363660634008,0.1335979303547191,0.07505368850876803,-2.5000575043711435,-0.11101888961108278,3.4701971547523667,-0.23318648690529953,-0.21781487156200463,-0.26839041909610234,-3.5717707019453298,1.4453125
1.0144332270472372,-0.39190691520327503,3.647441960223269,1.5160678649510175,-0.26921902027119504,0.14454411001086503,0.07071075638057392,-5.01564949278136,-0.10424880323100225,4.741905067809289,-0.3616389376667594,-0.26104660228905313,0.021363168932964062,-4.754209014736312,1.453125
1.1565202325531305,-0.05591660061523906,1.1318706015430953,0.0433746228041278,-0.1654884261728081,-0.054261489928991394,-0.051310054490431516,-4.226579792965811,-0.004012509105271801,1.0419117224074081,-0.11890548608741108,0.02943113419668414,2.160466529617851,-0.8863791101082984,1.4609375
0.7209002155143079,0.0077700642433483225,-0.025632911828855305,-0.7789698668314684,-0.10800816749583057,-0.1568439335971954,-0.11147270114684359,-2.074764851501843,0.10713346401351766,-1.8887400480377947,0.06701564125884728,0.20379945551324635,1.9094000289930317,2.130487890695796,1.46875
0.33870174839534156,-0.31756372261447835,1.0823936793558173,-0.08584648445616963,-0.08876105057304319,0.06803200186782812,0.06254602678043586,1.2155072318306939,0.008710422165348964,0.9968454779841641,-0.07442942770442053,-0.12199275140964465,-2.109301642607549,-0.9757109227893387,1.4765625
0.5795590930860602,-0.24131682227141452,0.10698241866583556,0.20727378755944476,0.09043323750239293,0.3058492005821559,0.26341232010115145,4.065906296252445,-0.23878134016911615,5.18469608014268,-0.2316767336955416,-0.5052690745722835,-4.114750623033823,-5.4765742509477375,1.484375
0.4316396275658962,0.32095493991376944,-2.410384918454391,-0.32835087953683895,0.25117069462700303,0.15012549778391715,0.14772622873968916,2.654050134010326,-0.23987990385350957,2.942419455204034,-0.06398721779417324,-0.26627339276563067,-0.3906915796185445,-3.2017066338534317,1.4921875
-1.0175122996993087,0.4583372924045697,-1.5423542812189674,-0.04937993429072153,0.10042283325196882,-0.2073169333773405,-0.1764334251126648,-1.7664069708396655,0.10923517451456571,-3.96033522982651,0.2326535177305077,0.3604153764278127,3.422886597714165,4.036091062275515,1.5
-2.394679020320635,-0.05795821167477947,1.9888311729804877,1.1399204914132772,-0.15228602747389322,-0.2570240231277836,-0.2635980868469366,-2.8590335753767993,0.34920262024420917,-6.302002360887028,0.26080494716763025,0.5169245900673335,1.5256304422879399,6.506811209726556,1.5078125
-1.9593600235326067,-0.38615450490698194,2.822129367165851,1.4646762532063988,-0.13764871904776882,0.0004376808710970214,-0.04910927545485452,0.27586925238985865,0.18494497944763189,-2.0514560460671474,0.05000430257826032,0.10018200498499895,-2.3585358395188836,2.044840767939783,1.515625
-0.276859642827852,-0.2447625334406153,0.85719744578275,0.25061371236272073,-0.02691033364823676,0.08690160564391451,0.06886544363329375,1.8681640074502963,-7.802381263049505e-06,0.7528915942337526,-0.04430336368820609,-0.12247382973818909,-2.3570811786941666,-0.8113583082661686,1.5234375
0.9312665456798759,-0.21691468107019996,0.15952825042398075,-1.303758688117239,-0.13888078918148808,-0.12784840012412174,-0.06842825646400402,0.20930172582256484,0.14183135174814565,-2.006784831938312,0.07622680830874125,0.14863474523138193,-0.08875122146741139,2.2859087293246443,1.53125
1.0196029023971054,-0.20642229010682875,0.03162054237610429,-1.8003251350010723,-0.1908661757875352,-0.24624116530566997,-0.15593586284485844,-0.5112953045748218,0.2465817344731274,-4.066592567475217,0.17052680147136445,0.32693243322824384,0.8841914452615562,4.499056194947924,1.5390625
0.3224331545765212,0.4727722971751896,-2.9432518920900423,-0.944074481163509,0.20416211787433453,-0.0638700920005033,-0.019308356757362602,0.8324277328013708,-0.07740549519990886,-0.7212700481259755,0.11319335441635416,0.06797020702944336,2.068581577937356,0.6882861271930059,1.546875
-0.39163670290222663,1.2788471270851962,-6.139423335498397,0.1681548777425133,0.6301433612954185,0.12376633784813468,0.11352365596808793,1.1950958130387295,-0.4447687338779721,3.1178699134200833,0.034006328107322556,-0.19870781735768092,4.174083076711964,-3.6592850160360197,1.5546875
-0.02060410032220275,0.8568048564306773,-3.9360962709385086,0.17363474628925418,0.40079648841113946,0.0880400669133447,0.07836590956086235,0.036955056801923465,-0.31768694066499764,2.614886032607406,-0.014125842644808182,-0.15311712510580763,3.16379019518224,-2.96977225968293,1.5625
1.3524250968960336,-0.5290531314244603,2.188151332454066,-0.4911785454606159,-0.2618042981548448,0.013109901667415704,0.024919353112224346,-0.7757775688176591,0.0666252833646955,1.0930666886770521,-0.13475467445875816,-0.08152962097635294,-1.5827477554754033,-0.8814740981458837,1.5703125
1.829329923059763,-1.2153539920352936,5.593525153025549,-0.12240600805903204,-0.5540297482350341,0.08256263986998974,0.06843628725751288,-1.1579610094050308,0.16221429905120638,2.275686410145827,-0.29160745748005773,-0.1993547964389017,-4.541632470752762,-1.9315490993943372,1.578125
0.596359935995048,-0.8487703186915914,4.711406741484548,1.0656318214280018,-0.35923616833098754,0.16082847261010252,0.09983320926077417,-1.2739277136934921,0.03884642298659919,3.207244704826865,-0.2929589830960293,-0.263597575971832,-3.706177411694677,-3.138352382498534,1.5859375
-0.576000525551002,-0.5426407399158223,3.1985910348376425,1.1177071537892287,-0.19823974962342564,0.09765445832932149,0.04600037598398653,0.008666243685775033,0.07328672640502647,0.9351421387435013,-0.12159605193238272,-0.11537093845019138,-2.9853004982198112,-0.940674713323006,1.59375
-0.5319917519834214,-0.5321715489657518,2.218258759000728,0.10821907456341666,-0.17943855345010634,-0.0010425266677939814,-0.005328358271498932,1.727317180270752,0.17275122504453067,-1.4536123455213512,0.024578694662709,0.030596624202942097,-3.1530670827049043,1.5727873826396168,1.6015625
-0.28964317659743416,-0.06765677147399961,-0.07491901577985251,-0.1852351167478543,0.008695433020717565,-0.008850983317808715,0.0005029368292368494,1.4190112926038239,0.0433691534580362,-0.8505570244134223,0.053535289591594676,0.02289552135335247,-0.9336992700799923,0.8621142244205539,1.609375
-0.1849171771003261,0.7223582747674255,-3.5149101197091643,-0.21619986392798649,0.31879743053431914,-0.008642898352766805,0.0061009082103267095,0.21589484440691953,-0.18002148958237152,0.3772868698117348,0.08204330136072956,0.005650549923393788,2.9601584462902655,-0.5820554621275252,1.6171875
0.3200652865291477,1.0664129003028786,-5.892411340566975,-1.3036838142520684,0.4510785942493159,-0.09503606281307143,-0.03061411340688116,0.792282687772764,-0.20722561950411053,-0.7280694228534783,0.19359846144933834,0.10559503889758373,4.762470656817889,0.5678256585107476,1.625
-0.2345025820848077,1.0313871158150572,-5.845775157113523,-1.429720543046956,0.43831315335911164,-0.1636104408272684,-0.08610182642749459,1.4373860799796179,-0.10469857721070269,-2.761737726796148,0.2987848610128035,0.2380736004887016,4.516951183677505,2.6671388303739527,1.6328125
-2.796668282128908,0.9483685803166038,-3.139149829482996,1.326333130189986,0.40044167154526233,-0.09303584968412362,-0.11785045650484471,-0.5767363562493047,-0.0529900589765877,-3.007637385482768,0.264769244399416,0.26391423464664393,3.886758683618229,2.694734778121911,1.640625
-3.6726306917218166,0.44455184844417867,0.9238548853561002,3.3529673085296365,0.17052461622666906,0.02826247467217742,-0.08412091576722508,-2.7930056488461616,-0.009042556472528853,-1.2210243505936107,0.07269051932512088,0.13483057238586119,1.8102370798112608,0.8423493757350478,1.6484375
0.06923017753603658,-0.5027263984933038,3.3958600311439797,1.0055112126138324,-0.26221270044251577,0.05201698646450002,0.008371849903579373,-2.241739611915939,0.06856359995565703,1.2372566228145228,-0.16269466501959493,-0.07442843324054388,-1.4347286942854378,-1.1586873080058044,1.65625
3.7150468265392953,-1.0251709551262749,3.618587707164236,-1.810519753942386,-0.5234859031372591,0.01224872290864871,0.06385053073767728,-1.4928742436106066,0.09844001600146336,2.7329717311462742,-0.28959400865405327,-0.18930345423502246,-2.67117457567729,-2.239644655661518,1.6640625
1.8710996382151213,-0.8975019999605484,4.434762921724703,-0.20765810411364427,-0.4756674551509667,0.017678398071979046,0.01540092585959861,-2.6596546566701265,0.13063066338060614,1.7685482311903749,-0.24507139924630744,-0.10499806864835662,-2.222484765113623,-1.4255228822128976,1.671875
-1.5964765867541029,-0.8625250097877699,5.918942507556844,2.1661051828423714,-0.4005147192910256,0.03239906381702395,-0.04959147006361086,-2.0745196834146706,0.2554805419830105,-0.9421350056583961,-0.10364032284067828,0.045410008829078405,-3.4404304296519346,1.0508693688438393,1.6796875
-0.3516153600131713,-0.8843996966006302,3.678088577647729,-0.04528183012261215,-0.3294192958746538,-0.012703740005368058,-0.012539773975537068,2.060158755178006,0.2729476446246935,-1.9837045703616816,0.008670304246603597,0.04498532787040515,-4.673066830239263,2.227272037851159,1.6875
2.759913655973442,-0.14367909155906491,-2.598386030808393,-3.2854931046590696,0.01989708665151093,-0.02800587000674142,0.08849907185374037,4.653248245974021,-0.02991925270569035,0.3153541912924697,0.03879685058986205,-0.10576435886451423,-1.6057280684754076,-0.07834329328873278,1.6953125
1.6386211361594663,0.9781534026367877,-6.497687533447684,-1.8980497896506912,0.4974030284725148,0.06253968740966243,0.12770938891984046,2.7344678243710074,-0.382277784465888,2.851553581523541,0.03359649609163417,-0.20437722132263103,3.1712779307594707,-3.1117429314018463,1.703125
-1.2065963557892456,1.1425606304457747,-5.007929658133514,0.7632669159390673,0.5691808382671912,0.10669154741779854,0.07784990384126995,0.9802483191702055,-0.3583757428486819,2.0252151695129785,0.06540429567252469,-0.12859891670517415,3.527086451719574,-2.5554624849595635,1.7109375
-0.008140909706893802,0.35450639238464093,-2.8186797275840103,-1.019168101542834,0.21258044263565765,-0.0385385802070762,0.0059858924951963315,2.6553149439608186,-0.047294007145135236,-1.1241196203053199,0.14320555990834402,0.04456542289666767,0.5675174432983027,1.0719291266773205,1.71875
2.664674863256528,-0.07334596577080671,-2.977034963757976,-3.906312639552865,-0.026685265427293863,-0.20179529532895485,-0.04307343724314655,3.7155360646620097,0.11920621063064445,-2.8715808666066174,0.19403131541355173,0.16597650494786403,-0.06578139248094693,3.306111448237163,1.7265625
0.8685804776805974,0.21353401509359876,-2.0742854168958837,-1.5577650889056842,0.05690082265036774,-0.13556619417900967,-0.06347832767787555,0.6129309235131711,0.03790474656770733,-1.8894884066390083,0.13463562485858552,0.15542387595574322,1.587885991256753,2.052924515970513,1.734375
-3.294985258025682,0.26943891177767704,2.0958157544747498,3.665653190984043,0.07506406656683917,0.07249964681579829,-0.057864664950948594,-3.8724166776538804,-0.025998847130578793,0.0923027760083592,-0.03164043141209907,0.053026793871392294,1.4137023918854392,-0.45562050677381466,1.7421875
-3.6314426347854525,-0.3001737172844047,5.932725537828794,4.967520563117274,-0.19577631470185752,0.14249526090222156,-0.045227501162465766,-5.7384298920043495,0.06464646644247438,1.1452766368432703,-0.18977800492897887,-0.024145459549923528,-0.6732794919894103,-1.4566155982867353,1.75
-0.6972891505710017,-0.7410841761193844,5.80012807445727,2.1861195070429957,-0.419018883726544,0.04296496027618309,-0.04214011150388395,-4.50427213575746,0.16283281683989181,0.8144959345808447,-0.20871694450397585,-0.013832296786272805,-1.6813362556931064,-0.7005102025179033,1.7578125
0.41805437933434564,-0.46867627930428984,2.6301704216548156,0.21115553593646297,-0.25552145151116373,-0.01705076198406575,-0.02500271972960234,-1.6017487769930712,0.11504000715151089,0.014084455962056697,-0.08686555808696882,0.012050651066953324,-1.1113753706260194,0.16565104550389653,1.765625
-0.6546079139910487,0.11840155134024771,-0.5665912693299665,0.32868566276547573,0.10293999097751012,0.040418964132435876,0.027562282779943686,1.1839947865449238,-0.0402056782406463,0.0780288923747628,0.027979827951753706,-0.037312124340618175,-0.40695299525512313,-0.20119394849844968,1.7734375
-0.3763936076839814,0.32594418141277265,-1.919884098063936,0.059847130458961596,0.2227599057303237,0.08032357034266457,0.0733704301888268,1.9669225096710004,-0.14276863674355816,1.0899410209039515,0.017596663179779662,-0.11750747241796998,0.02816567729402539,-1.3068069167768621,1.78125
1.3124338296800773,0.10830476894113152,-1.4567801129184863,-1.0449432139168549,0.060598041755719256,0.024538155143962764,0.058784753702274296,0.7954700947119193,-0.10679688585895133,1.492280176680052,-0.045404515735055107,-0.11102665297149593,0.3908698837056489,-1.477175387563415,1.7890625
1.1985109611536302,0.018939011987057837,-0.7969186662870381,-1.0154883700942938,-0.01630035135803693,-0.03287323826126837,0.006379690318729017,-0.0268666659069076,-0.026286377733263942,0.4001559284844089,-0.015072450309821359,-0.014165638216825748,0.6136921506598009,-0.29335840697689003,1.796875
-0.9472378475006001,0.32588154538601655,-1.3736686457913183,0.30285910607170585,0.16571981191099697,-0.015795618404754103,-0.019704248258424387,0.678959855592836,-0.031852188508272546,-0.9270962283650597,0.0985748615164982,0.06101975876902342,0.8833060846721081,0.7992819572695065,1.8046875
-1.7275922738829763,0.5666489738403089,-2.4676609556222497,0.6121132452771054,0.31385829158488804,0.006676551991226761,-0.00783644208556618,1.7258037390908054,-0.08051658405713902,-1.1778131716714733,0.15728373648527663,0.05968944255631865,1.1128503600375284,0.9079301791160632,1.8125
0.3921440757916271,0.2467388252058972,-2.2599001368776026,-1.1172439580430138,0.14051694157770325,-0.045386330471455925,0.0019787927309474016,1.9623516954697966,-0.03177690686254784,-0.8420381074796561,0.10517130907422896,0.037994062591751955,0.5580991998598839,0.8534832149681308,1.8203125
2.9597540903555046,-0.4133790785577251,-0.3048721077617639,-2.894930440628791,-0.22077437214978168,-0.12172093550937627,-0.01094849339340362,1.1553631474874146,0.10814434361584327,-0.6689050390768423,0.0008745444091108117,0.038891637730183906,-0.7410970518606382,1.1141665874401065,1.828125
3.530624122779054,-0.8663731264190501,2.252484255127684,-2.7215504838919906,-0.47576556563746364,-0.13384046153908744,-0.03182026509687764,-0.6636033957186802,0.20902010062385598,-0.38601963785358223,-0.10002767090840343,0.03995934107878748,-1.6630607058364568,1.008129010353432,1.8359375
2.5330244859485918,-0.9063880957067673,3.6269740531851244,-1.426207911860268,-0.5096092396239563,-0.09920204910528196,-0.045949742422074905,-2.1373816298625616,0.22102391723665915,-0.15457416725688303,-0.1408322350914203,0.04029246800019392,-1.6902627846229286,0.686578424817346,1.84375
1.0796917710715899,-0.4990999113930238,2.0529038453393698,-0.7022317527421021,-0.27736319439941587,-0.07257496457138939,-0.04299091650788731,-0.9908367985121588,0.15222658217888638,-0.7396653162723464,-0.04277427680570465,0.06335887606308693,-1.0200336595175634,1.0378271038026738,1.8515625
-0.8294508847219516,0.33124919413970494,-1.9521327473761703,-0.13485245361988377,0.19936150675861544,-0.01865912622841744,-0.006629396821965316,1.9486090172077009,-0.029266834738058155,-1.2364189695450503,0.1335727199586599,0.05708598869127323,0.4194716474881504,1.1171399721742974,1.859375
-2.631607364303698,1.0179695478624482,-4.243057093719543,1.4022784990085098,0.5718621131688892,0.10546865024403579,0.05610430527971419,2.5314787694785825,-0.256241233942564,0.25980142963551095,0.15648524429974123,-0.05547524996172942,1.9233776058846377,-0.8394087079376176,1.8671875
-3.078314632041119,0.8082927895137298,-1.5710943505940762,3.196270792060376,0.44544626340173693,0.22459760363537687,0.09700549434962255,-0.3936929643274326,-0.3108263717693253,2.855718409989201,-0.04568090756799527,-0.2068140802612158,1.5322615537192104,-3.553779479162002,1.875
-2.9644906309137355,0.008124021946385483,3.198760511578708,4.118928376961947,0.04134015324676692,0.24443720859484977,0.07644500606635411,-2.7234111374060106,-0.13051173415117523,3.1861673897154383,-0.20470602436729862,-0.22495189021611844,-0.9508776334456642,-3.6748619343301456,1.8828125
-3.973099902309187,-0.25903445530397223,4.543849095089554,4.353617812013053,-0.06126400969213948,0.17769722609918054,0.009214638729098697,-1.8777434772569155,0.05283445798764732,0.5220124519113633,-0.09748542307304701,-0.06870942619214032,-2.4117342070727865,-0.9088379507706403,1.890625
-4.157584734636862,0.13841247268209503,1.9681177766269928,3.4200378130860716,0.10759721571226037,0.05992596004382442,-0.059134162368658164,-0.7231006521341997,0.07335593320429877,-1.88439560485832,0.09346243988459872,0.11226263117355118,-0.6714896372765421,1.524191625156279,1.8984375
-0.12706467997277995,0.18916498175102953,-0.580932434500182,-0.151970199721372,0.013155957002840932,-0.10707695277197725,-0.0869972233043996,-1.4231043837088704,0.04877800748558148,-1.6046930663090153,0.08506804063618949,0.16589736887786513,1.9003008865670827,1.6807112175379235,1.90625
5.716986316215151,-0.31838946486917674,-1.6008180550655113,-4.872502450284619,-0.3144821775018132,-0.2444441177198408,-0.054113283158331554,-1.3284666606833868,0.07360545374762463,-0.022589191307696817,-0.04878555285693629,0.09102192156739589,2.161037449860564,0.7620961063181477,1.9140625
7.014056787818784,-0.4252806172496178,-2.6067430311133712,-6.292190435766581,-0.3099490441313998,-0.2291890791454563,0.007333666047823261,0.9860685537164107,0.044454939504042515,0.598067058874452,-0.057765768696003174,-1.3993593528158651e-05,1.041762649151695,0.2286450210621793,1.921875
3.2139352755805324,0.05162677835650171,-3.0017331221371113,-3.36569912513456,0.012356974988406513,-0.09615647422911411,0.030820171058569178,2.1301762964350908,-0.047730384620668746,0.24581140333012466,0.032887167322147054,-0.023141056210660947,0.7640913755874964,0.052240560948627716,1.9296875
0.09706266328045625,0.07939446192520025,-0.6697077165304858,-0.26952189555071854,0.04903331204904412,-0.0032003595364532796,0.00851072249883949,0.6141384685747125,-0.02179591533499312,-0.043509945899309746,0.022112801891891333,-0.006547572652841799,0.11356370549635111,0.030985968585757737,1.9375
0.07765304763241516,-0.5189411151236736,2.433057928888723,0.12113472766056678,-0.2186108268082414,0.007246222454627207,0.0003614805132445548,0.1976697451256196,0.1280050491672883,-0.3415795242502304,-0.050275790383353024,-0.010321143884686924,-2.30672952641985,0.48234031883395617,1.9453125
-0.12975872808735606,-0.5076759836382077,1.720837919113912,-0.2321397689571109,-0.1531432439579017,0.01822617592026876,0.02346281151797344,2.2868192636186215,0.13317571271781242,-0.8698074735891252,0.007827778951177358,-0.02055758370039412,-3.25680876575233,0.9798976613627768,1.953125
-2.018075142047275,0.48493826374462135,-2.1276001479441047,0.9005865217485065,0.3231684351733786,0.06330068005627316,0.032354080908045,2.6497975113193943,-0.0968712696442386,-0.639340229331953,0.13221623692680318,-0.012596653925281058,0.006472816835219897,0.3010473671637814,1.9609375
-3.214146675993046,1.060291053076797,-3.1331708918126155,2.4823278397794732,0.5244144842915707,0.09963535507259683,0.013306560021121098,-0.1516317222963859,-0.25050295179779125,0.45591306767937373,0.1119016371687547,-0.013232708926632678,3.085575330809358,-1.0713892008716959,1.96875
-2.722066789168366,0.3356479399593749,0.646983008826046,2.6898701357283685,0.16010585172387695,0.08277435590859196,-0.014422258854106985,-1.6245117116506622,-0.0667308577713991,0.2093190265949063,0.005424041806987784,0.003098266825495196,0.8637783454057548,-0.5691802990102648,1.9765625
-1.7064408128279198,-0.5970008285356039,3.9489840100012277,1.5607193718846508,-0.24387028283602444,0.010387739467086937,-0.04546862928206715,-0.2842894235868057,0.218610751963551,-1.7016741424166637,-0.0036309191969094343,0.076948699116582,-2.988520717077701,1.7558742302673291,1.984375
-0.1453231814667124,-0.5321960651937213,2.7390900977138624,0.2210603238499449,-0.2523241202675591,-0.03673428583530534,-0.041923762922573056,-0.43092186411532385,0.18046082561025903,-1.2351271096716026,-0.016830355449702017,0.06980888673410666,-1.941775350100293,1.422676800443931,1.9921875
1.9334867941353675,0.029252755884281063,-0.0033584716778683747,-0.500865439112294,-0.08144852102277143,0.017940492242458205,0.031486353874819836,-2.9366401389449375,-0.12348341216208665,2.8396600716733773,-0.17670368381922422,-0.12409526913323325,1.8500700862564128,-2.7566779707650078,2.0
2.2449849043303147,0.0560094053520017,-0.16581203080672322,-0.4733622061286117,-0.058797093866948834,0.0661595152192636,0.07281689980444804,-2.9588156567507076,-0.1906205093630204,4.085976407412463,-0.23520491680536285,-0.21421818262952202,1.8225708602215194,-4.053506904617505,2.0078125
-0.04106386025411429,-0.24843325581878384,0.9626792223409986,-0.19431037525647327,-0.105916880905177,-0.03674285531979506,-0.025597094875230923,0.47295969817858924,0.10412810133673463,-1.115222492224164,0.028983545680221913,0.0579314345730605,-1.0892830365539186,1.2289401067984151,2.015625
-1.5627803049349913,-0.08389529917113309,0.03267731315018702,-0.1876640470137464,-0.002571002324599437,-0.14092230559920663,-0.1142614458474281,2.2416675852374817,0.23348303994539352,-4.767852608759018,0.25671708068845855,0.28831253506951837,-1.070951099554989,4.878243247576048,2.0234375
0.31028588533093876,0.38746688263736395,-2.3185030352270903,-0.6337562888324165,0.17153579951010933,-0.026210493389802483,0.0025284454886903146,0.5541018299783982,-0.09174713755346135,0.006388994534806422,0.061044385562484496,0.012738720574683088,1.6283880868512688,-0.06358261199514953,2.03125
3.1607148510499026,0.35567111472530233,-2.890727254487858,-1.6046325954818754,0.13980378356431844,0.11643223298714829,0.15814920506947686,-0.5541317453717295,-0.34678415236266896,5.472091769204924,-0.22693683076512702,-0.3470940927879985,2.10190222889211,-5.533902456297855,2.0390625
3.192526717025241,-0.14764141902758443,-1.258869579182378,-2.4555883607478948,-0.08689013251198432,-0.012981593380183313,0.07087374761941356,0.6741075281919687,-0.08102816755535155,2.0818201106588203,-0.10739497587581363,-0.1434992680630877,0.11072447859811693,-1.8357756005719015,2.046875
0.3056067766974773,-0.24878623851707324,0.027000929658795608,-1.5449321714427062,-0.13953097326142466,-0.2039599051295985,-0.1262369679032154,1.3283825391168183,0.25599471360752146,-4.378931321974573,0.2057186246115115,0.29549498866218166,-0.501777597287224,4.7266060679960935,2.0546875
-2.6553723997665077,0.2871809055893688,-0.2744729366822729,1.287094344908117,0.1334365545501682,-0.0869677735612861,-0.11509505659595896,0.18847980254332639,0.1170451061735212,-3.6538223391285127,0.21895275649872237,0.2577550331721616,0.7696213069521836,3.527613397965016,2.0625
-3.416339634750263,0.6207707037775936,-0.669604513048138,3.1066764423533972,0.345773840592029,0.1505991292791968,0.03398176360260285,-0.3742315456959742,-0.17398857333306267,0.9163174972982648,0.025379156954027184,-0.07324419638733591,0.9937915778140853,-1.4839336248265051,2.0703125
-1.7558178335064112,0.15284351763426832,0.24738096745828106,1.6749639102954375,0.14466117298954695,0.12637578145157302,0.057945360314553045,0.7156788475551353,-0.08893590564562813,1.0336881920275358,-0.024405365588425654,-0.11342125692046098,-0.8283416201450307,-1.3416649912984222,2.078125
0.740691016045932,-0.5860073672578804,1.8741501553693347,-0.738269002326493,-0.22465731125613947,-0.0048047501903684085,0.018911317847333867,1.5110599915609195,0.13622320542995273,-0.4668168294950509,-0.032333287935628514,-0.026292278900074392,-2.8831359805334946,0.6801089023694902,2.0859375
1.7256249729152675,-0.7869029787702788,3.009492150531508,-0.6033283624242022,-0.3302435380925121,0.07808426268391318,0.08449095144063527,0.2733831743211551,0.06247471821660082,2.1338799727429616,-0.20576567368556412,-0.19730118655432077,-3.334426586512399,-1.911707475440319,2.09375
0.19917259361774825,-0.4112769221389161,3.2017018107033874,1.5265843646451303,-0.18603796365721254,0.17477615195848573,0.09891806055813916,-2.2501010664562617,-0.08059692752702195,3.8708934784676567,-0.28208429925551953,-0.27093031611833646,-1.625979948517681,-3.9661689765837886,2.1015625
-2.0386735405532606,0.05256019286347939,2.0379350222575487,2.197021057697796,-0.04862205792773826,-0.023863190584505204,-0.0945494731509146,-3.329424833904954,0.07598296420451793,-1.1460240137283806,0.011433478405547143,0.1402156019777387,1.123424576611834,1.0430490039566411,2.109375
-2.103132204826001,0.29113938568712733,-0.5978938960917829,0.2405031178588181,0.03887325572873185,-0.2734898009148606,-0.24435481309640908,-1.0397955652219597,0.26768371660559226,-6.543377204539445,0.3475296972473569,0.5182027037033397,2.4116562789727025,6.686837696428374,2.1171875
0.28019644167637175,0.3067643077525921,-3.050002645313196,-1.9613833851500668,0.13328505396566817,-0.19499801536031905,-0.09997058485148133,2.406792861282054,0.10387756643354557,-3.9631074572825,0.27608236202389463,0.2714703882084705,1.350085328550191,4.1400653715282045,2.125
2.178001211843653,0.2702022018536721,-3.255376519127261,-1.9799962952099528,0.1761150528460432,0.059489996635890594,0.12276457742735182,2.4785234036712107,-0.21256323947639408,2.5931788255639643,-0.052040903101641944,-0.2139798045432467,0.4536863844961107,-2.619006057895411,2.1328125
1.7011640974486057,0.34548260646358997,-2.0012302095298313,-0.4892222736465956,0.15137819777526326,0.12457802074269435,0.12819444601486382,-0.6736603704177692,-0.2912249427267183,4.446498769399698,-0.1818116659935448,-0.28563553508681305,1.627942514535731,-4.602189170379207,2.140625
0.8695992132607205,0.40474564184357154,-1.7771729240108922,-0.22706100056547646,0.13212368661961166,0.021957155615846678,0.02953173436033736,-1.5454747056521265,-0.17685402250004156,2.029397614774077,-0.06735017500181731,-0.08591492001501924,2.5119145007227948,-2.1183947695708856,2.1484375
1.999240937202811,0.09898584401541677,-2.1545739689102983,-1.964952269762343,0.05177560825725731,-0.02399195404786852,0.04729459180220805,1.4715108708967983,-0.08266392128563654,0.9014569309194046,-0.005844756304606466,-0.07231337173836469,0.5150979158842909,-0.780665681460236,2.15625
3.408578090445881,-0.5199003946813118,-0.34154430857666546,-3.061085814126234,-0.20259663452403257,-0.024379367758458226,0.08003007349763534,2.6424250905882074,0.03085839813308808,1.1074177206940354,-0.07992065256384429,-0.13386744401160236,-2.176237346168992,-0.7302530405265846,2.1640625
1.9710651691537964,-0.8441985295727492,3.283854943862255,-1.2156185009127571,-0.44324811997115215,-0.07944264524777275,-0.03436917532909085,-1.1154229264092785,0.21367418447876302,-0.45082178384547034,-0.10386593581232872,0.035381257125923916,-2.123250245735289,0.905932179035748,2.171875
-1.9207354542551516,-0.5007113649549977,4.862981591625703,2.257794203447217,-0.33116829157453764,-0.0789470787257872,-0.14910445543045722,-4.225768310729156,0.2690639708047363,-2.4481839795351474,-0.011193684238152108,0.23009288139787742,-0.5320610217890278,2.5778687254700694,2.1796875
-5.1001575842744415,0.1419338695178942,2.9345437109376653,4.53301827457217,0.10147637770424296,0.09068389723880883,-0.06992887913074508,-1.7875105425797755,0.07696207386199011,-1.7559907050647752,0.06988270593819368,0.11437621444432741,-0.6494373560685126,1.2997484625969815,2.1875
-5.45603235816416,0.4892009529657344,0.29461956520383686,4.400769368151212,0.41083747640383883,0.24523579783154806,0.07507396031972681,2.2549262908317154,-0.13180494863319125,0.22990087655270483,0.07574203748581779,-0.1180290843210219,-1.7666868787150478,-1.0038924400231146,2.1953125
-2.940518029088774,0.39040667572002546,-0.7745460005471776,2.1502612035005884,0.30452013407150164,0.14444839336800946,0.06077455249215674,2.138710606709895,-0.11375199232288809,0.25160575023056414,0.0651598663134667,-0.08811945179712988,-0.8671631368979886,-0.720506476581623,2.203125
0.7989320741404211,0.15589618629323598,-1.099738640878555,-0.914555041713347,0.0032273271137262913,-0.10238327682108211,-0.05742714518523337,-0.8915357249994438,0.016842229847768033,-0.9266523824938384,0.05646210669505392,0.11171628105520837,1.7902223286818373,1.0609373468098382,2.2109375
2.754537841434871,0.1050044854762177,-1.632689625233236,-2.3829753785747814,-0.09798161093441189,-0.18228336642318665,-0.07996146277995518,-2.1069999841487204,0.019922757369838093,-0.6001697249660066,0.019798356808084866,0.13884289311696565,3.0788284965186006,0.9666564281504717,2.21875
1.4492710103513593,0.1692578846328723,-1.632317973454034,-1.261449238494767,0.03970184058935904,-0.04249951033227739,0.007003255301679058,-0.16337817558211287,-0.06857451243609607,0.6067909413601795,-0.006517836348653842,-0.01445263486805172,1.430861845833629,-0.514660660716424,2.2265625
-0.41581524859959473,0.01887619322511761,-0.840541101873299,-0.13461458314926183,0.11669275213363275,0.07297275029901182,0.07216768923605507,3.0631387330650433,-0.04588204224021456,0.2926640198302444,0.031709948377931535,-0.10078595375242026,-1.714190346545797,-0.4168898193475747,2.234375
0.5053493950116607,-0.31510701682362646,-0.5267605886390215,-1.480444377382065,-0.015211933500220078,0.0050463990000871005,0.056532662025366026,4.76745037151363,0.07955701676783324,-1.104016948338011,0.08325782329357603,-0.04015704145264586,-3.229130772119688,1.2140788756365086,2.2421875
3.0139903877881347,-0.34371860759680856,-1.2043121532954415,-3.3845228655754944,-0.16197423093327235,-0.13759165449926058,-0.007088454713950542,2.447061870556797,0.10878210896692986,-1.229569607282844,0.05741101708025731,0.05698405626820301,-0.8941722980885748,1.678412801648948,2.25
3.308408429509378,0.026020630314313196,-1.3242990698250696,-2.5076500676786355,-0.1417523303959518,-0.15720632701660692,-0.05478338497151079,-2.5179617751648165,-0.00845321037647998,0.3897630822722568,-0.04527679036543988,0.07463974238727371,2.957743109397788,-0.0007910358885081621,2.2578125
0.6960366503705112,0.18840098822449244,0.42274784678687816,0.6754002056796379,-0.03918817982082406,0.010491752996079377,-0.014120126265266588,-4.414925870321222,-0.11430249146100074,2.2419930350120643,-0.1494882210367689,-0.05054916215308556,2.812630720666844,-2.2662023780791754,2.265625
-1.9329812309672028,-0.1536105010181039,2.8887826707410746,2.9496506291218996,-0.017374608914311508,0.21331386841087255,0.08783633552611046,-1.4837800270784096,-0.09403512642661077,2.9144683207805744,-0.1926914811428488,-0.22859037327584908,-1.6927521057825636,-3.2575346944198476,2.2734375
-2.229582140879061,-0.43490762101850217,3.77713934453002,2.794619269677373,-0.09447174008044087,0.20795169118964824,0.0877305530025182,0.15993485703128832,0.007488570067842329,1.8179101043482258,-0.15267551870058518,-0.20348880317708964,-3.643611299090554,-2.0927394131789616,2.28125
-0.6849595501703153,-0.1747595212229595,2.255235707620642,1.1966246180370739,-0.15143897296185507,-0.024172339097837666,-0.06285693417869313,-2.887647970228876,0.08277452844407308,-0.3834705869761479,-0.04817302030577151,0.07567663279624598,0.382729837958688,0.42460636716876893,2.2890625
0.540071965763337,0.2913776921021604,-0.549562740887637,-0.30064304627733845,-0.04726574012031698,-0.1808831023247632,-0.14814300108056808,-4.242301726925251,0.05105991949713323,-1.621735601028253,0.06010082567484095,0.24869478466103753,4.093759699756649,1.804398151383992,2.296875
0.17402267732912027,0.4723281030471799,-2.8392641711861852,-0.7804605627728465,0.20943400078312105,-0.05225710464447229,-0.014536248773189188,0.8453981117823871,-0.08228601456677766,-0.6191751273400196,0.107922078435293,0.057674718724486596,1.9578384015064663,0.5621886759666107,2.3046875
-0.6944335970801099,0.3638343162614556,-3.2190044129615156,-0.42841663998550245,0.35941207134778563,0.13689003215386283,0.14227220236985968,5.724144619498598,-0.17620092217766115,0.9317413886581298,0.08477112505580388,-0.19550899934230892,-1.776654442398845,-1.2531865724708982,2.3125
-0.47574223293064244,0.1395924001282385,-1.5842457039936308,-0.25728223396378347,0.1840121104186887,0.07549803547988355,0.07968785337858512,3.5768416375412273,-0.07584393556162185,0.2719203814603147,0.056481813967422745,-0.10467767576561181,-1.4484354321957713,-0.4372194674824679,2.3203125
0.11477501494158883,-0.11047449713840976,0.3471629437993632,-0.6090014278077718,-0.10655388317473728,-0.13800548827071032,-0.10026370554896527,-0.5678588081061389,0.15360393800087052,-2.55935027901817,0.10517720520012624,0.20477887308881404,0.4927109425511427,2.774330273765056,2.328125
-0.3973219980108865,-0.24960352440317682,0.8491079324935363,-0.6782618451007731,-0.15447087806117835,-0.18758484174830023,-0.14151756728321196,0.26903484649318915,0.2647285217643531,-4.340951857898797,0.1866866383145088,0.30761942695737,-0.35394535161365065,4.627288530881417,2.3359375
-0.963445394007574,-0.2388451701079962,0.6909743396060707,-0.06537883231486735,-0.045790140724640306,-0.044249839404158005,-0.03482398464065714,2.297519697363069,0.15641092193075787,-2.529093644081697,0.1258218975300965,0.11257887014700955,-2.055780889543321,2.594117768204043,2.34375
-0.06539630056745188,-0.25697592700469585,1.6495175392858301,0.635036779249781,-0.10272916666652328,0.0684590507762263,0.038059827059901366,-0.4899295171269227,0.0006184806605088112,1.209136537196706,-0.10257145787244579,-0.10024058561549842,-1.2549425312036178,-1.2287269756765993,2.3515625
0.5637835395329316,-0.262302085058026,2.6254770916188015,1.0831135769764269,-0.20125493823639842,0.06791490157134854,0.01993006788351391,-3.8662213014114464,-0.040254144253167555,2.660217063859577,-0.22393684952142134,-0.1251028064539607,0.3365125329371446,-2.6380096707546055,2.359375
-0.9216793928386758,0.08056626542830006,0.8015842636274947,1.3192551815402518,0.02564664569864503,0.05761825170472322,0.007401530297842197,-1.4406068178716458,-0.0482952229624339,0.8937020539646751,-0.05689321399444816,-0.04490682743155575,0.371246017350458,-1.042927448008894,2.3671875
-1.8772955721874331,0.6077596574258555,-2.8278947472227953,0.8076361294602706,0.38776227581720607,0.08466503409493088,0.05508096022205731,2.880146002492287,-0.15535523156945566,-0.03896425263663137,0.12231146343908872,-0.05513458827523877,0.3639914416579905,-0.3521221015364392,2.375
0.5539422829230036,0.5741028632285099,-3.7008626370279347,-0.6827570503407384,0.33344975177688907,0.09751248447571693,0.11495267303629157,2.288649925070104,-0.2639442341481565,2.361171902515767,-0.005654124090853405,-0.1955296155237866,1.142211527745058,-2.616672199384025,2.3828125
3.3436591460136778,-0.1025440958843075,-0.7538515055045568,-1.7506059601785247,-0.08842146813410136,0.06273459882624684,0.11269270852516035,-0.9450947966347485,-0.18100001173578711,4.2045735233736865,-0.23078661066179176,-0.26506095099206817,0.6507715610115493,-4.059421965155095,2.390625
2.2767199797738464,-0.49358498890839575,1.8126293716079807,-1.1036282107577877,-0.29694279764169307,-0.02850173050956904,0.008194758847622372,-1.8145019116554986,0.05352849881574443,1.361380114637938,-0.1565208965141137,-0.06307766648739015,-0.5071021507280459,-1.051237639855852,2.3984375
-0.31505920870151355,-0.18123867986470024,1.4984343807864031,0.04779634543264686,-0.18379478014327455,-0.16096608385461117,-0.14388845914168288,-2.2495340289286405,0.20477293597705035,-2.9715806616961338,0.09076919646439043,0.2658621403024275,0.8866089993755423,3.211101235226658,2.40625
0.36268815813099703,0.04324168282068367,0.6531661461854882,-0.33259908679284583,-0.17043637331089181,-0.23146588920579347,-0.1930481377882622,-4.320315379537333,0.17407920412914712,-2.9989500506406555,0.0938871608353199,0.3396363864757286,3.2741387804387827,3.3058444735181807,2.4140625
2.682024498515915,-0.24371775205833737,0.682855661724978,-1.6443171078943775,-0.26653263511884945,-0.13680918559142322,-0.06806386006897296,-3.3338438092561646,0.06683605283132743,0.23111892300170517,-0.08728000842591452,0.08097843461106081,1.8643127506107957,0.17110265438321062,2.421875
1.3350169938861742,-0.25808390912742607,-0.36545760379034564,-1.316388321606846,-0.039237945125939325,0.050244337666976585,0.08936409585964904,2.751191397103214,-0.024431439169175746,1.100801268638423,-0.04695391968563064,-0.1486294789833026,-2.1128663291411534,-1.015744132216207,2.4296875
-3.2542514134439737,0.3105923488148283,-2.0329175537395177,1.2163846656054793,0.41100513569284247,0.16860632966020486,0.11629819659355232,7.0770650467115175,-0.0783780700320785,-0.9942939846902392,0.18810109424116392,-0.11673434741405952,-3.506840509359819,0.49627469387035034,2.4375
-5.443815952060395,0.4556268796034377,-0.7793862888145348,3.359065602801165,0.4557125281571009,0.19247033439625064,0.06560150283461842,5.145116164752436,-0.05793295966549369,-1.6484212624006032,0.2074371567638598,-0.04223758923939456,-2.85888633083651,0.9514979340779719,2.4453125
-2.965677019377969,-0.20093297402654406,2.3872201619071047,2.6361109937036904,0.039265077218317374,0.16492862295897792,0.05808613611073374,1.562592812352535,0.024017115640341834,0.19906785797770318,-0.02105158503331398,-0.10695745912640553,-3.247402865996411,-0.5283781751357285,2.453125
0.8068721932786135,-0.4534442314195085,1.9587301947206979,-0.16811131389541878,-0.20221008825487505,0.03302376726797791,0.032514924583113114,-0.24212687873359104,0.052546799818047496,0.9634551461527914,-0.11155701240080855,-0.08693480241229382,-1.7514149552178717,-0.8305270505757275,2.4609375
2.438022658076228,0.26986410561099955,-1.956260820386537,-2.036159936930831,-0.04969713741974744,-0.19324640749139332,-0.10062958682504865,-2.999795910883416,-0.004933240245747786,-0.6621197936267436,0.03150525509066466,0.17031786800475285,4.117608969366938,0.9775186365005393,2.46875
1.9081981320161,0.7095459321707378,-2.862887027814007,-1.4786087505715677,0.03530250203272065,-0.28808498993731646,-0.20151101708836017,-6.138421091451346,-0.02445466416265419,-1.6565400942016242,0.09408112037899534,0.34036430189585326,7.624626511498934,1.9396536046898207,2.4765625
0.8477338618855988,0.07160346725329153,0.5077330322989863,-0.11802810761125065,-0.1258148053497046,-0.11763973391502505,-0.1004413007894676,-4.213875208263411,0.036103601037907926,-0.3446343956721557,-0.03250668755374958,0.13998991130228247,2.9215541166613477,0.5266335912272914,2.484375
0.22594132529990396,-0.5444952478429613,2.1016088646445907,0.05308864154961669,-0.16384952029473868,0.09177143133036143,0.07750101262897398,1.757771863546499,0.0542884062123763,0.9922187572146249,-0.09739116977357676,-0.1498081902903025,-3.4576162341365193,-0.943526481135909,2.4921875
-0.03518896049783065,-0.22851090030094673,-0.06650381319659783,-0.40411796526826316,0.030537212109446727,0.09361313807750324,0.09808391532104171,3.798178167109052,-0.01171437400945041,0.5610527615856021,-0.0037241437791577536,-0.14860777020332824,-3.062971718355168,-0.6204460721334656,2.5
-0.3145763102445239,0.25335123318373715,-1.1094772394344512,0.10019801965269833,0.11588241650865982,-0.002391123334600716,-0.002154089338005925,0.11581483444856894,-0.054710035879363246,-0.05345973849996942,0.03816520639832101,0.010917638061455421,0.9377498398428928,-0.03439915221786813,2.5078125
-0.7499818705696673,0.1259803838429585,0.6988019120720207,1.2046332190174247,0.010013166310780303,0.020443318033358505,-0.021552435589608603,-2.2567104411883103,-0.035860281091291794,0.5729783936025173,-0.04602879281705708,0.004291771146687401,1.151277916870366,-0.6788842202204548,2.515625
-1.4452503054390298,-0.11602496637445966,1.3478072910824717,1.4987491016343502,0.02369606188031874,0.11962123619105804,0.05613839330162974,0.7732617728141553,-0.022800459445546765,0.8680202511646622,-0.05100679565030972,-0.1140299524751179,-1.8651031521761454,-1.0743173716511036,2.5234375
-2.057479496211821,0.009829223467236711,-0.42510005879627416,0.9291398030658506,0.2003316990479749,0.1431402645438725,0.09968359479190207,4.850852295454654,-0.0337881052037979,-0.18721049834033093,0.07698524982531357,-0.12879416986258638,-3.3548918346070957,-0.12181356699794652,2.53125
-0.9625255226624733,0.07222863701563066,-1.265999589848817,-0.010841424433650137,0.18812299571124497,0.09428337676452878,0.08818255604897618,4.412059438766199,-0.051322711394176726,-0.061075389204089385,0.075087703929849,-0.10933058968786358,-2.3287554185369896,-0.13797660516419455,2.5390625
2.599563665419826,-0.24030629913307738,0.0571412217757404,-1.4663842806780247,-0.1371185434566431,0.030806221365467054,0.07480133788061358,-0.47735224739973214,-0.07916605056981613,2.6862952286163755,-0.16841785073378251,-0.17717087609148624,-0.19859639659657294,-2.5040043068267006,2.546875
5.325684839153491,-0.514093905530822,1.4519041538308428,-2.589553830176671,-0.4401348973328033,-0.06748702819000121,0.02045973873906118,-5.121313086412939,-0.04737297746140474,4.021674333858135,-0.33416452685960646,-0.15059648036685006,1.9170595429593806,-3.474181487536501,2.5546875
3.2341822675587726,-0.3725260865735389,1.682781458704407,-1.667149448559134,-0.3952297355233735,-0.17784790416682095,-0.10570636050652671,-5.366481500013333,0.10821031191302735,0.3142977228450281,-0.13739469198699597,0.12202872887140687,2.548694778420519,0.21054523000645328,2.5625
-1.3365612323624054,0.07325784333418532,0.5322098826759142,0.3708042141090199,-0.06096743758813491,-0.19754891501057226,-0.18441640579617688,-1.7907196603240492,0.2167944010390242,-4.413952536252503,0.2020579461047585,0.3682927389747308,1.6535565450612564,4.5670456398212105,2.5703125
-2.4160147879399796,0.549209487070309,-2.2893355150301486,0.4819709009768683,0.27110343385184904,-0.11995433672386474,-0.11435882733555747,1.579826094255839,0.07517513085428376,-4.233463673749512,0.3043839285248261,0.28924969947267143,1.533578949235301,4.0888713892132005,2.578125
-0.1958811596194645,0.7936135090235827,-4.910094224437642,-1.132304580868592,0.4018598221438871,-0.05376650390336527,-0.0005690212490748927,2.7004696271625948,-0.1426644861305065,-1.1484839253201375,0.20422730816729814,0.06957169869996223,2.4330610658773644,0.9817857555669055,2.5859375
-0.08628217008836975,0.5932887978801167,-3.9315503417977626,-1.014164606234461,0.3204970427172848,-0.030336314256657847,0.014649493578361386,2.6928835105624884,-0.11610430825123896,-0.794063906082563,0.15944533913632333,0.03165741809984813,1.5023099188659572,0.6599048137297012,2.59375
-2.4793708132033174,0.03979822959229818,0.45640102677267536,1.3951017634825287,0.1074047784641979,0.031025467054623324,-0.015769518631654385,1.9746849106056525,0.07043797082626656,-1.9218403201245173,0.12516613638599025,0.06912681756487254,-1.5730507130186464,1.7227215668305216,2.6015625
-2.847800445016066,-0.4765590749011735,4.247396645935676,2.9815625328453423,-0.13417445906988315,0.1416559316285996,0.02314771204626772,-0.14107764350413635,0.107329446157228,0.03271806055681687,-0.07447018089087207,-0.06917001866908812,-3.5417812374522013,-0.24944354167353777,2.609375
-1.1591019941426637,-0.6560813430190552,5.174579038279657,2.6790814705612296,-0.27292096063406596,0.19141016247594372,0.07360065317275456,-2.3024115052172704,0.0260071316354429,2.8408653138978663,-0.267425901350638,-0.22363131457776847,-3.13702963801049,-2.969137465550102,2.6171875
-1.1518682955759447,-0.4927116374600074,4.250928918570101,2.2957741523494617,-0.2254351756392866,0.12489739455080515,0.029183883778344806,-2.412110532598716,0.04580599997459237,1.7262321479660074,-0.19111467207414823,-0.12473245225452975,-2.061958999308445,-1.8137883314417274,2.625
-1.6324969796036408,-0.21100403108607765,2.459588173878361,1.763459676362168,-0.09332718728933326,0.03748838762249098,-0.026641061771085533,-1.2207421277790345,0.08070088895911476,-0.45118454482449954,-0.02744476845306693,0.026513042359156164,-1.0712187945240375,0.36703281808807814,2.6328125
1.2469755216002352,-0.04441235799694012,-0.21424614519062143,-0.6291754536325681,-0.038908816771917015,0.02139372779753321,0.04027631491458574,-0.45179566310257535,-0.06594456342570955,1.569564223431477,-0.08838684941534208,-0.09801375917743081,0.26436082926011184,-1.5113608003494523,2.640625
4.909624774832129,0.09824763389109029,-3.176210279062068,-3.49212253440265,0.00588998190356982,0.026350312602569367,0.14104014368104728,0.4364566805904961,-0.25879757270230946,4.598559943659011,-0.1997180665968458,-0.29412283530751127,1.5753301483931925,-4.3709664872635186,2.6484375
3.7261321104915086,0.47586407335170916,-5.133166883066715,-3.4919649165088713,0.21022322381071656,-0.026062910710892735,0.09909404838931264,2.0622508479118022,-0.2519084212594856,2.507028301473206,-0.022658745617176033,-0.16368895702977207,2.397358323753803,-2.3880059738582364,2.65625
-0.3940502750934323,0.7836887000990617,-4.916466190305401,-1.2565611226541875,0.3889043740821139,-0.09885785207804132,-0.03580862390822669,2.8201494661765394,-0.08731039220782959,-2.2493070386636287,0.2593395496161477,0.1486725923312377,2.5071555315164127,2.1318702394724878,2.6640625
-0.6314264137698651,0.3389160503909897,-2.1877508004183555,-0.7345617284945042,0.1520378066916142,-0.13148083449439046,-0.08572889936992714,1.4352079668381368,0.06730021297675955,-3.1545469245100697,0.22365220120259816,0.22095003342465222,1.2977866359183978,3.189554997760902,2.671875
2.6970553269389685,-0.5542552216321397,1.2481644654055264,-2.2372017661620633,-0.3418363936899904,-0.14751892999417168,-0.05797079048537114,-0.9435023839549429,0.17188494368303336,-0.9523162684794365,-0.0352068963122524,0.09788558210780801,-0.40266852799553304,1.4552271551276028,2.6796875
2.300307962427874,-0.6224784052603851,2.3620012870848504,-1.5096715263348368,-0.40390115256516357,-0.1414237287508169,-0.07834816685173991,-2.408205987620656,0.19386411828321767,-0.8196690619968556,-0.07335854354264446,0.11236033252452991,-0.22405168763521668,1.3109918258859727,2.6875
-3.3626511379023682,0.2890691397367291,0.9954514069610957,2.599959421410702,0.1042934762480063,-0.03578629340555138,-0.11545267876515758,-1.8503215831980333,0.0866099660417275,-2.6540220263193954,0.1378646123147962,0.21851128707164658,1.1671882804869809,2.4203279308775527,2.6953125
-6.515976195334411,0.6752151305131803,0.25263953600398686,4.85803773529892,0.4207987262652562,0.11797274242073066,-0.051292502000576445,0.6084884041383449,-0.021956219358505114,-2.519502390011972,0.21238797853690877,0.130246602454087,0.0400390560148592,1.7944372845748375,2.703125
-2.1662342759479243,-0.19239572673207816,1.3643115274986273,1.5594539024582776,0.05624495909834044,0.1313850908454757,0.0654699577202681,2.801725201606481,0.026701608553076735,-0.14121562190767845,0.017018870952343255,-0.09812592955809747,-3.323846547456559,-0.1009178696165669,2.7109375
3.8022190436334307,-0.996731289491096,2.1083204992151874,-2.833157029475352,-0.4231329730138703,0.005415641235308943,0.09468655669066049,1.949463996133373,0.11052726563722752,1.7350023663107448,-0.18539566776608815,-0.18984704021053103,-3.940653306743947,-1.2378072632532144,2.71875
3.7546888617665104,-0.6165218486665061,1.5542855502102344,-2.142669892857065,-0.3598914421934888,-0.023260627354172583,0.046531774880511335,-1.5881504923933152,0.02053842648420711,2.503077550570335,-0.2238858750175035,-0.14378299019366214,-0.7021092493453676,-2.0783060446435684,2.7265625
-0.47669287110860237,0.12009758764329952,1.5080445091057952,1.9600331868654381,-0.017333217765297348,0.10753704223969084,0.027964836643538406,-4.102775733411502,-0.13925436566414134,3.035895569685145,-0.19655392401848265,-0.1397293827446684,1.548445070127747,-3.2343748766422604,2.734375
-2.309607414522478,0.1530218113242638,1.9787699948529984,3.2143848370266332,0.07083176387468869,0.1666588209232989,0.039343521656587645,-2.800600188387321,-0.12199289713171574,2.355925717123454,-0.14312085548293038,-0.1410398729304357,0.2848023179383802,-2.7472380562893886,2.7421875
-1.3845086657600292,-0.03274170033264,0.5334709828720279,0.8944131367116884,0.04869410445254507,0.04329686662992357,0.010390895611548923,1.2632976169881194,0.028762659617455024,-0.6462194147148109,0.043312940573730745,-0.002418729322348095,-1.318204682237211,0.5183276201907249,2.75
-1.6295642054904798,0.383054051385617,-2.7088432350071683,-0.44451544387547615,0.26609344531805457,-0.0790423503565804,-0.04708534169705758,3.9936253448666323,0.05899825881663591,-3.615300470788595,0.2878203042790845,0.1854775872799655,-0.16001811174427438,3.5105536114277687,2.7578125
-2.2283091582492407,0.9777212526027311,-4.481320979621662,0.3638005897830964,0.47911998614742757,-0.0708830732209861,-0.06430958596357901,1.9310193355248746,-0.09416200203339987,-2.770787321655291,0.2949383380746511,0.19647089982689334,3.0153829754569252,2.452524392983402,2.765625
0.34048226383659874,0.8841552446244006,-3.427994412317924,0.08892858601290059,0.2929561882150831,-0.029262699468628327,-0.023486466682088203,-2.959283429539801,-0.24122081315494795,1.4561579716772164,0.004848717710875191,0.013646076224715536,5.246884275075573,-1.6480135545098498,2.7734375
3.8998279448960127,0.1920408945634898,-1.5109669807552844,-1.9080427770501167,-0.0811196174823524,-0.034247354952081296,0.032526427330823574,-4.149729119395243,-0.20524976210488657,3.940112443500596,-0.2231368717604055,-0.14379454833072108,3.908532932222014,-3.7193379906553767,2.78125
3.3520208854688454,-0.3452666195875644,-0.3341607252140278,-2.6054220337582494,-0.19709147223383583,-0.05305680225944197,0.039109293420214776,0.27731873669537416,0.0025039804061923214,1.33115460574094,-0.10210257759632978,-0.08592473376115362,-0.31187291208124496,-0.9682507198902655,2.7890625
-0.20373126982391904,-0.3982822251384069,0.3703546656844277,-1.1693406032507299,-0.09361664624510159,-0.08234835660774913,-0.03140640843551256,3.875165431862282,0.21224776803986728,-3.2563470603028333,0.16512795530174684,0.13257764119912008,-2.9802142419984783,3.4605154951860393,2.796875
-1.4870092385783842,-0.3026577173427202,1.1286546005127296,0.001908799084429872,-0.08766804188896192,-0.10773472683360585,-0.09296919592795823,2.272731732892531,0.25718786986427444,-4.277596877440216,0.20308295135972534,0.23735951457398752,-2.157258654043976,4.412003451601856,2.8046875
0.15995185773275009,-0.5137203133038627,2.333608802401722,-0.08638604626132543,-0.23347502707247997,-0.029625595175346773,-0.025079880572943112,0.022904891042232083,0.15804442766369003,-0.9498236684193898,-0.021431893087619888,0.04233603366057757,-2.0007317404098246,1.1418020996908156,2.8125
1.4774620106361833,-0.9967927518324113,4.049324369829333,-0.2795254733451187,-0.38874614930452284,0.12277501519462426,0.1118404168342071,0.8758374410282397,0.08915215083561949,2.4327872906800883,-0.24108584609823355,-0.25083529324221765,-4.7815962853715535,-2.2221696128491835,2.8203125
1.8463741366489996,-1.1190261196860274,4.3916995074820075,-0.5228383832312737,-0.439638832571837,0.12761179156086822,0.12341711370118805,1.0608788379761613,0.10282326104048661,2.659265442639599,-0.2655131146123016,-0.2750326405972702,-5.291132447032413,-2.398431109304154,2.828125
2.0708235933087873,-0.34557093414106427,0.8923154601193568,-1.2621643787035446,-0.2129956495376655,-0.03775011241253044,0.0069310129058994035,-1.049778988918972,0.03514292726513952,0.9445919146566235,-0.10494551330831921,-0.04250157042174338,-0.21586347472030076,-0.6754807027009606,2.8359375
0.2728021661171839,0.9209750964685849,-4.545898666412408,-0.7347064888606487,0.3541820145341596,-0.07854062412537444,-0.03730341286896908,-0.7084369577173055,-0.18930315885593757,-0.16663599224466957,0.12368542367355466,0.08782126347067774,4.680039462570335,0.02512457026830387,2.84375
-3.9982311195711238,1.5413657861953811,-5.7185279697397515,2.374731845948236,0.7840437076433524,0.09055236144061454,0.01357302877518517,1.5353978429745359,-0.3301182101920418,-0.3579268596385223,0.24089589672827008,0.02873796883728135,4.227021073063303,-0.42856212082224454,2.8515625
-5.82216977561033,0.9056296001155345,-0.43915661575983395,4.930854238780104,0.4690027091116848,0.14236716507845473,-0.03234351855103579,-1.3372145480185016,-0.14658254813255434,-0.6836411575262787,0.12504160778026321,0.057433446788852906,1.929497052950072,-0.09824066690898527,2.859375
-2.154847628834147,-0.21391721376584935,4.711396369748008,3.190563511096924,-0.2702977986700004,-0.055306869828952734,-0.1596224620417089,-7.019912432195973,0.16493395098535865,-1.1025879589837784,-0.08084696734053153,0.2056672969190907,1.6756609138803393,1.1070160374603168,2.8671875
1.6807750239221357,-0.45761888179821486,2.6441007784230846,-0.6242093677130226,-0.380239806967724,-0.14774598201183858,-0.11370545328167832,-4.42897773552611,0.1718468619070917,-0.7268294544826965,-0.08662684131062824,0.15385877460942865,1.1677257543198367,1.1446900533328341,2.875
0.14353567699698097,0.3832368095446229,-3.719533435656228,-1.2625145146650456,0.32004805332214503,0.06297267502087817,0.10493801194998655,5.133128744137876,-0.1477210760841213,0.34702624083215927,0.1098220130802487,-0.12374169458983347,-0.8244059037234029,-0.5287665976068054,2.8828125
-2.7748456360675613,0.9253488506578166,-5.1370010852984,0.9532600071123599,0.690586515946859,0.22514337096366802,0.1785517445837683,7.08814463181228,-0.31896416728436094,1.1419718604181168,0.16577227867872094,-0.23843860041045623,-1.0432944724798952,-1.8572149749209226,2.890625
-0.34346789315774556,0.08911579044756233,0.3254089210146189,0.8090330711785787,0.029070910360344045,0.05379713162163507,0.021315818212589103,-1.14737650986896,-0.06995841037136853,1.2226860018307208,-0.06652187897889221,-0.0686751923698292,0.48210135066751786,-1.3376508460418093,2.8984375
4.879171023092224,-1.1699716810336562,4.587916460595242,-2.6541267146938625,-0.75813830111627,-0.1865504534574855,-0.08581969306106782,-5.164148510530534,0.26333220706632604,0.6411885509295808,-0.2554437249688383,0.066163818352613,-0.3805810384481593,0.21586123496841206,2.90625
5.2780429912464655,-1.2144642978381204,2.3707830977761546,-4.484844093069785,-0.6281481767501838,-0.18798674444628907,-0.02206363568737734,0.6862768826832526,0.2886496776157265,-0.7389979230992973,-0.10619028544697101,0.03855827278412566,-2.912520409511889,1.6332198803828566,2.9140625
1.1226796824905751,-0.24503125592665903,-1.2848149225880916,-2.3287734049402498,-0.030376649214521188,-0.08725053838298896,0.004120612126888894,4.38973748666725,0.1225384492637094,-2.24291462806533,0.1455738427127826,0.06968758812828962,-2.1226343603575137,2.489432071549422,2.921875
-0.6496740520377052,0.20287831387296304,-0.6314788286570566,0.09210551090471607,0.05250298738742749,-0.0887732980398183,-0.07836155507110654,-0.6037169597498262,0.05337142626519809,-1.8909762904167995,0.11201531427124795,0.16237157512956368,1.3597888257663462,1.9096425629184057,2.9296875
1.2670839978720387,-0.10662875573096854,1.35940557892249,-0.03943395732141765,-0.19912638451166872,-0.06936332545335565,-0.06224016499698177,-4.438830382392579,0.018523932224329145,0.8418631488954286,-0.11852557511024298,0.04840296288384892,2.1467962466412773,-0.6477267044603833,2.9375
1.322528807714163,-0.0039974760040164415,-0.3402400599291682,-0.3762037038066579,0.004267252396772028,0.09159915952787821,0.09362193196699585,-0.27317567245070445,-0.14729569232357845,3.0135328494993296,-0.15238760380220134,-0.2104764797906343,0.03079259594466188,-3.0525547381147478,2.9453125
-2.201373763186785,0.7040426258390017,-3.426443254370921,1.2137729039199643,0.5130826716441736,0.20588117226859493,0.14948487222803328,4.486496203195825,-0.2774919321509755,1.7411559242403885,0.06912200121770047,-0.22924388439288618,-0.6131575560066794,-2.334183049522011,2.953125
-4.420804994256148,0.8726925395186763,-2.8770543943848894,2.5762857824391645,0.5584361661912498,0.12290305033160084,0.032146549936699395,3.4278188350862595,-0.15422318347408256,-1.2743239426970874,0.22262578467465508,0.008663279762673441,0.29563305127738915,0.6103981695319738,2.9609375
-2.5188057083166675,0.1232158905082493,0.4921915934863157,1.6176284581111664,0.10609521034880952,0.01174674241077908,-0.04050442380979095,0.7435801096639211,0.06249507283662222,-1.906780815835212,0.11755307508217859,0.1012817482269431,-0.6189754877488948,1.7089329044532078,2.96875
0.46803237030888195,-0.5834534068286764,2.6577879716950292,0.010299940537169022,-0.25102794773062687,0.024469451794261195,0.01844065342698254,-0.005293737355491483,0.11125995405005826,0.3148748751019996,-0.09393212214701378,-0.05488357268570163,-2.4632223873936394,-0.15468311557889025,2.9765625
1.6386846853374388,-0.629491572877167,2.907235511875104,-0.34378557650911656,-0.32864286445045465,0.026615325159189695,0.03039368135503541,-1.6964170651500874,0.06403259893425088,1.7542723325631242,-0.19431516992211884,-0.11327217805654796,-1.6012432555517035,-1.5148042886369375,2.984375
1.4715411543043933,-0.3865590208504663,2.500036714716512,-0.2358642076655583,-0.32553821731825006,-0.09001600858847701,-0.07550809893674772,-4.281732552930502,0.10614286341104484,0.27494532628607593,-0.12538991536571722,0.07437601350075841,1.0568560797204907,0.036761297666194286,2.9921875
0.3342018172795566,-0.10638775931945381,1.1462346455398496,-0.18547181541209343,-0.18295653124356348,-0.15948356169639774,-0.13509073682675754,-3.1761730483194195,0.15134839646607687,-2.0699615906431603,0.04360287524469566,0.2312945558905577,1.7843301312805078,2.3247481200547337,3.0
-2.154192941185055,0.36785886610750296,-1.0672893351988284,0.9273264893241215,0.1892762736960846,-0.05219604383212088,-0.07178291201342853,0.7816832391022918,0.04346268429624774,-2.6353460936864,0.1885350539421931,0.1766841334384029,0.835459524385195,2.471130421090323,3.0078125
-3.8053343319730604,0.7632089439250693,-2.2215006595281306,2.328945414718744,0.4492537509219478,0.07525880803700098,-0.003199787770666753,1.9201491888658406,-0.11180404327411411,-1.397662027271472,0.19327578422157282,0.05542350816134688,0.8943118388527798,0.8606846432248676,3.015625
-1.6275042238465878,0.5306536288203858,-1.6125439459530777,1.267335583236218,0.27299021984148475,0.06320235568061341,0.01843409087400822,0.16376021413015712,-0.13766471474723663,0.42474922169218116,0.04970624299441024,-0.028508983942512965,1.367660310142916,-0.7522338149470782,3.0234375
2.676524144498475,-0.12049534392572862,-0.7628574274495078,-1.7977806176853293,-0.08699553458294373,0.0015729671663276775,0.06134546024861737,-0.16780187298823673,-0.0849781016491565,2.2047294014197707,-0.12318042992694635,-0.13873319158515804,0.3526829239484553,-2.0158886074700617,3.03125
4.201780485771762,-0.3670785149833451,-0.5734300934715492,-2.9025646345588516,-0.1925196670907761,0.011501693847797175,0.10534637825021607,0.4299521170593705,-0.08928403699550809,3.248901736648627,-0.19694236647534222,-0.22758136796486553,-0.5373178457445751,-2.91284853165875,3.0390625
2.046094840280095,-0.007493939401553742,-0.5836358977988206,-1.008327601109592,-0.04205074317514823,0.033195964803973924,0.06286672673740988,-0.9833458291401196,-0.12343339147284092,2.652315948532219,-0.14368742429637005,-0.15613648484539785,0.8248488454835055,-2.5712466875859485,3.046875
-0.08968110371263126,0.30203881014650796,-0.6751133115982298,0.4614280719843578,0.07832691182346467,-0.005843397931089894,-0.018570133497241296,-1.982803443999992,-0.08407282126136668,0.7021548932364423,-0.023286225742704506,0.007667888943507266,2.1131477611602594,-0.7839346160617939,3.0546875
-0.31680715432710177,0.09297224128439613,-0.7413193356671677,-0.27919419028264997,0.05440132019622222,-0.04493927627649702,-0.027232938868810022,0.9184377941795515,0.033841879609080666,-1.2849884404248713,0.08973708615322867,0.07762237717567935,0.13078904277272468,1.2970305899055434,3.0625
-0.250039711896773,-0.36031068636812663,0.14633812674688454,-1.0295005376319608,-0.049850243903356996,-0.0355761766035279,0.005503143902694403,4.349323138749843,0.1607908561249479,-2.464019432188648,0.13751570106567051,0.06177111399156117,-3.2674294938906847,2.593855856104463,3.0703125
-0.46367511205972717,-0.5779412783198026,1.8018792174927696,-0.4490144293731822,-0.17362236699584752,-0.03171252819862048,-0.012844235662948147,3.099302716209391,0.21855419496438508,-2.4345675577612402,0.08781459959967251,0.07264889454203134,-3.7473771099714934,2.6086538732837075,3.078125
0.45973876767548694,-0.43841131355198076,2.1346057591121865,-0.2218955272348667,-0.24409592860388307,-0.06536457661472962,-0.05223625936214301,-1.0765607052842523,0.15444639302844373,-1.0246925684725359,-0.022771537702219992,0.0827186397829538,-0.9451871358505173,1.2592334308668138,3.0859375
2.0330588290962495,-0.14940486013019066,0.4180222041391869,-1.1701675492666217,-0.18572039715057864,-0.09210921139299294,-0.04354392098190061,-2.628151311371501,0.028887080900942264,0.4772307962460166,-0.0779952402269056,0.04213268518260155,1.544662345980132,-0.1956352233308561,3.09375
1.7762741112087275,0.026854571277304812,-1.020360045990312,-1.5036919142474716,-0.049238381977117336,-0.07780494301603141,-0.017199122251239044,-0.63702539296241,-0.011919027739909558,0.16915151981019344,-0.010208622014748451,0.026437977300248935,1.3025029887727582,0.02892070665793297,3.1015625
-0.6309728749111306,0.033373569033935985,-0.33187938260682515,0.027535637602908388,0.04943574727130909,-0.016682573325775628,-0.01287994441891309,1.2394620220482926,0.037340064293350385,-1.1343735852519061,0.07804344775365153,0.05050956052357809,-0.49479971561898733,1.1091161765431095,3.109375
-2.9952262921173425,0.10952709173301296,0.9979719411421657,2.4076071076804024,0.13618141250395815,0.10236080203249505,0.01258536001322547,0.8591989815103481,-0.0012383078514723413,-0.5534930033806431,0.0486022524862097,-0.013559601388552923,-1.3226516927742873,0.21420610504701837,3.1171875
-4.008817936421983,0.4048313914455143,0.9238084645114585,4.084199649776021,0.28657283307070547,0.24171934198022874,0.07982928484311917,-0.37698996881149743,-0.17947706842038658,2.010854825736095,-0.059960095486552414,-0.17919726791245952,-0.5560104908578979,-2.6711913118453254,3.125
-3.782139742089893,0.5902263611269268,0.14745860027017196,4.194643145241241,0.3713091768991771,0.2899553550173231,0.1192754082127438,-0.6937046776990904,-0.287238598209551,3.4305912713939763,-0.11006753454080914,-0.26736988628349906,0.18733245327808765,-4.190654424243026,3.1328125
-2.2326720633859147,0.31792761419789123,0.29102789576298393,2.562024741029883,0.20783024764655172,0.1817818971174006,0.07713474218474828,-0.4717102516705125,-0.17290466795898038,2.2348706998370194,-0.08058871984753216,-0.17520258876939887,-0.05135532817907323,-2.688026437999055,3.140625
0.25326279886840725,-0.1287895398175696,0.848698967492317,0.06447154497246611,-0.0903985055758339,-0.015521587355587695,-0.016001475262459836,-1.0252517278369517,0.03161262569401585,0.08963488011459007,-0.036391586695997444,0.011080197135112687,0.03159351011074842,-0.018672464474804442,3.1484375
2.1656722938390702,-0.21998544241509574,0.22736004119727954,-1.891245275630961,-0.23297162866900634,-0.18822550955364784,-0.10355185416794944,-2.0668851311890926,0.13811037921661207,-1.547801257498228,0.022362850406769965,0.183249919139904,1.5341578477903666,1.9768268193684517,3.15625
2.874642750894437,0.03464249389620602,-1.6740177171861463,-3.012129345640228,-0.1568502904096699,-0.28296384767700217,-0.14738477203143233,-1.9526319777395642,0.13212996145152792,-2.611203227726288,0.11349440440297885,0.28825444279836243,3.2590309438196456,3.1311321943951014,3.1640625
3.13607268838539,0.2532760028303923,-3.5501767776333732,-3.7793853503508665,-0.021949872880127837,-0.2915190001570423,-0.12663033433986948,-0.2268069262683138,0.07908860420059845,-2.8248608346252535,0.17959383565968373,0.2812278148232,3.5789550545479396,3.3106878207254526,3.171875
2.8842561324435003,0.26825032660035397,-4.066134532798241,-3.7128133839818904,0.06997971102623829,-0.20495921208580659,-0.05146289937604889,1.882229962382994,0.012085689433831402,-1.8932241650014558,0.16512956197719728,0.1570162320547653,2.2386106595927036,2.2501847652104985,3.1796875
1.5692088472695793,0.046051875323096174,-2.359235353847506,-2.203166680538661,0.0703488657284598,-0.04713936394148057,0.03594024726516686,3.130419448072205,-0.019807099814153156,-0.43139634927319964,0.07708428513378518,-0.01715787968602116,-0.4224050769295681,0.5706641388580792,3.1875
0.3907572765678728,-0.41690282533138057,0.9902774491614522,-0.39995056964372794,-0.0843281302505042,0.08853141421302403,0.09140657337192014,2.7926751081349614,0.021112897812449776,0.9046247632197161,-0.06017279784606276,-0.15712172981844272,-3.2819765004204786,-0.8792258781418777,3.1953125
0.6655010489443132,-0.7782397478515677,3.5217555315292746,0.2790698014999581,-0.29399447382650695,0.11844933616941443,0.09083740521028257,0.5728741649696381,0.06707611436258071,1.9807661237130096,-0.19494984139917226,-0.20655201685910599,-3.946668856989351,-1.8746045688447608,3.203125
0.8509372585604079,-0.6302458905366244,3.670938470850398,0.6844741769554349,-0.31071240490508706,0.09409134437125137,0.05491349426073401,-2.129338728896626,0.029958050635274677,2.5591334394386824,-0.24293580294919137,-0.17639477769575213,-2.0019208795664762,-2.4497106348168463,3.2109375
-1.0912501135092028,-0.1822977340342458,2.787714665391027,2.282206339831693,-0.08475999589221195,0.14975284086989318,0.053389336739991605,-2.4450093473774905,-0.06455269215644648,2.5940186926249558,-0.1928295047988174,-0.17131944913871264,-0.8360490000080445,-2.7953638311188267,3.21875
-3.6538077682652723,0.09382301240506948,2.135392012083558,3.9622165529794513,0.1707861185136376,0.27212537466306,0.10865831900422976,0.13860452116888797,-0.13737091517641398,2.449403643561933,-0.11605508578288612,-0.23937374812639772,-2.1434757901461445,-3.0383069224927044,3.2265625
-3.760736100797849,0.26252979149093,0.5614288187614929,3.3539162460111887,0.2926792766054152,0.2543417449601287,0.1160776029490934,2.1437054327705973,-0.15142730164806714,1.6170837924926682,-0.02234791850059292,-0.21313282178261853,-2.2131241852887613,-2.2398804936249133,3.234375
-1.6331195062740513,0.5352124016369589,-2.0254215669288644,0.8042667839719312,0.2756405752005268,0.00803876516203501,-0.013876705118042766,0.8254858611134004,-0.0819591048317096,-0.8530911846835533,0.1239899255100983,0.05515774140399227,1.3860805462750339,0.5934934096352846,3.2421875
-0.6110532768083188,0.6466462501254784,-2.7590118836191757,-0.509575471934672,0.1763012880528233,-0.22124113462867215,-0.17193211636681802,-1.6415306922072765,0.05542266171818907,-3.743572891343715,0.25019848808603024,0.3578006475297538,4.3632339564244615,3.8075844018895824,3.25
-2.234521654717978,0.4216015948954187,-0.7413815076035548,0.9194125896568816,0.11496296364067873,-0.17637769137492526,-0.18147696814659914,-1.4969657976379374,0.14158494451299153,-4.4686727302879055,0.254412403589079,0.37436728628162375,2.6284157255773115,4.443976311610258,3.2578125
