AF3,AF4,F3,F4,F7,F8,FC5,FC6,O1,O2,P7,P8,T7,T8,time
-3.7729005878924053,1.8415287329647543,-7.1120273248632895,2.722128883572584,0.9673209480339303,0.23063427196400604,0.12685734009876531,1.9956042901236006,-0.5540415705402804,2.7777017561663717,0.1317435614479564,-0.20352410347076325,4.668324882811106,-3.8153391728800123,0.0
-0.747052815222588,0.775747913414971,-5.288186982283331,-0.5436332918735234,0.5544706099252111,0.15456340504197164,0.16459440556400046,6.099765732585504,-0.3001699015358132,1.550281690590225,0.11502752790708957,-0.22791767657674952,-0.292930665967786,-2.012746378713259,0.0078125
3.31910041981134,-0.8338503672784653,0.43851625392573235,-3.42572783440073,-0.2799401773022358,-0.018997788922896802,0.09640214446156292,4.774186215990336,0.12443450588696434,0.2235388755444793,-0.047382589915982175,-0.13591923908168857,-4.465253029111443,0.22930275296490824,0.015625
3.063221621860523,-1.2959838150719218,4.6669653686353625,-2.090723326253394,-0.6487540553638519,-0.10649173655094936,-0.03175915703215808,-0.681038218669389,0.31785324767796364,-0.6619003900111023,-0.14588477443434467,0.029018764054651293,-3.7602469461826287,1.3431211183259582,0.0234375
-0.5197439519509963,-0.49738841975835635,3.441627197639947,0.923004523027615,-0.2827841733526878,-0.04324600319325442,-0.07210490419672616,-2.247382651049449,0.18430530237932918,-1.1304323277269692,-0.04477951573435408,0.10124757274093328,-1.1079138482547306,1.2956153574297158,0.03125
-2.576752474953353,0.33441695249609893,-0.3319984337666643,1.737689011588514,0.1902578721580698,0.020805472698314034,-0.035368788323123686,0.35133496494074345,-0.0026713064634637097,-1.4508825121896025,0.11748827727096094,0.08732167314265538,0.38188870465741953,1.179098107464967,0.0390625
-2.0112247662013667,0.4386375240105294,-1.3138103467411506,1.0658074210059452,0.22621714424602307,-0.010624919808949302,-0.03971110424416713,0.6051421965792638,-0.022706890440667184,-1.5706085209982308,0.14251419290735812,0.10470679072524879,1.0430558366030804,1.3438328199484704,0.046875
-1.1222662508147592,0.08229661354771563,0.9026133243905241,1.095614535806756,-0.023474432228762804,-0.04899249865853795,-0.0789354990992844,-2.1736327967670155,0.059538614981111265,-1.1778443764422744,0.035897625256300775,0.13000213574183236,1.163400088188104,1.1533018784302171,0.0546875
-0.2677421127843053,-0.3445835571564306,3.0131243704296167,1.0231433676701478,-0.24710383515923556,-0.03740940284502142,-0.07029792063883451,-3.3902737939698353,0.12131707827148992,-0.3320577339442991,-0.08018266848625206,0.07892831954523556,0.06733920068992856,0.4623308827410513,0.0625
1.3668477233314114,-0.7724659586309548,3.8789015153976054,-0.23902946549381235,-0.4293514128255138,-0.04025669507591223,-0.033125496842079584,-2.4964067044940776,0.1749242921682086,0.2837528276849588,-0.15235093832953034,0.006926028717355429,-1.6150848624510972,0.0658704889896226,0.0703125
2.2338449908363405,-0.9626691123718971,4.11574200491697,-1.0536387335633763,-0.5207506389793757,-0.07036519454056614,-0.033386411927262535,-2.09083098784157,0.22094664227998156,0.10029538800010329,-0.16111852884668892,0.012029690445803303,-2.1813392219740226,0.3925168136535915,0.078125
0.8391006403568483,-0.47715792927534967,2.4349619999107497,-0.2236821687357281,-0.28162532230261994,-0.05465058583549492,-0.04364614443518634,-1.8198567026125192,0.13492951810703546,-0.3296808494257683,-0.07284531345806394,0.04914757912450094,-0.738449743356758,0.5836877590612439,0.0859375
-1.0032970397633576,0.49767020475714974,-1.8228925317910445,0.6345207428997003,0.2310371128592449,0.014075332707578457,-0.004020621616862992,-0.057263251947434445,-0.10834224849694558,-0.0031417260193230072,0.06477205827425907,0.016332373995602355,1.7534942160128137,-0.21488864097772636,0.09375
-1.186211277826213,0.9878390544823744,-4.819836842100945,0.26721834588187693,0.5188424531020182,0.06278536009593672,0.05579237269145293,2.130627727840699,-0.26941481432338904,0.6937588383060133,0.12800960173477133,-0.061587523256543326,2.6146630437513734,-1.1246111079429182,0.1015625
-0.3395880997458026,0.48207540984594116,-3.080844658730983,-0.3775187458573719,0.3032488633520532,0.05322845354818743,0.06592416033831579,2.7775177239698263,-0.15639051114259406,0.5140038285628011,0.07972269777787522,-0.08184445411337307,0.5012145344401259,-0.7408509007076289,0.109375
0.6522119319426928,-0.2113769869772727,0.056300178205597934,-0.8205373257362764,-0.05531710504651742,0.0003434035162271551,0.028801403236310745,1.664834599174993,0.03472001585600038,-0.10126570894617798,0.002261592380701579,-0.036607284483850866,-1.409587313360687,0.19716609094251766,0.1171875
2.000368863327783,-0.06212394599108873,-0.8234516541230872,-1.6406613760508701,-0.07250110099851102,-0.056918009287814784,0.005396870660760431,-0.18741178821596602,-0.015474093081533987,0.5514213949825859,-0.03439915405871638,-0.01605318946967871,0.696893702865577,-0.3427605745800229,0.125
2.342366147768152,0.7038452531791619,-4.299496250274283,-1.8309223234257987,0.22964394825642195,-0.05066836479969369,0.021417693202320155,-1.2791485169443972,-0.24755091838997512,2.039188871158835,-0.02018764919280341,-0.05434080248716719,4.480397937223225,-2.0332430780084323,0.1328125
-0.20711245697019598,0.9880314337817716,-4.390148810377162,0.1649472996024949,0.43202739386597183,0.042949545334506456,0.03970646701809433,-0.49724296394367684,-0.3040458873367997,1.8490928577280084,0.033774539108639964,-0.075874793123395,4.118461790502829,-2.194244665687554,0.140625
-3.475634896087192,0.37410536460470395,-0.13461055286193524,2.659572128771757,0.2740433027282304,0.12353751306946285,0.024851950125670787,1.2632670529433077,-0.07091219981872487,-0.3776520054773144,0.08055324721849674,-0.027240834043343,-0.6218902112416922,-0.09156812335592852,0.1484375
-3.21034699648744,-0.4482165865309614,3.4000100898604075,2.3979885124256812,-0.08268211005398608,0.08480459421686831,-0.00538226238903093,1.8617375336613777,0.18004596175634338,-1.9244491836313269,0.05573476278410022,0.03212154504337281,-4.0922316027402825,1.752436340285012,0.15625
0.09265108697227448,-0.7489001391407715,3.2113280771258315,-0.1114232702192016,-0.30543480776276144,-0.012411051986927794,-0.01004308859993839,0.9476651367087532,0.21217576298942117,-1.1607545358343205,-0.02946398922936607,0.021750110003518047,-3.4983076579641135,1.3937856174630296,0.1640625
1.721533704089878,-0.5887214660829667,1.7878609606324358,-1.1988272077765874,-0.27357179815690014,-0.02051299986438576,0.019404222345423997,0.31053885540728593,0.10530192435524055,0.3689208800902734,-0.09012464717187672,-0.049525158058850285,-2.015894166374935,-0.07474044576276505,0.171875
0.032132084116630974,-0.39084801923118134,1.7035812038449158,0.23355178919163716,-0.12322274698839877,0.06927793462347746,0.05227305021278781,0.9504517502606721,0.038908904414042184,0.7675606431641866,-0.07760941993359756,-0.10673091953094299,-2.4059913517782676,-0.7451898688816654,0.1796875
-1.6836212546758775,-0.17891200197754423,1.4166818452608467,1.3998191816382852,0.01908762456405493,0.10861556284951197,0.0500376906542881,1.6468485914307214,0.019079667902274312,0.14374205269270007,-0.01110065313486961,-0.08556825034622591,-2.5163424756288237,-0.3332096036338302,0.1875
-0.5086536132338434,0.20090586093725585,-0.9609036060911194,0.09355511075140534,0.10751952630536785,-0.007302936792076384,-0.006231107434926687,0.6276148730738874,-0.025157217805000055,-0.5081316699728972,0.06094979434348944,0.02823070786500158,0.463210194369684,0.4307081050447258,0.1953125
2.6152973484753526,0.39029519771041987,-3.0189214806799702,-2.496542008460253,0.024186066727675256,-0.19959304633086128,-0.08934119209396489,-2.028323437781224,-0.03388226253179245,-0.7912539930803923,0.06898173910453598,0.16723210195478308,4.299674588914091,1.0923678773661203,0.203125
4.318517074966606,-0.02966389084245114,-1.373820667688855,-3.494453131137459,-0.2534096523067626,-0.2832465415293129,-0.13377122555408746,-3.9237612688488044,0.07958253050109404,-0.9304921872781237,-0.005062995215233672,0.22045244959462207,4.253419605117687,1.5572464223932565,0.2109375
2.1574307698259103,-0.5871179566148934,2.562873188698488,-1.3364694407928857,-0.4238954957218481,-0.17633334657121966,-0.11517489054912204,-3.4161610730248793,0.21936973899702802,-1.3111863811284679,-0.059118687242196793,0.1741223201091185,0.4812452721789833,1.829580048224652,0.21875
-2.276349281274284,-0.5083451436581395,4.591713389582409,2.4258673584647332,-0.25880042906894196,-0.003594858214717337,-0.08745199776194071,-2.410498423220211,0.22183120015884242,-1.7675552144423183,-0.020630811000661158,0.1292984648104902,-1.8190898550818013,1.780970430561037,0.2265625
-4.245695421971067,-0.009945716820064364,3.5980585331020634,4.161825751248511,-0.012592507207661797,0.06648449793825892,-0.0807286029579416,-2.9508484651574367,0.09966131526057839,-1.3563013261719084,0.014301750801292463,0.1132783568151327,-0.4224519476728983,1.0239157328701392,0.234375
-1.9479939725039086,0.20752635035913097,1.0799829245841888,2.2386513891066966,0.0656039889698822,0.053272853169178375,-0.026674580994875907,-2.4039105304862183,-0.0400432965896859,0.35408702145411525,-0.028811819783615678,0.013084449620812491,1.0330330903210665,-0.5959265198368666,0.2421875
0.7451500571182191,0.2700766413962909,-2.310823694402494,-0.6967775157922769,0.1994801050059443,0.09948819355453677,0.11506938958611244,2.2721631532649895,-0.19203210062543363,2.2567289305744347,-0.04159304515495854,-0.2028899045777195,-0.09252204381624575,-2.4181114556043397,0.25
0.7392450090451596,0.5093683656144516,-4.950668573133652,-1.4838061711740507,0.4526645904064779,0.19463411327257343,0.22950314329059163,6.810289202439718,-0.3263068079993374,3.108523904222171,0.014371803612026657,-0.36085758387985095,-1.474054702083872,-3.459870080549294,0.2578125
0.5352945267576685,0.41479783473111276,-3.664873109964887,-0.8612852061838967,0.35614654335391027,0.17818074994962046,0.19221771954198622,4.809553868977073,-0.2860746091249623,3.0777147633529958,-0.026407653678366016,-0.32010980505036074,-1.0122660752997985,-3.3918969678234476,0.265625
2.186174707570754,-0.16740333027974752,-0.040277276047986664,-1.1391961634475343,-0.09906187715222496,0.039783133351807484,0.07222562949385429,-0.5240596763480886,-0.09049784911381818,2.608053303442475,-0.15589743486765342,-0.17118886519372195,-0.03768140123611337,-2.4825756551224094,0.2734375
2.246272121500203,-0.1165338455778121,-0.4894695760948063,-1.57799929238362,-0.10277009601730522,-0.03564133628933614,0.021181835583067066,-0.5887034089483594,-0.033927314407172615,1.233310839034322,-0.08093689888413907,-0.05925075984779305,0.6054436161732377,-1.0228921522232044,0.28125
-1.474614539460998,0.9259331383731821,-5.102096920522748,-0.1846015181212762,0.523125656045153,0.01604109123467349,0.030859319152158667,3.7616583407738275,-0.18719643803234118,-0.9892175598835574,0.2269951886940742,0.022811817055492387,1.8117224336708488,0.6195397796968177,0.2890625
-4.2734679663817206,1.3118577324337304,-5.525214826766345,1.7004134106119513,0.7332423498390319,0.032538110406241494,-0.014313092802166099,3.9670830010800486,-0.18838419659484293,-2.648573029876681,0.3591448529671917,0.13122622194840783,2.432479337725219,1.985176035579387,0.296875
-2.0612335131799364,0.036745865893195104,1.0156529415452558,1.2644673246792328,-0.002819814739554975,-0.074539555560956,-0.10591118646318677,-0.7388128192111596,0.14312005050352777,-2.9094781742442444,0.13525011503393086,0.21469293890371535,0.2099105133482642,2.8741256687431114,0.3046875
1.372388277591815,-1.3062821934117594,6.432526702855632,-0.5134963568763301,-0.7178642288273992,-0.16367615683565206,-0.13607849815310383,-3.214332829106226,0.4349201485847682,-2.4964239589656954,-0.09628034601617165,0.2064518586282078,-2.9596803349391148,3.155016204986977,0.3125
1.0126416609749846,-1.1420206456896096,5.664354260865164,-0.2794380408177775,-0.6112350234155444,-0.12188468916519232,-0.10563857138131337,-2.522434331390131,0.36847531729293675,-1.9943779581512528,-0.08971066530268762,0.1564499716038771,-2.869460073109521,2.5307455055488504,0.3203125
-1.0655445516457536,-0.3610349028216239,3.5612323625374334,1.5844967718899103,-0.25501066096186337,-0.05036780440219636,-0.10040197052440712,-3.5980809932340643,0.17075076912813328,-1.2076722687160268,-0.043250875101766346,0.13968840795670792,-0.08679480401755009,1.3115087309401616,0.328125
-0.32298782372447216,-0.29959741665094636,3.3231829057366706,1.3066209888400753,-0.2745830333001724,-0.06289226071348862,-0.10274859114424852,-4.86824956419483,0.12905049150922498,-0.4219816292576091,-0.09115582038591159,0.12263335287160179,0.9939386621028296,0.5705640310254778,0.3359375
2.323722212344711,-0.4594426168368265,1.2559443381741655,-1.6289166401704707,-0.288064747422964,-0.09203924512973113,-0.029239501189839433,-1.2659557545069828,0.10683350844301716,0.023125835096703833,-0.07684047342669575,0.030387522457182667,-0.26176737450052673,0.3626609726442742,0.34375
3.020903219714937,-0.0054126355473234295,-2.9561313789006594,-3.212312502829082,0.04501935344261238,-0.030314985933867517,0.0839540916124894,3.446622671078015,-0.08172974941333508,0.9626075810192652,0.00802631525606621,-0.11569647158703841,-0.4220570619220198,-0.7457377032463237,0.3515625
1.4862043605738797,0.43978719250829285,-3.5536446704223232,-1.3618885469172497,0.2577765670723343,0.08132965573400544,0.12224608249083131,2.2058711707270113,-0.25168169279847913,2.7002414977484275,-0.039952649307603005,-0.21517265287875828,0.9688878747201096,-2.8424800077618038,0.359375
0.12612533058871558,0.1389472935278265,0.28824315081196084,1.037478506276498,0.050715324439564495,0.1296491136492016,0.07975598422136983,-1.8318507725028461,-0.18007865851767246,3.3572094056499555,-0.17555586018833547,-0.20834989628003656,0.7420146105646384,-3.554460882625048,0.3671875
-0.38950708666782363,-0.23731815213016177,2.1715084017229347,1.2542694209786893,-0.1090644658074144,0.09346653735865647,0.038727478575868855,-1.4859615448344246,-0.020129868959067397,1.7360472432424587,-0.14161327107601396,-0.12098289383079529,-0.9768644094683,-1.810680374195915,0.375
-0.9058969866190608,0.1506861628522855,-0.5271569249040458,0.5406707837354396,0.11556413308839823,0.04070523234945867,0.02091075416484086,1.0233578756783637,-0.039464154632353074,-0.04722911758163735,0.035759937944708914,-0.02532757665182399,-0.2793650497262181,-0.10114620255037365,0.3828125
-1.4461914109814824,0.7978786007511398,-3.1762842674016056,0.7967377261213264,0.3813491353798859,0.02623511610579604,0.0036134651182313056,0.3619922001262549,-0.18040860091280533,0.058105017614356644,0.10754891354541694,0.01399593151743594,2.6597715428736297,-0.40335683883601375,0.390625
-1.6881193079778674,0.7368372237277702,-2.4015518712115442,1.304924637612392,0.3425020239147506,0.04558421831390859,0.002626578496303219,-0.43919308891274184,-0.1766025089312102,0.40326765361900585,0.06988048498916093,-0.0009224814735539281,2.5713424787572148,-0.7708835763919214,0.3984375
-1.8526205074075297,0.10136411062791138,-0.36698674828749484,0.8723921074153533,0.15111288630518588,0.053169982450810165,0.02177928948318018,2.620579541736848,0.009109999844672359,-1.0826133405338347,0.10237523485443047,0.0014094890522464954,-1.5059512584476709,0.8739441508229565,0.40625
-1.7626853871420365,-0.17442121450463885,-0.09205574573913199,0.05906662909811576,0.08256753232045048,0.015394138297842962,0.015842071250953806,5.058988336772136,0.12832568918141302,-2.717842597704107,0.18255292300411663,0.055242538256314366,-3.491951093152816,2.6410404607581777,0.4140625
-0.8016864106433137,0.1644874508970811,-1.5216174374896236,-0.40815200073192653,0.14415352558772748,-0.03415005585162211,-0.011501449283139793,2.8177993734279587,0.033894788136629536,-1.9316328536443474,0.15847905452372352,0.08082400763364171,-0.5705109660097645,1.8817693071622323,0.421875
0.5429698360502093,0.38197947468049864,-2.358033405943702,-0.768975551752755,0.1608171080511249,-0.029147400411484625,0.004285250847341446,0.38908365653189136,-0.09787695120682137,0.18216550068472245,0.049556589627872086,0.005919384307051757,1.758932434124842,-0.21899918481763175,0.4296875
1.1331541231348037,-0.06714848611522342,-0.6804356967459514,-1.0084391843627472,-0.005818126807549975,0.015525696702757425,0.04882540706237365,1.1891298820666147,-0.041164713510458084,0.8768549160046561,-0.03326746406028007,-0.08588150673707738,-0.5305780448729362,-0.8105363727709651,0.4375
1.2518767624795608,-0.7012158042250208,2.475915841684454,-0.8200084986069964,-0.29869311470241583,0.0019041385626878335,0.02602559887686935,0.7333411295022275,0.1355769462599998,0.19048233115288168,-0.09131610289489221,-0.05904429223289176,-2.925817633696622,0.0783397360811322,0.4453125
1.9083535237179072,-0.7176733678768902,3.596245398571545,-0.6553852562735988,-0.45850606954177936,-0.097901311867228,-0.07022223132909826,-3.5917124812957817,0.18809355655546187,-0.047973243187629085,-0.14322293032287947,0.0689773212993596,-0.47121176665091985,0.48965143139118317,0.453125
2.4415019888692138,-0.1379745800121276,1.4261497696681031,-0.8614030818314979,-0.3160547047905485,-0.17696878330144397,-0.13095531561228285,-6.571368691989088,0.07168576838753413,0.24934818029448233,-0.12173946726729663,0.15857098460808583,3.8063010078464465,0.16291667396837037,0.4609375
1.4238860928743589,0.3029912220067609,-0.9229590498212235,-0.6853590148690936,-0.04275888492628707,-0.13969208692141097,-0.09943845538213673,-4.359124475390964,-0.029707385447645084,-0.02864919974477592,-0.01796189339202521,0.14099558380038274,4.251673345698907,0.20728715703642348,0.46875
-0.44219690586953025,0.19632224238046014,-0.5370279800841765,0.26582657526463643,0.06294083357906832,-0.03213836214549568,-0.03473342203136967,-0.6828128731167066,-0.008974600334527748,-0.5825418659492726,0.04485723924004138,0.06533228855026495,1.1435439254351991,0.5413318117698971,0.4765625
-1.0333211497552675,-0.18054276709293735,1.5224547797343104,0.9817751108562924,-0.056481314604536835,0.03255835172836265,-0.003958480203918855,-0.02102336229050271,0.0578400026556828,-0.35787109087703933,-0.009085694596317785,0.0012951334235641713,-1.2409108174663295,0.3055110210787586,0.484375
-0.20562621917218538,-0.44695679747149053,2.807523614751748,0.7552208711725059,-0.21626504428693902,0.02343466040940099,-0.007182805607951122,-1.2093933542313833,0.09788193363776358,0.21072801923343867,-0.08912153265411693,-0.019587183311670427,-1.575586830728828,-0.12611670857838034,0.4921875
0.13832175630793955,-0.5120711472995351,2.6354669270855733,0.2894307710010059,-0.2318031299941388,0.014587101319794803,0.0007250034862870706,-0.4616454703965572,0.11318492845023707,0.04550254562287168,-0.07795463091165473,-0.023485480573616168,-2.0178762523452196,0.08822365177321055,0.5
-0.8661406002073522,-0.33133523154458655,1.1625998794582093,0.3676680458606911,-0.03318574097522259,0.07673652670476237,0.05642610135384243,2.921827882540463,0.06289022914126956,-0.3202759204151056,0.012031576617622032,-0.07739782688050591,-3.292418481625534,0.261550827619449,0.5078125
-2.079164841619651,0.16833504818131487,-1.2977570138796113,0.896823200737773,0.289006810476513,0.167547523070357,0.12353880123222974,5.306728306931498,-0.09720070834609892,0.3112823004368148,0.08026849691258878,-0.1686358890946439,-3.000967105764485,-0.6995502594385887,0.515625
-2.2670855717965384,0.7264253182095364,-3.131430977377558,1.384327811503505,0.480176210925249,0.16903973926863836,0.11079605690481083,3.2628292608164697,-0.25104188117841364,1.3223314619395408,0.0751013189319918,-0.16765147939042682,0.1646136539383394,-1.8787055511825548,0.5234375
-1.3816852722782154,0.8181235346540513,-2.723017909127289,1.2709373705942257,0.36465341649129185,0.05980521196751915,0.016318858895259577,-0.9588555854445574,-0.2275949023449082,1.1670789531649244,0.035731170777697815,-0.0387787120372555,3.1518146941339653,-1.555090578325043,0.53125
-0.07581910697806162,0.36862855111041015,-1.1415889191288482,0.25516587959839704,0.10478503935194501,-0.029384957705227064,-0.031674266438536165,-1.7941149553685458,-0.07896293645567375,0.26143342836324307,0.010808744270562136,0.04165979143035777,2.4407514515089566,-0.3321573458704102,0.5390625
1.0704158881332413,-0.032475499403418664,-0.8968455644824276,-1.1156516807358068,0.003590211203203848,-0.0088949540535473,0.03135870999513894,1.2365076708920957,-0.024100965974299178,0.3630792240496377,-0.0021233055067618203,-0.04588968932675184,-0.2971687168846992,-0.28077917632356564,0.546875
1.9410858977374283,-0.0030343798452949003,-2.0425958229010415,-2.0180634140309635,0.05924269082953413,0.022306509842163726,0.09000770175952093,2.879742959123263,-0.09070207415558429,1.2728010332537443,-0.018048918441062486,-0.14113772102149486,-0.7622850939508402,-1.1864541900937442,0.5546875
2.4846429681018396,0.09094367364605327,-2.255110032945285,-2.3065078466817055,0.023461654513797132,-0.04674619935861333,0.03831475735749308,1.018295809090504,-0.08084806000959312,0.9714035246191213,-0.016261681336062324,-0.06098118611189225,0.9302270283990726,-0.7890091865513503,0.5625
1.8389072170124499,-0.015410454943055023,-0.9556879357352274,-1.802458009036834,-0.08807551680464563,-0.1337096713197198,-0.05651649690550322,-0.7313254065401815,0.05067580865304134,-0.9050540835166361,0.03646742616290855,0.10998650317835854,1.4601238716200864,1.1904015187733237,0.5703125
-0.6211948027405106,0.0916401712003157,-0.13763890303146803,0.017209173670666482,-0.004547811996616511,-0.11021921048748737,-0.09543002592219503,-0.6740421383367168,0.10250404127861985,-2.386611254466824,0.12080785340342737,0.19601452811600456,1.034619116208283,2.4644288138001444,0.578125
-2.797874493733946,0.43589502563716076,-0.1084210961897769,2.0791699027093427,0.16657047691600832,-0.03794919321428734,-0.09892526025833615,-1.6350529475470406,0.026333130216236546,-2.1407927526875703,0.13649015948746812,0.1905193955369203,1.8847444044979285,1.9003541990239874,0.5859375
-1.4491148779618197,0.07522188867310016,1.9056701450128746,1.868041869989363,-0.08178106504044942,-0.05524603658350951,-0.11163998407889156,-4.312136583022337,0.07064045036758262,-0.9802619989520359,-0.006697584846518016,0.1601185175034715,1.9748501902879356,0.9455618905138633,0.59375
2.359494846621452,-1.1950402844206316,6.159971449016118,-0.5532137157266827,-0.7154294410095036,-0.120739834524386,-0.09793298717707036,-5.003841545153528,0.31312906134039153,-0.21319069636708196,-0.2192789593220619,0.09211676991963995,-1.652672013962638,0.8466532434982469,0.6015625
3.2733565228252806,-1.765055110659561,7.309696607033581,-1.6561992020247462,-0.8744127802850564,-0.08002113411793826,-0.02711701557186835,-1.740597775429287,0.40472101446248115,-0.1406012200523021,-0.2506415233316468,-0.012201376313767756,-5.380083813401117,0.9349712053567438,0.609375
-0.5675621133553898,-0.5108651550550977,2.039868427470439,0.2831559370860964,-0.13269182321863005,0.06231682116865305,0.044908177030452474,2.3891343719106044,0.1101464974856679,-0.39162995242458404,-0.01591903634994115,-0.06627672523218125,-3.6690969770758497,0.4208854595299029,0.6171875
-4.138798984397649,1.092060959488929,-4.1059984707650115,2.338815475073604,0.6565257765459639,0.13504965288281645,0.05224105128993645,3.52407785959019,-0.2367661523742999,-0.6054483825633059,0.2211612160631808,-0.027975458578700048,1.2172600783436918,-0.12172640382133226,0.625
-2.9463575070374315,1.1015376745241403,-4.234863314861137,1.6315185849412326,0.5753389623654557,0.06616199456369079,0.014001341024436138,1.6229408325476067,-0.23181435085725124,-0.43891344810342775,0.18891078547804616,0.02077706471155402,2.764585938735108,-0.13087017699185505,0.6328125
0.7281938022478379,0.04327113756154183,-0.5508612950163222,-0.5438630056982182,0.0017635062938984205,-0.01289243560613749,0.008266868695297745,-0.18243785217060413,-0.033106902913106764,0.4748154548518795,-0.018962254319183122,-0.02141912850081714,0.5361656272637524,-0.42709122431134383,0.640625
2.3408050434148446,-0.3627514886612852,0.47019350341079763,-1.5011495525867258,-0.16994993745382309,0.019989778884527663,0.06627687250939128,0.2930348330588009,-0.021076602868090037,1.91728971902375,-0.13591037430388248,-0.14680494300187233,-1.0676748217773444,-1.7032118620491967,0.6484375
1.45151805608328,-0.03098289789113061,-0.9947742078673388,-0.9358413184685463,0.04491113562702195,0.09868594350441554,0.1196758834995381,1.661867240245947,-0.142901529778191,2.6907431801882185,-0.11146366141116888,-0.23084302939515286,-0.8977699698137649,-2.725470178948419,0.65625
0.22931921666465246,0.06811693709443835,-0.683567671301409,0.020739513154232506,0.09432244412852932,0.10442871732989474,0.09345397640796609,1.3152780596714664,-0.12556307179302933,1.9895033820290184,-0.07052509190245992,-0.17916483833611424,-0.726292725377468,-2.131601970818983,0.6640625
-0.34660526543319486,-0.06260950264168073,0.8356977696073844,0.7356387373475749,-0.016003861079458025,0.063507470919406,0.03173909564720723,-0.4709530314650196,-0.03501327723391221,1.0704022072590647,-0.06966526399094483,-0.08202003447899014,-0.49785925530748715,-1.154823988997215,0.671875
0.040911372174594375,0.05179326546772853,0.33197101093415426,0.5819071349088202,0.009453371439305469,0.05924668177224372,0.033314451858382416,-1.1672024767116158,-0.08118942415067415,1.6178369599468354,-0.09103618487300859,-0.09586530048800919,0.415837717448095,-1.7042081549203845,0.6796875
1.4078972991195906,0.1840115022897137,-1.4420527911276944,-0.7647972529121935,0.07320357189962681,0.04624072960008272,0.06818467380601773,-0.18891677366668977,-0.15683870768883956,2.3524924362752,-0.09262542556656646,-0.14880466677593798,1.0418436309154948,-2.3791860884910805,0.6875
1.606599127499968,0.17705673700878508,-2.0284170374531842,-1.6133422283076335,0.05393325518067828,-0.05572049737065875,0.007663465262986082,0.4681678036526254,-0.06132625066704023,0.30661533507051636,0.019061877161694746,-0.0033824068327651907,1.311863446331057,-0.19054072721398507,0.6953125
-1.3756277578080915,0.42621266161610555,-1.6520311255982079,0.03582713573920067,0.1412564525145961,-0.16777734535054414,-0.14372793561845018,-0.30455031666686017,0.10170669512864164,-3.9155985612415036,0.24664666778550087,0.3157655762066623,2.3627719504968776,3.9284223365282704,0.703125
-4.66164624069814,0.7181976783874654,-0.9511282519907974,2.5217675598387514,0.27822968942022935,-0.17029971236215652,-0.22700159701960557,-1.3069060326974997,0.15871763205805012,-6.112604985003384,0.3744723862933759,0.4818056151597327,3.0458145028114934,5.853111065004392,0.7109375
-3.527302611560057,0.30949210460796883,0.4975503302009155,2.0820736523625905,0.10852586708489427,-0.11831795818414897,-0.16964042388332992,-1.1178203017023038,0.17173495731901495,-4.609184783489784,0.24887410723515185,0.35172220003393495,1.3099185821599721,4.465962360926154,0.71875
0.7914642339396266,-0.4498132012547854,1.4022475878668381,-1.0354285858447656,-0.23208646515152334,-0.1095035772346122,-0.06283555137424267,0.2424229324736915,0.19291637527880456,-2.0041346825766273,0.04461635235359473,0.13151819427996853,-1.2285684116910145,2.318427076523334,0.7265625
2.8095911842739567,-0.540229565937162,0.3290981362707082,-2.626341812654953,-0.24693412572962628,-0.07513695780867147,0.020300007630919867,1.6293449239952429,0.10583944283548075,-0.13088101636864774,-0.036798750580570125,-0.023733590740702287,-1.7611178939306191,0.5451712902645859,0.734375
1.7618254176279733,-0.20916333566880546,-0.4803812831215046,-1.38085411630905,-0.045207029250944344,0.053747606544987135,0.09406697440874592,1.8516590693156512,-0.06333348118216169,1.8252863059368558,-0.08884123749440255,-0.17481747220932436,-1.4155861476961071,-1.7314914784383502,0.7421875
1.4021090564289194,-0.39306997029380236,1.3337045659289828,-0.23607631905020546,-0.1272786834385464,0.14485833818871002,0.13349029328140138,0.5500807856495185,-0.09343136217187836,3.509361631129543,-0.21788866657236414,-0.29088507426930277,-2.2157556299830974,-3.501435740306189,0.75
1.956032076884931,-0.7647712099932964,3.466326570621689,-0.2640382293598783,-0.3658906165628659,0.08782051542676562,0.08047870059139309,-1.45914629354938,0.02897710782733317,3.0254908501747213,-0.2722178641004959,-0.22121372960157515,-2.491275972127013,-2.806876791040825,0.7578125
0.6182302829789766,-0.5046988344256021,3.1495331166867384,0.5336719021269607,-0.2858686337047819,0.022100647427290156,-0.0024278571665066148,-2.525800848912959,0.07371915901942404,1.1775040227555644,-0.16292419722334037,-0.05571788685923211,-1.0092458647381626,-1.0272076330566438,0.765625
-1.3130980794701164,-0.10114765359863828,1.998414469174041,1.8270312893980536,-0.0433483927067535,0.08355366717488848,0.011955507564363105,-1.5495472760085962,-0.008654040085776906,0.9288570571590513,-0.0857370626483771,-0.061545794918781364,-0.6013644467879595,-1.085404901658818,0.7734375
-0.47735339274772437,-0.2530802528213927,1.7089584682348729,1.0950699049348536,-0.04776187582645596,0.14631686321891016,0.09156003729059115,0.41040144506413667,-0.054170324413673414,2.1613248879731106,-0.13761782197802452,-0.20073426143790282,-2.1386323176926942,-2.3064523609075103,0.78125
1.1790788644139267,-0.24849944236534802,0.4064443913613854,-0.6596258629345879,-0.07905470430544245,0.060488480528168596,0.07509509001673667,0.8841280945881698,-0.039520630186175305,1.705895175714574,-0.10354453555728407,-0.15337051512601746,-1.3854562799060295,-1.6449791419839932,0.7890625
-0.27140750196626,0.504905259920127,-2.2730650415145153,-0.2397615436135921,0.17950835903620252,-0.08340670153978508,-0.06061378070127619,-0.6538344257875444,-0.04955343689206434,-1.15243979537661,0.11630090560503965,0.13002229435374663,2.7529697581962522,1.0994437617791295,0.796875
-2.8731879809490612,1.0117435178470064,-3.1090586910620375,1.4308868447547562,0.3877173462320999,-0.13356260342025117,-0.15707226550083062,-1.6432681564844807,-0.032931507460923916,-3.5107243112482442,0.28301721174353567,0.3308723902112578,4.791991159179791,3.225876687901831,0.8046875
-2.5593401313564703,0.6635787685968557,-2.0156022819150934,1.1480168321938227,0.28044685691912125,-0.09789352809438182,-0.1177912040931204,-0.2544036821168024,0.019993360485379644,-3.2843093599388586,0.24528038280052017,0.2638702425928096,2.640977673690985,3.0714787796108722,0.8125
-0.6803088020227469,0.5826317573653337,-3.2457538883886574,-0.4023705065106546,0.2954171355285107,-0.040647883601450316,-0.015401485029283976,1.7890517579428806,-0.08259425225775831,-1.2475559805150647,0.16614873375914824,0.07911815801310901,1.7099143226890057,1.0962047951250278,0.8203125
-0.10706897000487352,1.1974798685723986,-6.5806970687029605,-0.8318608089237941,0.5903345343272091,0.023803925885990975,0.059667314142647955,2.3289114553864785,-0.33224139706165984,0.9738225218711245,0.14746688111815903,-0.060301916117049825,3.939323423877642,-1.3471490637135495,0.828125
0.8562150440843189,0.9677851703060609,-5.786480291228965,-1.18376129821372,0.4827995532794851,0.05771964326120698,0.09915068431471352,2.052114667979913,-0.3452059857741469,2.287949018895367,0.04860427388864986,-0.1562182581039632,3.202829112828485,-2.5843475986765707,0.8359375
3.353986638280869,-0.6657933103376491,0.7050787733892493,-2.547033336070243,-0.25764621802586196,0.035739622866738166,0.11420026835423791,2.2338847306949114,0.01211471846949895,2.218705616178178,-0.16144553697287795,-0.219990925871372,-2.9428623484666736,-1.88021461216927,0.84375
3.336516843822678,-1.7843203533936478,6.364655489651178,-1.980961882891811,-0.7560298886502836,0.03977019458742988,0.09103033866420222,1.711182680171821,0.3078463404784157,1.2989632836089449,-0.2748684604896472,-0.20485794649595876,-7.498494751707538,-0.6506932867808556,0.8515625
-0.9826715568846117,-1.1498802990737067,6.722075738934159,1.9107315731846308,-0.47628693656815924,0.10996936185764554,0.025759247562823964,-0.8396359351544082,0.23799683872057298,0.46585536216611967,-0.19381541280492143,-0.10165298518992168,-5.389588050608456,-0.3391519476116203,0.859375
-4.27758657733129,-0.07678626482170005,4.1809978807849975,4.506320101895218,-0.03928997217153227,0.10452364538663352,-0.059698799516745976,-3.326360787990609,0.08046011550776845,-0.59112911067181,-0.03875872028796756,0.05831073762089242,-0.7515530414474503,0.2285802786404356,0.8671875
-2.4688068607318367,0.15799189977798625,1.3145338768290022,1.982376099274029,0.0069941452634278015,-0.07589681779861031,-0.13153715459937512,-2.5377476302399224,0.1198857226759004,-2.648791166579465,0.1117856125173938,0.23856134140340304,1.372336374031779,2.5557593589685688,0.875
1.2454849307156857,0.009327138857941116,-1.551150482483492,-2.3975464540423657,-0.08144353768323523,-0.2674111795139729,-0.1524261067323068,0.4298460322432927,0.20399201134044884,-4.344238890271728,0.22811551028343693,0.3426485746934769,1.5791494081520123,4.755170440766971,0.8828125
2.699269605083435,-0.08421623938165909,-1.9722756206779934,-3.4508066336774816,-0.1282012721607443,-0.26080526954768496,-0.11214934767640092,0.7601517602391171,0.16337277182810198,-3.195074484190237,0.16578810439527353,0.2602737429965207,1.4458731127509465,3.710398069093819,0.890625
2.1170315571502982,-0.4222783515500212,1.7304049466256979,-1.117924308113856,-0.3078832424333607,-0.09330973039036337,-0.04819242799392737,-2.709622879339703,0.09964332322372192,0.26889174044326847,-0.10572140150976284,0.0446347748198837,0.4495359941076088,0.09568684035800278,0.8984375
0.8693741742985547,-0.6182129616999539,4.43775982796131,1.097754681141572,-0.38469518221961574,0.04968598389430934,0.0004713725938047527,-4.628281797536362,0.05676324170602892,2.405336641794678,-0.27011273482047016,-0.10504362080954079,-0.6702268846230149,-2.241750775213173,0.90625
-0.6356586674826439,0.0023243248447059974,0.9731780092635937,1.2109307800753992,0.006458796054583263,0.0869157527720506,0.03632428115782753,-1.1113318955248506,-0.06629963538217425,1.538675808242722,-0.09428329670947914,-0.10334962205169647,-0.15611282722199307,-1.6894427216723,0.9140625
-1.284857399446957,0.7674668445217351,-4.240526957546577,0.08707922326007049,0.46892016172658346,0.077593997452622,0.07447479640894822,3.6606127276867353,-0.21289678091250458,0.2547719789091334,0.14223053187567097,-0.07815568523203603,0.9325689360999385,-0.6497642718276663,0.921875
-0.6574886337791346,0.6632268882369707,-4.136620278991757,-0.2935167569883308,0.43272166448603916,0.10109680009184611,0.1072033116633179,4.015763224608294,-0.2320694887703474,1.0355356301804242,0.09544329022147995,-0.1446873587674251,0.4065829398135521,-1.39249079307833,0.9296875
-0.4450402059951922,0.14940194447561836,-0.6439988068761114,0.7017707430552972,0.15793204493539117,0.1574860993541165,0.11798440652537233,1.49281774164321,-0.16937712460365545,2.514759179560375,-0.0849196274170296,-0.2285177374524596,-0.9352583243892426,-2.7837583163009176,0.9375
-1.0073916038324127,0.13218028746914345,0.12596241798218796,1.4094762594950165,0.13420423323456995,0.16601349219223965,0.10108571724293987,0.5241702053859935,-0.15413072484038665,2.471434903259341,-0.10045973011830726,-0.21123790044003443,-0.8103960316493883,-2.779655804809754,0.9453125
-0.4716320364897383,0.4424295755424105,-1.818508265413928,0.5576894650267745,0.23665916508663098,0.09095897274363579,0.0656881671567231,0.4044163356993962,-0.18818888228891337,1.776689997596458,-0.023938340900782406,-0.12820238988999333,1.10235653894391,-2.04601384265354,0.953125
0.6428206872883255,0.7067325666930385,-3.3563662023794203,-0.3177544293147322,0.28302910868507325,0.025115347858821382,0.03782982357278216,-0.9330077825516745,-0.2489429436299323,2.038177610643338,-0.018106778228787382,-0.08553815017886518,3.457142494682571,-2.2314362551655242,0.9609375
-0.11092710219710404,0.9670726331087133,-4.1951836801375615,0.13944887566476982,0.4026416040994948,0.024446022909886542,0.023841945755458713,-0.9971180542856009,-0.28693224878612916,1.6813427348636114,0.032407025155471315,-0.05105571147618576,4.361058747371347,-1.9902779133819635,0.96875
-1.2128253577405306,0.6651210124533338,-3.248597532048982,0.06556661071582683,0.334722615772734,-0.029568081812062108,-0.02082096481203769,1.5614822546059262,-0.09426668280043991,-1.3239127636045749,0.17665432692110974,0.08797469501901256,1.9378200409433048,1.103357116594287,0.9765625
0.6997062202140765,-0.783047281786495,2.1613766707226443,-1.8032145075342696,-0.35636971466658607,-0.1999178127232587,-0.11718673665170212,2.0334823848984533,0.3830123254392154,-4.710621413374367,0.16074011349823444,0.27748702563107663,-2.970212952113225,5.2270820039326615,0.984375
3.205396784630257,-2.178612840267387,8.874989637352522,-2.5410036579011233,-1.125108090150804,-0.2954938277572927,-0.18895723791554309,-1.931925062659588,0.7269193188030313,-4.829300970445738,-0.07498309098297548,0.3294156086888675,-5.98168248396325,6.00919758651515,0.9921875
1.3046921687671633,-1.7797268810655036,9.21983527110661,0.01035208882831289,-0.9554856418270462,-0.16594687698623822,-0.15957645099984621,-4.4214262785750735,0.561493717314633,-2.7387283382236167,-0.16593108661405587,0.22386825617132333,-4.467455349657747,3.5298367500175716,1.0
-3.0433485781792053,-0.12572918801288238,2.6656457349498974,2.5433256872069565,-0.04592626580568104,0.007451550198026928,-0.0780118853343077,-1.090476234807538,0.14676070367311242,-2.167125499411508,0.0689944314574327,0.1419799902583595,-1.0409904452933183,2.014006595446858,1.0078125
-3.574792265629009,0.8245279048590357,-3.232775864022827,1.5045244388920318,0.48247096169826714,0.010306570575423543,-0.03131769413592431,3.040673882847544,-0.06948402247193641,-2.7452379445578288,0.28598999541853937,0.14039215104003347,1.076784655085797,2.2881611754551194,1.015625
-0.1067565958595515,0.6859104369092078,-4.3366558776815305,-1.063283542453964,0.35036886717200566,-0.04667190232045474,0.002499251796304427,2.4896693391584077,-0.125381986147351,-0.9839304081690686,0.17852074030040982,0.05653134724114606,2.059173384228736,0.8429184237382511,1.0234375
2.314953251672556,0.37718586968172624,-2.9641090471951945,-1.6102794620775327,0.14430971064441048,0.027126252663042645,0.08086880218732127,-0.06202434398973858,-0.2280921145347297,2.887413141451951,-0.08918747276257047,-0.1687347639525738,2.1849641600617815,-2.8922888366902564,1.03125
2.2374445890399977,0.007946018876472087,-0.7257946512946469,-0.7331415151755523,0.015074471053709845,0.1462079237636071,0.15313130744794823,-0.31687498089710325,-0.2420917281171981,4.878215867199464,-0.24288713914613377,-0.34059563694777095,0.09771615886933688,-4.9354259213456855,1.0390625
1.865320146385528,-0.6058181277760696,2.3155093653962426,-0.38738903508928385,-0.242607837867304,0.13587148823851602,0.12874870407374303,-0.016030959574843632,-0.049581375207782795,3.6583654020785703,-0.2614685819474129,-0.2957354229021804,-2.6971561453884023,-3.5514187352080415,1.046875
1.282736804187755,-0.6439022617908955,3.382690418241526,0.11968794362241107,-0.3378908306330254,0.0426125140021835,0.028513906352983957,-2.1570599626543454,0.06512655571042111,1.8897401446874824,-0.21052697185518043,-0.11880337096589293,-1.6587364867305985,-1.686940319151536,1.0546875
-0.5757432726698308,0.39391468131399315,0.05464071945991249,1.4719352458909656,0.06685080581482786,0.008843611512444127,-0.040453950909326894,-4.314811995189739,-0.11417339508619571,1.3365448868802674,-0.07757828966174231,0.012253377834257027,3.2698174705326517,-1.4920798092283591,1.0625
-2.189870718043259,1.3285143767073784,-4.297507258905654,1.9290838751186707,0.5523549088306507,0.03916645712856991,-0.021168655198475418,-2.3564611630073347,-0.3179240202171458,0.997279132566341,0.09118665443542737,0.027140297312438416,5.770813594921649,-1.5504904985590449,1.0703125
-2.049434860865817,0.9814113022616588,-4.451425987522789,0.8369057967642002,0.5402767014870047,0.07496052159375843,0.047877206391407,2.5437020356415925,-0.2410579888793364,0.09811897281197329,0.16090762164078354,-0.03746111290932928,2.0900500976042884,-0.5927863443249534,1.078125
-1.690088244577593,-0.015382559875808081,-0.6702607623171793,0.4447943748045307,0.18139646963932346,0.11089125097626076,0.08756545045800669,5.0878464633448095,-0.010080611723132363,-0.6147919679812461,0.0993275753218938,-0.0976791040467581,-3.2875536471055997,0.3745340762810397,1.0859375
-2.1184457240272656,-0.4213477341302726,2.3064337842647746,1.4498493543804774,-0.042195019449558675,0.1148070255650975,0.053362864113205184,3.0678166918681598,0.10359289093150895,-0.7374100698830368,0.02000045450854512,-0.0714041970681479,-4.306942462822668,0.5816810540152185,1.09375
-1.1082182129687381,-0.22111883870930624,1.6832428116690175,0.9223550316068674,-0.07905067910738486,0.011085063543457148,-0.020856842199216612,0.03822037467292108,0.09308127675265541,-0.9023894821267803,0.013391786063556526,0.03860534233470829,-1.3522302404639088,0.8848676703635872,1.1015625
2.4166691549082233,-0.1690072713748808,-0.7443239720809398,-2.4517671137098405,-0.16502428278436895,-0.1725037778860007,-0.06956648562062306,-0.38878865338256174,0.1070394393804312,-1.4438624297655898,0.049010003194134066,0.14242601716788278,1.0357717748197426,1.8564659226604432,1.109375
5.233451728538162,-0.4136742105091902,-1.5082890037897363,-5.091254160651024,-0.3277375726530843,-0.28827829996904747,-0.0847121886440367,0.043837526128936224,0.1690624897270195,-1.7711177251627725,0.04464906768167521,0.18163667327305397,1.2471900187574985,2.5673530620765486,1.1171875
4.241504747304727,-0.4542568890177073,-0.05464430105527732,-3.726402267486311,-0.3657111437287182,-0.24973683217214435,-0.09789486201466019,-1.626502918607854,0.17608145056462185,-1.404047895422728,-0.005785897185784515,0.17621710882738834,1.287545035166825,2.1034558147532336,1.125
0.6730905383142144,-0.04861301013941067,0.6958770193722229,-0.2821462756400851,-0.1407097136769515,-0.11471417951245212,-0.0922135976191079,-2.912093159793499,0.0793816146508135,-0.9174076195740082,-0.0016279805684488132,0.14409306827809465,1.7967641621443475,1.1185121071560398,1.1328125
-2.4486214106018935,0.3932580193223871,-0.5644459206251955,1.7249584893630399,0.20750545959197267,0.024016643661452074,-0.032001318506656835,0.0428585327584594,-0.02868868991982792,-1.137114776627919,0.10569278442227772,0.07556331913197475,0.7849775068050402,0.850699062081833,1.140625
-3.968136969702585,0.33689724315101094,-0.6256865679154486,2.3655381900233214,0.3277640520145459,0.12264985002864255,0.035584290739321615,3.7197268592002795,-0.027331880860067135,-1.5293178021964444,0.16797975044916233,-0.004777120583365296,-1.962958633232877,1.0417996064411692,1.1484375
-4.021156615895211,-0.13129372090359673,2.579737106938387,3.336483207367685,0.08261693659430258,0.16316076047483788,0.033923310969139094,1.624771458942568,0.051562198989438014,-0.658450017018262,0.03002644219062969,-0.05235186171919737,-3.287979897056002,0.24835256351930593,1.15625
-2.8129202281244594,-0.39880934284709685,5.175216174012603,3.84304009093856,-0.19350982623506968,0.13870756686595026,-0.010345276341236265,-3.643687506425193,0.07079378160897655,1.0625375642556254,-0.16669431367259616,-0.0616039282880156,-1.711168405878884,-1.293733261570997,1.1640625
-1.0909707674863853,-0.27867610322489456,3.5180924053958966,2.2215967724976355,-0.18501034341203432,0.06726019125799658,-0.018339377157150737,-3.715312884936703,0.03487272082342385,1.2163407295808326,-0.15517237799323172,-0.04063295977602594,-0.28788745062713655,-1.2892783179730671,1.171875
0.644375236074598,-0.27056167769694683,0.6044097455759322,-0.6724318877891543,-0.10713051396484055,-0.017109302354320653,0.007554521486151222,0.860550772508448,0.06388331137067223,-0.2887186541663041,-0.00797023086658699,-0.006884309527451402,-1.234268396557785,0.422194636044161,1.1796875
3.051855047314613,-0.5112405539513423,0.05025541545865391,-2.7817797135950246,-0.23176469052301016,-0.06538906243891641,0.03428689607142652,1.7250535296158602,0.07871301628384382,0.2652630913733007,-0.05058511207026781,-0.051493008880849706,-1.6539114915370696,0.14090341828498318,1.1875
5.6919896776819625,-0.3182427813153733,-0.8682213262983264,-3.587761319249302,-0.2559043455213027,-0.022707113766885237,0.09673627419179993,-1.717559906392552,-0.14229748698319195,4.457879333576034,-0.27902893496509784,-0.24728986177698667,1.195898472713706,-4.001821472218093,1.1953125
5.769935845516125,0.5551614984456154,-4.929801580323309,-3.430786613692015,0.15767844231557238,0.08156835052159053,0.18860340737441864,-1.6144735450279044,-0.4814871219353654,7.442597016612675,-0.3083566153430338,-0.42664732785700954,4.358211387312294,-7.360779298974627,1.203125
2.1487251438278765,1.1499504490934946,-7.565676511189305,-2.160301398766554,0.5826466873023314,0.10127244430601848,0.17146843564849135,2.8921365361708484,-0.4867167667539139,4.172071981268045,-0.005890814115280646,-0.2928529835667858,3.793305317927476,-4.499262607533063,1.2109375
-1.972112614362333,0.708742863226029,-3.996262977761115,-0.07253212609265912,0.4257824247492576,-0.032762279009085064,-0.016766097329183948,3.9939384871186565,-0.05929826775081156,-2.6524606966044035,0.28314080429181626,0.12608818261686439,0.8897406954797568,2.3765140678185053,1.21875
-3.4163664786123435,-0.06307871641918182,1.7075644615992154,1.591608979239776,-0.03987369182367736,-0.16567960748854618,-0.1963959934884874,-0.010404889485911903,0.31879704795260855,-6.142183366085845,0.29145602648936025,0.42330072893026766,-0.46560544415497934,6.170255495185943,1.2265625
-3.0247919631850597,-0.17014917322827944,2.9929285953108753,2.1286319022071605,-0.1441581914316825,-0.13674389234630124,-0.19152075807770422,-2.366258510486494,0.29171550844128424,-4.69413135212539,0.17072003002771657,0.3652028410802129,0.042267179870027476,4.740047900021066,1.234375
-2.9005494850627653,0.15897381597385166,1.0550169337379574,2.146715470323445,0.07418803184193716,-0.017953642452742453,-0.08491700025555204,-0.855942454494433,0.08994741627376394,-2.328453579269763,0.11922398441856477,0.1682985496627123,0.24132919937312844,2.1361556337907275,1.2421875
-3.1354998359190285,0.2124028373250796,0.7204979433729891,2.4265724157499236,0.15144409468859277,0.0592067294692323,-0.025627595717913513,0.17243809433061183,0.015459421512970436,-1.2283027024611792,0.08604063706945565,0.05907794750978917,-0.42191541368570745,0.9070841736238816,1.25
-2.984201292348418,0.10694056849089066,1.285575718471342,2.661726695036368,0.12424274532853699,0.12015710653622406,0.01912478928460241,0.2253144224551615,-0.021438520999743575,-0.01727747099720794,0.012300962585148137,-0.04024569422660188,-1.1531587505649412,-0.3432480356493262,1.2578125
-1.8508462680645494,0.14651944997567726,-0.10810396869811352,1.5906588963316428,0.1940444853146573,0.1694116586951571,0.09943817980599465,2.144852154553945,-0.11806732468213357,1.3992270939007825,-0.02283577819474182,-0.17700204041167014,-1.7052452557667648,-1.766832896716937,1.265625
1.1372667340489242,-0.13888664455798425,-0.9581611517299556,-1.2440579835643493,0.03162565222913664,0.06759727973659045,0.10326431307285368,3.188882193242091,-0.06280554095774066,1.2776654130771286,-0.033815269051497045,-0.16819829023046337,-1.9436446099361997,-1.2586916799055043,1.2734375
4.950613797092005,-0.935130869192188,1.7226871835086135,-3.8853828530083234,-0.5274356916840981,-0.16201870597725893,-0.018335661653422392,-0.5498643503089158,0.19587072577435682,0.13241589696661296,-0.13071748523106672,0.012550560178608342,-1.4338884144062765,0.6297060672949829,1.28125
5.843565376985225,-1.230099714095569,3.9954330884273546,-3.7583826961708953,-0.793734300186892,-0.23788087794555612,-0.09407919819687137,-4.524551205081031,0.2918704567253467,0.18540289981673033,-0.2293307805668569,0.09616678101628716,-0.3541610511871401,0.8103483910584256,1.2890625
2.7177134693794605,-0.48429137512798404,1.81735640408392,-1.4017575236772546,-0.3426152522081941,-0.08039681963636357,-0.028159350254786605,-2.911702093789805,0.07742303872924408,1.0166141742590262,-0.15296155679911091,-0.003913372864117827,0.3914605479242818,-0.6164998611742402,1.296875
-0.11720875108943819,0.08850991734652218,-0.405108517579048,0.10421855570584289,0.05370490026001732,0.021776621520078896,0.01774782526120138,0.2623510939929756,-0.041272315414875915,0.3805539009798307,-0.003262969669518754,-0.033506283512679744,0.11038261329893817,-0.4401016564850253,1.3046875
0.31291097237796467,-0.3779782932000219,1.7742866483153816,-0.23281283941620362,-0.20497903839434617,-0.06290467637083502,-0.04894543420631305,-0.6723735050805681,0.1439269339954293,-1.1505809070928747,-0.0026745897137292495,0.08460813999704227,-0.9164124777460924,1.355729439310735,1.3125
0.8623857170897238,-0.6111610241324045,2.9373558559188817,-0.33937871323327434,-0.338440609135357,-0.07004970297255927,-0.053958289843941014,-1.5704257236394494,0.1861486793753547,-0.8201812363832617,-0.06289668984068035,0.07356187182266077,-1.3220311495868362,1.1319427677183487,1.3203125
-1.3740942815319157,0.4470957153600057,-1.887447338348138,0.9842037905162438,0.30716993015242194,0.1355426845043675,0.09196384530833905,2.090644854854201,-0.18652378322542698,1.4446437955512672,0.01575198820908893,-0.15428163329726746,-0.08700530829158074,-1.8267120041803944,1.328125
-3.541720470524759,1.4575424633227292,-6.090515846158309,2.3485478170079612,0.8703016552973533,0.2766269508452726,0.1786041535555021,4.201145528732183,-0.4941817555355847,2.873394391367756,0.10745722321786241,-0.2830008634151716,1.9430451186698252,-3.8481993291692564,1.3359375
-2.6625892880597335,1.1659290628720633,-3.6992925267685965,2.410268440997817,0.5739747887465824,0.1542481621250965,0.0639254787332764,-0.4148754991713469,-0.35644773727895473,2.17463907718235,0.037611491485661536,-0.12617455210485562,3.5349305092545262,-2.857442392737906,1.34375
-0.9650008474691253,0.7275736550850496,-1.470841413567613,1.4341378283999753,0.2069762592706703,-0.025815581362909925,-0.06715488366688273,-4.258012756636896,-0.15383205211724096,0.6479196733854096,0.002292765719066611,0.0791085807243823,4.717830449803114,-0.8759443490293071,1.3515625
-1.0638063088275886,1.121241452465208,-4.96751744365213,0.1604208838915348,0.4840375986183604,-0.04325102520178798,-0.03414173698186956,-0.06600132868366786,-0.21821908470078158,-0.553561349263946,0.1767276124777565,0.09643669434902488,4.6776930824730085,0.23052017371153705,1.359375
-1.3206725212797719,0.9666269712882104,-6.085262621936053,-0.8445353792888187,0.5825414436083958,0.004514566287690169,0.04437214638615387,5.5495981693299425,-0.18445724032055613,-1.5486245983570495,0.28675593966214935,0.028707334173907435,1.330451176629853,1.1924695001915386,1.3671875
0.020837996368021555,-0.5634382218248085,1.1566190529013873,-1.0490139213713896,-0.15348300477549404,-0.038005442518685234,0.0022820494495072504,3.914945710769923,0.20469339978189496,-2.370135114544302,0.09922899863881347,0.05600790915030663,-3.856568591697425,2.579039430290271,1.375
1.1405279725938142,-1.6921617436420007,7.86987992573613,-0.40426097737658795,-0.8154769095432909,-0.10512910703099,-0.08964181933784855,-1.3375807773600006,0.5010033953811779,-2.4439776715411523,-0.124372147890384,0.13175305041066696,-5.752052539532784,3.12271765892593,1.3828125
0.5939964155125451,-1.2872395479154501,6.871487037179103,0.4088464031733689,-0.6686894726993177,-0.08007637013537576,-0.09325133119452901,-2.974336771786899,0.3823829264797119,-1.53305022786092,-0.13995641392940514,0.11678505492229244,-3.630264953212403,2.032484976935399,1.390625
0.30106941616729205,-0.8304155378830259,4.672862049640171,0.5650087376652421,-0.42977446865288577,-0.022004629189503116,-0.04395805339993263,-2.2341828075690384,0.2188827262230421,-0.3705560228997232,-0.12593559464648005,0.03317587682008059,-2.3854522883779468,0.6498497543224637,1.3984375
1.530353914092842,-1.1164180790375329,5.488976081109405,-0.24992241961909306,-0.5865245116849549,-0.04888920561879147,-0.042707878603167715,-2.6091272970453723,0.26863943174001703,-0.06861190155577414,-0.1826981554773846,0.018107924135658166,-2.9391415136002044,0.5369483483903742,1.40625
2.256059561045654,-0.6455034467752176,2.311231793774317,-1.5025500802305352,-0.38546243690157705,-0.11153162404359229,-0.05208911082822139,-1.7001993102426904,0.17654088689175937,-0.48594935772187825,-0.08309336984419208,0.06773575296736556,-0.7910815628199966,0.9448386136834442,1.4140625
1.2727075930138305,0.9076579305164899,-6.16043828734822,-2.166050644174221,0.42761746594009575,-0.056339170809960294,0.03194608762599543,2.4604868430273896,-0.23387209543165635,0.19876584281760754,0.1520162985722189,-0.0019364571127614225,3.4739991559511125,-0.3084097960767709,1.421875
0.6893474720387586,1.4304394601080868,-9.048664129755032,-1.8244616845772925,0.7863334556578427,0.10729052013585474,0.16942431019220786,5.278690022444709,-0.4952821473664369,2.6962488477886715,0.1378514848030934,-0.23763345899691035,3.5068089634559816,-3.198970089457548,1.4296875
1.6302328776416632,0.18658423212068292,-2.249775311869961,-0.9517589448471435,0.1802495938497,0.1732858787361319,0.1874922702637984,2.430872095449276,-0.277642198179106,4.322448931700941,-0.15187617320734206,-0.35942510043712594,-0.6202394878618032,-4.502423857227744,1.4375
1.6807533252500881,-0.7189063953185737,3.903625602774734,0.10718094038908645,-0.4023904256784195,0.039047168351793615,0.024538998636847106,-3.1435128833989427,0.06728884462210817,2.3505239234314033,-0.25736167523599773,-0.1303801893222685,-1.4224920152226217,-2.0976949467862473,1.4453125
-0.5805330588899331,-0.005985002893081562,2.063203000867591,1.2184685857731363,-0.172194015683436,-0.11726741070171197,-0.14572830275070614,-5.311847580841142,0.11137092331439616,-1.291378562870882,-0.014935389457733497,0.21462026511087773,2.6233540421692845,1.4108760843189208,1.453125
-2.8784626407268257,0.9390393287474064,-2.383237043834373,1.8762792620201663,0.35387434199553897,-0.08695441461332919,-0.13217736480678213,-2.293995670280299,-0.06136328191533541,-2.484749575680744,0.2120885956894579,0.2619896392457169,4.517283525109561,2.161738922668198,1.4609375
-3.527200291319737,0.8615447095170796,-2.8012398134252408,2.120501973781186,0.48390924630006443,0.07192700228577517,0.0013115181965095697,1.765397050910629,-0.14760462836013288,-1.0904473233636556,0.1896441224625859,0.04512564983059634,1.481072254159343,0.5456532673670709,1.46875
-3.6430530188673,0.37518326690140835,-0.2196490397843982,2.7317031139150836,0.29795530823746885,0.14378345329714984,0.0406499543099344,1.8406005191178008,-0.08106264703689638,-0.2757584414101823,0.08372621165876011,-0.050903620074482625,-1.0125688719289074,-0.23055627902916115,1.4765625
-3.169446726557174,0.17220940191232786,1.552310143316665,2.907739266045925,0.0928802613211357,0.06265560295879709,-0.04004740245375748,-1.422764138181141,0.016563127747693442,-0.781341224103232,0.03488081489969688,0.05900195662070653,0.05206171121052938,0.46600324322797826,1.484375
-0.2115635421763994,-0.09103480082945008,1.2579685903147246,0.5109187447089016,-0.10844569597666552,-0.04728180151878179,-0.05913810947928463,-2.1395816062159905,0.06646072987697767,-0.5730912524855551,-0.015318261786527178,0.0845251817414663,0.6810326828173872,0.6484698260524622,1.4921875
3.6734424105664405,-0.5481737222540229,-0.18187228462184296,-3.2925244044035367,-0.25189370715588383,-0.07118227303499576,0.04601686602909042,1.9141699232706224,0.06940242098878782,0.5754479480708349,-0.06725759971468535,-0.07368915235657232,-1.6775838221160422,-0.11240681457892474,1.5
3.8345122692498372,-0.6520686039343252,-0.8708160876416686,-3.9544520813099737,-0.1952401473141092,-0.016581771395875085,0.11755304677088518,5.190697185949097,0.05358527914917087,0.7672304879175019,-0.04280839360176865,-0.1695391933323134,-3.725695317473566,-0.33726976432981354,1.5078125
0.21926512568712317,-0.31649633529136856,0.3162946323539195,-0.6708576541558853,-0.04245537700110313,0.041232578189210445,0.06004839369405004,3.201780998857803,0.049181921302156414,-0.18813284938985556,0.013673053825894448,-0.07843301777681021,-2.8426057152274105,0.23580843996758613,1.515625
-1.8849607659365362,-0.09239979543948884,1.7463755973760178,1.7376762116156323,-0.017141900936567697,0.044245516664234125,-0.018480626053777476,-0.4711955504253121,0.05633710698229629,-0.6171448275127552,0.007437380000977091,0.02555644453768653,-0.9923109303347344,0.475121457775406,1.5234375
-0.4331449627658293,-0.0683588490323335,0.9468631101774291,0.5926531716716318,-0.05277427547659365,-0.003472486920369193,-0.022545865162422615,-1.0197737985587363,0.03250231905298715,-0.18040282577586114,-0.015958409220493033,0.026160847727586443,0.018555438691577407,0.17932988782455306,1.53125
0.9720943891201144,0.16418522570687638,-1.5270325682285772,-1.0562510188259155,0.05264692332032726,-0.04699275445463732,-0.00338646874941681,0.2595979311803598,-0.04072645287320498,-0.0005233774600753193,0.02830326193944293,0.015764840269719183,1.1096357604691078,0.07168461508607972,1.5390625
0.6690460267602468,0.39400054108799326,-2.4973476592715578,-0.9647465967860064,0.15241278290996366,-0.05689814108701604,-0.013563627340656546,0.2252219899790186,-0.08050446347169082,-0.20642110315990755,0.06859385288601169,0.042265583097498054,2.0590230711994146,0.20655347920235861,1.546875
1.4804584709766875,-0.08993595068744122,-0.18499051228579477,-1.1505136106990976,-0.10147524816662319,-0.0719191341561908,-0.024752239292769856,-0.9030587002744384,0.024819550654692178,-0.005690594671116089,-0.021792781782483606,0.034944657549100075,0.800760220528722,0.2097759578396921,1.5546875
3.7383320280474113,-0.9907709679793094,3.326109979017839,-2.3517117312717897,-0.5619714882458149,-0.11328770093160269,-0.02815143272287031,-2.0453425246488086,0.2071835291404666,0.454929845902421,-0.17876128465286195,0.0025058242032262165,-1.6519979715666646,0.1902706444901098,1.5625
3.214150073497732,-0.9547294864008782,3.8088204074404794,-1.7035823276530329,-0.5637286167679806,-0.10683183712942286,-0.044454138700797174,-2.9999461450118576,0.2085509034393745,0.45287092607201734,-0.18880582496825202,0.02008998243076556,-1.285247255602695,0.14287794908275278,1.5703125
-1.179049477643376,0.32103038858288796,0.09082893427040156,1.4723212419774068,0.08576523790695845,0.007211163988747917,-0.040986891428575985,-2.636823021667035,-0.059397576978013844,0.2605150554201519,-0.010390498551581678,0.04344391766408747,2.0787661695491604,-0.4303430570860009,1.578125
-4.326224193870044,1.2505925924498678,-3.1248910411462685,3.5600967421494802,0.612453129024014,0.13295549038171395,0.007508922004288193,-0.8250368339000078,-0.2906417378759721,0.5762952369827141,0.11942376158520875,-0.010472838143905743,3.676091759669516,-1.3545871828475626,1.5859375
-2.7560565640109513,0.6377562964348268,-1.174981507607105,2.516255466584256,0.3412632895440484,0.13155452223667133,0.03707795109302362,-0.314708395748943,-0.18760459847054292,1.0861989277877737,0.02154712936849919,-0.07764479333970516,1.3372712531481186,-1.5961896572414163,1.59375
0.18517346693970854,-0.43612012518595406,2.8092072199047906,0.6898800852677489,-0.22942719461334243,0.03308377869474948,0.0030132857641881833,-1.830878432574685,0.06619747077553272,0.9100576673222205,-0.13104570070993013,-0.053224324448395866,-1.1988951570803106,-0.8175084944479419,1.6015625
0.34350358844999407,-0.3502383826242217,2.112468717040922,0.2173710825144782,-0.20805738469681662,-0.023289405709597234,-0.02987542064548487,-1.701019237455789,0.09165729597283775,-0.024980830036698192,-0.07025425853924679,0.02361464853083363,-0.5552391679751735,0.17367895545088927,1.609375
-1.235501751758142,0.5637147452404421,-2.705952198393892,0.2259423175961112,0.2987633735332098,-0.007275147136923711,-0.007277626207578431,1.5979352824549875,-0.08762881594397243,-1.0137420556628662,0.14801443877378367,0.05672690843130321,1.3774688331324751,0.790191251077492,1.6171875
-1.7781204905680426,0.8388292550414068,-4.860652620997152,-0.16708108263556326,0.5142540899671751,0.01950962771824836,0.03350350653630987,4.6924922891291105,-0.14971685870482368,-1.5195239119337458,0.25457737437011024,0.03256262502969948,0.9398259349035162,1.1523204589819787,1.625
-1.6274757119727088,0.27550678384308536,-2.511656234281329,-0.15315804342883307,0.30972128284103895,0.06049656313265333,0.0658888925444274,5.789577578018126,-0.03860353292271318,-1.460654035610568,0.19140724652167582,-0.030063254687863486,-2.0788517781311326,1.2087429943634787,1.6328125
-2.2096562992580187,-0.07560425313867339,-0.5141260803997088,0.6192275212014964,0.20041527011535978,0.13214547439915897,0.10092148833756469,6.317594418973506,0.013497968597160504,-1.0289035391340753,0.12854212523235437,-0.10539282837016248,-4.329853124381942,0.7486871240152064,1.640625
-2.510008080422112,0.16748836662860583,-1.0887976056177744,1.0931133043936352,0.2823789148190107,0.14074402495120245,0.09347524574566136,5.18734640478974,-0.05337054630903436,-0.5456747271998215,0.1202607847332497,-0.10557947618307133,-2.9511775651863728,0.16706450865883293,1.6484375
-0.46135721901939986,0.230500032509169,-0.9241401009493833,0.23766558975936733,0.11163388991816753,0.005120518201974171,-0.0002927257182877163,0.16915209662117908,-0.049488737188540605,-0.06443744824732694,0.036050976486997226,0.007150603269966112,0.7393749184836378,-0.036340320181266,1.65625
3.974935206961184,-0.500072768177802,2.0355005196367224,-2.0964795589474075,-0.4728974288107592,-0.18800199846164586,-0.10149640233991922,-5.7600165132587655,0.11936527016209669,0.7085976009811534,-0.1786091589969228,0.10320900724546936,2.449600756269602,-0.09129375306650708,1.6640625
8.146423243089504,-1.5383112906102614,5.34366733148981,-4.718762778774581,-1.05332817823814,-0.2890737375442586,-0.11165350756195148,-7.677083252435428,0.31265081976089953,1.6497683530774794,-0.3855230174310255,0.069618870899993,0.612745961955609,-0.36161832233225555,1.671875
8.09404005198263,-1.7409615999273729,5.81754928672424,-4.802248200247766,-1.0769200818183995,-0.2353956963822683,-0.06199041755745977,-5.898523704796654,0.32611154406336545,1.9659761074645428,-0.4030214895993791,-0.009706107199632046,-1.2863951268969755,-0.6925566098701704,1.6796875
2.379244184332464,-0.5754563881074606,2.6615162235419554,-0.8742065554591343,-0.37967692581171686,-0.05134112451350772,-0.0211753281237891,-3.2994719853511265,0.0862386684852565,1.3269093334889632,-0.1873557484016805,-0.02912276833249598,-0.082413345353368,-0.9572588108704294,1.6875
-4.30962187327475,1.0098195396528098,-2.1487879985616303,3.5473096750339295,0.5257274161685948,0.14459867204227286,0.0169422494705973,-0.27041787895828284,-0.23519365375399662,0.42082032984736994,0.10278513914368195,-0.025853360315768986,2.367681342781866,-1.1457799541418339,1.6953125
-5.48840768250899,1.4624630877570544,-4.63888317630685,3.6734267111722674,0.8120269791254741,0.17058945095408481,0.04068602439422612,2.323049517868552,-0.32007368894575333,-0.30899212781505936,0.23598137578105882,-0.018944112585582432,2.7061975996860927,-0.6465864088738567,1.703125
-1.9321148462892401,0.5859741853250187,-2.4484854994663694,0.7809245703754414,0.32771333621619786,0.014271923041270956,-0.006561302232616655,1.7659996240897047,-0.08434962672830959,-1.1888093558471067,0.16063665505376493,0.057967876784120236,1.0780973836348342,0.8908833614682069,1.7109375
-0.17291549508182627,-0.2716116133562252,1.484345427291882,-0.028942501418972914,-0.1623224835684575,-0.08694152179875633,-0.0760740205821585,-0.7561253185461022,0.15853904749938544,-1.8977392892263611,0.04677743176366818,0.1441506231826514,-0.45507340249375283,2.0741150512819417,1.71875
-1.5549672702437856,-0.265312695370279,2.2538390784606768,1.3201485322238056,-0.1039768163358382,0.004886119141165709,-0.040112798480269746,-0.3283877048970636,0.12775736191298884,-1.3380867004332746,0.02290447720119028,0.07212905194476385,-1.4842306955678275,1.3119727945043134,1.7265625
-1.4821473754701844,0.041629838538991375,-0.38128372721952464,0.7792455597762862,0.15976341743363554,0.11791829587451601,0.08162023385736192,3.3400639709478606,-0.04967898766911839,0.24485655941279938,0.03901977968595948,-0.11682652007226353,-2.2777875316803873,-0.4976609245726102,1.734375
0.46276055512379266,0.1355624224112069,-2.51184994987378,-1.179701821527569,0.21022578062394218,0.09201066864134474,0.12572342027930408,4.872084405974837,-0.12386547367007575,1.0102692219649185,0.03997468501952423,-0.179518918097456,-1.8131561712704847,-1.1395165125031315,1.7421875
0.25967289925866177,0.24059712335012046,-1.8993882596192038,-0.6159755101589838,0.1527055807788922,0.019469722914014744,0.04184243239879596,1.7197639541359406,-0.08853788278913981,0.3942933309965256,0.03854244685439371,-0.05429763448958432,0.2656449194422274,-0.4708514753017562,1.75
-1.3482943802054554,0.26313445408686453,0.30274475986921856,1.4923102096392904,0.07293778735611624,0.005282845474368218,-0.04340746452033245,-2.2241325015014772,-0.03261875809944477,-0.09233337851907705,0.004891114850639296,0.05512178388696535,1.6151529443160135,-0.06740375635715189,1.7578125
-0.6171871235261305,-0.09426458037022117,1.6368622453161832,1.1002542357867933,-0.08825883668079665,0.00822672703103453,-0.030276542876876537,-2.1737269214448114,0.03026842449670217,0.19598450157214467,-0.0556636341063626,0.019993060348956003,0.28434403492997146,-0.21594030186013724,1.765625
0.4839622546996068,-0.13169947011256583,-0.20437815131251097,-0.6600130512869001,-0.015023659119696548,0.013012090968663351,0.03500361265205853,1.6480597892901976,0.008141656888264655,0.09511987579056705,0.0025565098833846655,-0.0489554496039652,-1.181464738440919,-0.04591308911259004,1.7734375
-1.4928631133826347,0.8142769912787204,-4.535249497331235,-0.042393969143635905,0.4856752788894632,0.039781563305819535,0.046209752971400564,3.888419074146319,-0.17867266392526054,-0.6832406281823522,0.19834845511015486,-0.010994395345397312,1.1555460758730034,0.31439268470041504,1.78125
-2.883855786107589,1.480705010583251,-5.836124273915417,1.4441353955272076,0.692216178486884,0.008209788543812402,-0.028754406211896514,0.5123433074039476,-0.28572530721875505,-0.8414357806018326,0.2444062440489477,0.10184546612731454,5.150194078602268,0.24317184428254804,1.7890625
0.6231088552950315,0.308614754665173,-0.38552889269824053,0.09626775493849571,-0.02496567162616954,-0.10666432115959282,-0.09651720963621925,-4.510752590056389,-0.030466123482065257,0.010417938330049831,-0.02305107104126107,0.13084465434115997,3.933009614760498,0.07656369794392168,1.796875
5.158114843823292,-1.6425755817358136,6.393325058104124,-2.7878799357319086,-0.9223355854761044,-0.14586221904227792,-0.048136179789262656,-3.9801231807516007,0.34532850101805096,0.868762308148488,-0.3132939505084174,-0.004279502663599871,-3.009829521914173,0.08596933465433099,1.8046875
5.649010592116088,-2.14755363689089,7.037708934670982,-3.7320808520847337,-0.9953464382223632,-0.055321788082351324,0.06256779396064413,0.7143013702756852,0.3958985866314351,1.2421743595890393,-0.33093682944151026,-0.1673977252476877,-7.445906965130666,-0.23323935456382053,1.8125
3.545665145216612,-1.2770669724285069,3.692030535319948,-2.531894661763545,-0.5531552241060768,-0.005630852381180693,0.07293231189099902,1.6534315172415603,0.20608226618606137,1.100891055293775,-0.19647569628712383,-0.15453514232550516,-5.03214520264729,-0.5254693117209891,1.8203125
0.9450923253142729,-0.5766702374737347,2.7577878248501677,-0.23266336823382208,-0.3046235225849239,-0.025010193065793346,-0.017753087007982025,-1.3510907142931659,0.13072231914614724,0.11312167542730726,-0.10138940347553353,-0.0006964717253479826,-1.4746413591125977,0.13682895700987116,1.828125
-2.9234433842525887,-0.044471269233521585,2.3503281062148127,2.698802977812332,0.0014317276899775931,0.055942858088579565,-0.04027777030566064,-1.1415977812114533,0.07243893429897667,-1.008275197909051,0.02152860416891229,0.060281761892656716,-0.8757594980225624,0.7761563976749222,1.8359375
-5.353424133631155,0.994069095612875,-2.245824576647591,3.8256560062705796,0.5880225854337584,0.15733663129094566,0.020348391812665016,1.7427784543312255,-0.18944437709041395,-0.7703096435180468,0.1872389903360929,0.0038004713590997683,1.071931685328122,-0.02810602642073991,1.84375
-1.947770192863928,1.496401750444473,-6.159860910772969,0.9277641785568387,0.6686350071350483,0.002622343181815966,-0.017079861600813286,-0.182765749868818,-0.32723541636494613,0.03475343778234181,0.1944999411841144,0.06420825105773262,5.822829721789928,-0.5744565600642076,1.8515625
3.589097875224084,0.4550129603715765,-2.9093445363028225,-2.8554398522247424,-0.0665322953591774,-0.28711347284874067,-0.15600541026748346,-5.097894929606984,-0.022370028885664014,-0.7932609634712061,0.035157271419598145,0.2567703521418231,6.6068266888368195,1.245975514292886,1.859375
3.4748560876953376,-0.5389053420663176,1.3148977700308868,-2.8339384998999493,-0.442598952082736,-0.2704900056781928,-0.14736739864594367,-3.226494378504962,0.24318805015232178,-2.0885557398373993,-0.007788604513269312,0.2511348409376397,1.4811044498775807,2.791658380301391,1.8671875
-1.4615149554376026,0.31256690626307126,-2.3673343451361917,0.08766394817588821,0.30623955357050864,0.08355850048121234,0.07758268513728205,4.850078122183244,-0.08270953472667326,-0.5665548111821488,0.13847547290349993,-0.07261249931232988,-1.5861012011067956,0.2824526522012566,1.875
-4.4974467138165615,1.664351277408138,-7.720291340104815,2.3957424129791196,1.0823044202444367,0.3440740068525929,0.2401905216577818,7.639723811588403,-0.5582910309878552,2.6645431240444784,0.19404085787172293,-0.3480336065953238,0.7430261118571692,-3.841463013467939,1.8828125
-4.525190787278076,1.2149796097680627,-3.34786882471226,3.9456772408204737,0.7162297724058606,0.3018658930216206,0.144069531416322,1.6382595925332613,-0.42433954690690245,3.0306716183444116,0.026996826759280265,-0.2634271428200605,1.5684149874461606,-4.025144946578665,1.890625
-4.1358669488830335,-0.38371107918086156,5.900879671442919,4.8749124900976595,-0.17440845721929443,0.14757333174279003,-0.03677139082090473,-3.834039283438449,0.11290950926899213,0.2103298188977,-0.12774129506040877,-0.008607939256151397,-2.013911305855797,-0.5328867855781427,1.8984375
-2.0214320786455557,-0.9249690194923837,6.430119491328764,2.4520056286637093,-0.4259423763413508,0.02403811601948188,-0.06673736399778893,-2.092135977138564,0.29806928814207967,-1.5201616079977238,-0.08438961277161351,0.08087467312597212,-3.7821818726695944,1.6303145285194531,1.90625
2.848817312661653,-0.4030780841198009,-0.7703015780898358,-3.0535385781729407,-0.16843567197136977,-0.09384261192320104,0.019874166773478915,2.5863123881622485,0.08992255773313255,-0.5993781196323843,0.019417534227295592,-0.0010111602996346033,-1.4747249765955517,0.998480982459616,1.9140625
5.981948340011433,-0.3895935004438937,-3.058712842355432,-5.931661918641707,-0.19509908546457522,-0.16679237407899963,0.05230961592861883,3.578654213008676,0.030336846910202254,0.2894095339905185,-0.001871602945445184,-0.04898040459093292,-0.5255726951089054,0.3850525875399921,1.921875
4.235879037759461,-0.9725663610493185,1.9952356252843644,-3.492184087937948,-0.504763401871325,-0.14021892357591875,-0.01182943260286837,0.35915463079958093,0.21941135546855658,-0.3200108414926972,-0.10136512899919776,0.014057446076475789,-2.306571805606678,1.0240506096237625,1.9296875
1.1888269599668493,-0.991443230808745,5.075436774040771,-0.2116575407849876,-0.5521971458812999,-0.09736433415025295,-0.08585616072082791,-2.9692359137983195,0.2946997713598993,-1.0843948565026345,-0.12093376730253282,0.10806377302229417,-2.1173270716309283,1.5600950909773623,1.9375
0.4168645074837489,-0.3398103388461555,2.248915601825764,0.061176627787281,-0.2562704946875295,-0.09811764629500871,-0.09098726323765854,-2.80605237979526,0.15296150725530236,-1.1253355041741826,-0.029664605098609523,0.1364986535567661,0.35547016245562085,1.3716616455817567,1.9453125
0.39218498165359,0.1551084846581083,-1.3344162057303146,-0.7898225476334628,0.06043387043978372,-0.058651587438489534,-0.022165726761914514,0.5922939302373926,-0.0011038410726741795,-0.8144733741378528,0.071531996995933,0.06254882983010705,0.8189818742218842,0.867418179760675,1.953125
-0.5579020554344762,0.3273475138773539,-2.2756494787053314,-0.2918399840983897,0.2322251754469888,0.03134332536547377,0.04297082318384348,2.809875252978886,-0.08396984681936122,-0.2661021375943556,0.09762567181667162,-0.034650739188218434,-0.1278822394652344,0.09896872946352367,1.9609375
-0.9902589936860616,0.4759228559906343,-1.659271397883001,0.7598683036727805,0.22847757484253753,0.03831141357158534,0.01288562130042463,-0.05482372624249074,-0.12646675552660594,0.4659909884470563,0.03824211891845669,-0.021158448760929212,1.5428371557291898,-0.707112646856368,1.96875
-0.4642089937506315,0.4339388874612793,0.09211336823302589,1.4428702596994663,0.044371461483443585,-0.029946812994987172,-0.07397060724499728,-5.327743191708037,-0.09681918504417128,0.9840966699383498,-0.06920877772429522,0.06712833302721155,4.092740603466608,-1.0927108192630515,1.9765625
-0.9030314391872014,0.0704861595488982,2.4697778361526006,2.3082340248739763,-0.11271075682801233,0.015541687235078837,-0.06589410593753192,-6.028471862135508,-0.028139262592251506,1.349595048671753,-0.14793439619099422,0.02710861542175318,2.4868692065048896,-1.4408986164774347,1.984375
-2.1621406988758385,-0.11609710524795527,2.479640500535363,2.719543933231101,0.005623741998946574,0.17273413839383972,0.06081301411938825,-0.8523768214162403,-0.052220687825500905,1.7811535794774291,-0.12199612670234798,-0.1564897168071726,-1.6607900735719374,-2.098164141864918,1.9921875
-1.401977251273205,0.20508916147489065,-0.9829174600968074,1.0235016825072742,0.24135317587680913,0.17489937684590195,0.12426979347475112,3.115038143937484,-0.15330250228945577,1.6687863857408876,-0.01317373040965938,-0.21080766661182437,-1.7561175565417755,-2.03439810224322,2.0
1.6931670278680273,0.5646694358755895,-4.190187424813408,-1.9933392988724383,0.23468442154887365,-0.060825385410020846,0.018929817675710697,1.0543057367795339,-0.1615164098341612,0.5067901136388813,0.07050562275085347,-0.007803187025754664,2.7591868264363675,-0.486945536049801,2.0078125
3.2841273056554656,0.4484289560415149,-3.8036525507838546,-3.22865184337188,0.033761426271022736,-0.2377625743824182,-0.0979825244031805,-1.8949337993728066,-0.03988646292702884,-0.9712466187218823,0.08914853434834569,0.19078051044998676,4.883989427479467,1.344450490654799,2.015625
0.6777892796445006,0.061536864762534844,-1.2733867173651883,-1.3172186403501502,0.007352993451340727,-0.1127883574670018,-0.0524590098610545,0.8654317871092916,0.06595885978847546,-1.8213325028052174,0.11376095551029884,0.13230750521019452,0.6647210883626209,1.9864809470326277,2.0234375
-3.6017914388349204,-0.05894872765832241,0.06776942685922374,1.6160857183173638,0.23694017667015724,0.14981099407559736,0.08375995964496069,6.621771360317323,0.05163576278092551,-1.9010250478271369,0.17599225458563275,-0.06306128899891943,-4.890077117385433,1.509042997557132,2.03125
-4.728920258439073,0.12887847058116203,-0.5715948407065434,2.4007357594426604,0.39319156640827446,0.23062584980558343,0.1308641402115879,8.031864757368199,-0.022943032476524426,-1.4392406800645716,0.19636852603519517,-0.1361329926917812,-5.438951458470127,0.8255365143546873,2.0390625
-1.095164851469844,0.04004827640923296,-1.0332477538245028,-0.014749775719476539,0.1589178394927549,0.061450079020652755,0.05930491698226513,4.178772572518804,-0.0063350855038928405,-0.7897211752136564,0.10344426172663805,-0.0512911840654215,-2.243378123752378,0.6338992432128978,2.046875
3.9058320265059137,-0.679284063565966,0.9372208138498185,-3.2526570280530156,-0.3909114039099677,-0.14825796621798615,-0.02521491577185609,-0.20331357076535786,0.15925110105282325,-0.2996173100627007,-0.07164324793090805,0.038940717642639025,-0.8802279458125206,0.9103664950051085,2.0546875
5.023165353882182,-1.31088534596539,4.325589593766206,-3.229449684174114,-0.7472116995936701,-0.16073691368170043,-0.04327129281917971,-2.693355589571321,0.28233729507266947,0.4375521939712266,-0.2280193275027622,0.017348886728566944,-2.109443614298794,0.43378785115052887,2.0625
0.7108926157366627,-0.7838300328911516,5.0761504056134,1.0909969580795627,-0.4381416816527759,0.04862177676495535,-0.0008844390719963586,-3.984570055834184,0.11220402937699069,1.904997672929536,-0.25821296744633315,-0.09354372591510575,-1.6858257107772818,-1.7025340305390944,2.0703125
-4.311456326758244,0.6350948843427809,1.4605145659684162,5.202151162296512,0.27831134917584827,0.22459749563735212,0.026084792303274654,-4.423937918050317,-0.23184671268230017,2.78667299010894,-0.12724331449388607,-0.13461469836466441,2.119282441733408,-3.5045748096277514,2.078125
-4.348459538714707,1.4160531103770626,-2.5735817291848138,4.3650790937538,0.5778473029342434,0.10606683467655857,-0.044497010727797326,-4.544989272140725,-0.32636734763547937,1.2335739862470578,0.054668011787279196,0.03560317978122527,6.075090048800051,-2.022859341608141,2.0859375
-0.23477349394465152,0.8162476790678732,-2.3728275574602913,0.2653291270164437,0.1641883642156893,-0.18746938397089957,-0.16976770226918061,-5.121697536311117,-0.05575349967277236,-1.614829780770001,0.11649973299659752,0.2901876321301723,6.49646273180946,1.6123539162309097,2.09375
2.925287197331052,-0.3879535074017088,1.2576416227660163,-2.3097252020615775,-0.40880106611595396,-0.29418142354479443,-0.18538855501012297,-4.400065741023677,0.24296527373043333,-2.5303094241106647,0.016289161514271403,0.3144706469146722,2.5695561172110613,3.1902583982967796,2.1015625
4.090867845553318,-1.2874023847402396,3.868194977663512,-3.1617908833766184,-0.6682394923929512,-0.16079641328047956,-0.04360169317747731,-0.48723426997475267,0.32605871472075326,-0.9302886652491581,-0.12630917908067313,0.0599313494577863,-3.2249133948843114,1.740680410116045,2.109375
4.869332336248528,-1.4313056445538885,2.958597532918555,-4.141330120583926,-0.6060762033595121,-0.056762394645147936,0.08189383001595828,3.3657090057133043,0.24995532996242079,0.5500763662227289,-0.1619422849859521,-0.1431381348200337,-5.751375693914794,0.21176326016235883,2.1171875
2.500740271779462,-0.363604126537821,-0.7711805281210268,-2.5643011443398236,-0.11209049271684798,-0.020618265941236908,0.06830779419852254,3.0701271060078987,0.02525588989734629,0.46759377309980976,-0.022270707608451724,-0.09736700560847951,-1.986277046155627,-0.19321145078278,2.125
-4.843312892535122,1.5164744830038743,-5.117698683212196,3.2489043375482907,0.8145190771541979,0.16051565545062393,0.045950147392606645,1.924789351430529,-0.3539401170802237,0.19335276649450178,0.2137899252636665,-0.03616808074872028,3.3528054950985386,-1.1136433595880009,2.1328125
-9.148989569767162,2.2515031871386193,-7.0830350032524505,6.326295945549781,1.3359347880662285,0.37729525603994274,0.14106628323434275,5.166637265350873,-0.5653962212635911,0.7542718856016959,0.32318565327707394,-0.17051718297205862,2.7115857082709263,-2.413974636871716,2.140625
-2.5628159603391722,0.6896530114782052,-4.629550598475297,0.6197406580967924,0.6370921002645806,0.25514669710397503,0.2154905687331833,8.680254008930556,-0.2856547331440819,1.2277206508524097,0.15316593846871346,-0.29384307725760284,-2.8024536798020225,-1.90312382976808,2.1484375
7.476866909560595,-1.3333741798696035,0.4004269547677954,-6.792449778435746,-0.5834658870108915,-0.13611646817318201,0.1020462051247751,4.671549940193515,0.19742947693507068,0.8731608662379589,-0.1400479679274811,-0.15677995391990993,-4.698874853855825,0.11608998383278994,2.15625
7.947936519086257,-1.4662213612720716,3.543494624887548,-5.704424642260075,-0.9147405035678712,-0.29453273928316326,-0.07998952941120688,-3.6356640042381736,0.3264379051569222,0.3173073221158412,-0.2503788734416617,0.0796604482222236,-0.8151284837167805,0.9421815880722537,2.1640625
0.20885068109219773,-0.20643647099852175,2.9470878582105695,1.0742310444310512,-0.2756639850546747,-0.08479129598350534,-0.1144483289638074,-5.970368485152609,0.09737217577945789,-0.013508236258032224,-0.11394210437076097,0.1298350090570821,2.1265347846100555,0.1933993207674368,2.171875
-4.861449632550829,0.519611204099672,1.17508434015387,4.451759187662224,0.258907965726421,0.11295443002947948,-0.04548001325222413,-2.1762703084018966,-0.058336975151606386,-0.6258858021296906,0.0593871197516426,0.06234642177931849,1.0791915459320716,0.048721354749142604,2.1796875
-4.9374991613164605,0.4544967477427571,1.1833794128835942,4.186501482312933,0.24253520640564394,0.08539099743994535,-0.06067288511046915,-1.4375743028676415,-0.007127391384339752,-1.5069859675006494,0.10522415793997583,0.10821413953877736,0.6052503553682116,0.9803406402559534,2.1875
-4.4394357756811935,0.3791174319385478,2.453259429016373,4.408935070792167,0.08544401004424583,0.00795071582074583,-0.1391862504777678,-5.039803004429131,0.049720118983021595,-1.6956831797915761,0.05302630881490497,0.2096717200828834,2.3474957330353727,1.3200226124107834,2.1953125
-2.6142428632611905,0.1933223344069953,2.1605026186339855,2.9507528312551132,-0.010495220548348304,-0.012508181784619975,-0.10968600500766935,-4.588690103820124,0.0449368312026464,-0.902775752141753,-0.0011737857664071794,0.15166307251085148,2.025844991287337,0.71149982294405,2.203125
2.3192831740877184,-0.26372232526631645,-0.8204564769252093,-2.364449744095427,-0.10913500127410523,-0.05936316986608621,0.027544397480551167,1.9045474571927572,0.037834068496086545,-0.022498878086493024,-0.0016038007727883206,-0.028460416565164626,-0.9282761919894416,0.3077904997313952,2.2109375
5.261586239876807,-0.2934597540528357,-3.9709891972376425,-5.802258004371593,-0.05520978102235601,-0.10015909949724988,0.10902464861933521,6.2077150155101455,-0.01710416848905707,0.37333199018220825,0.0437825113101627,-0.12126317614278054,-1.77938011312187,0.14539950173353766,2.21875
2.3383885042124217,0.16798399991323953,-3.587257199858704,-2.8751419719264537,0.1412250460463167,-0.024519839147491267,0.07944307902028469,3.890374143882168,-0.10316990957611434,0.564498369383069,0.056524368279115035,-0.09409095621915854,-0.10890650086366742,-0.44345456250664117,2.2265625
-1.553958102883065,0.1353655750165211,0.42729499883269595,1.5023387032394857,0.0962457275457574,0.07538274216136429,0.018284456445606435,-0.15858793658759063,-0.047551063855995654,0.4173542111890366,-0.008211829843045984,-0.04352286207492445,-0.2165484032723988,-0.6439173439136313,2.234375
-1.628945730917064,-0.3991597308861945,3.5546617309771418,1.950163486204817,-0.1887989311740616,0.03524022363155049,-0.03649586124720844,-1.7270763996375236,0.13076241507657943,-0.5421532435177501,-0.05571292816474919,0.03405896735096728,-1.64089874397007,0.5124425032238092,2.2421875
-0.08620784629787784,-0.35331077077537093,2.3731991534704204,0.3564138220917991,-0.2314110343356419,-0.075864806345206,-0.08077066148732875,-2.109064967814598,0.15946586184522582,-1.3105538872759057,-0.013090781875638311,0.12673719764505678,-0.2577504263268209,1.5013094690492494,2.25
1.091872496448304,0.07508427774020192,-0.24757535928730204,-0.5944403769673624,-0.06793815737933735,-0.08197199056098399,-0.05193624832482177,-2.3703798321631906,-0.0006944259004642287,0.052204351810857405,-0.02438573387121556,0.06971109399421013,2.0547568383163126,0.09672206627165111,2.2578125
3.604498005598335,-0.3882830991169706,0.5690325424368506,-2.000480855096718,-0.24932872433975384,0.0025018028607478524,0.0659107198342694,-1.519571662535418,-0.059106084945999005,3.1006540666642572,-0.22213533715699563,-0.17991547781314376,0.056896657247719175,-2.7800680837175027,2.265625
5.683282534594739,-1.2585773962293632,3.2148716164968425,-3.33680815030044,-0.5930885303738859,0.05233624481457436,0.1490448522374865,0.08549116160408969,0.04750643692878017,4.479747745044704,-0.3815207380644866,-0.34872705528591835,-3.9388393922119684,-3.855948012343211,2.2734375
2.5315852581862197,-0.6340593090600072,1.317013284879696,-1.6596997433627498,-0.2450355952072536,0.06001787917425009,0.10566121727304578,1.5304089390184563,0.011185758983894368,2.246906848919653,-0.1708115445102993,-0.2152222799049261,-2.882420010714955,-1.996789944569951,2.28125
-3.863162352602851,1.300387944425428,-5.2572658428845,1.8733646844483216,0.7154882139062618,0.07715356034501954,0.018138480097825163,3.1176532021481447,-0.25021034530323694,-1.1997856487663783,0.27360642864763046,0.0439545240982563,2.647150947013717,0.504323865975791,2.2890625
-5.850323156809849,2.0838994175365944,-8.24457693357879,2.7977042722698116,1.087708275539328,0.06319100187395375,-0.01888128652518707,3.641258169539952,-0.3616403603042422,-2.4762108243241783,0.44724916779886986,0.15080479198212765,5.221040410205001,1.4612633462710414,2.296875
-2.246453839020358,0.8097490055140216,-3.1213782273519475,0.9561817337817304,0.3905779575598971,-0.027438123973625068,-0.04803158162690684,0.8273234086436583,-0.09554247105742678,-1.7857290206426253,0.20653548757411144,0.13556587282078772,2.5404579907269627,1.4604434139685738,2.3046875
0.29037724321761077,-0.5704803749352945,3.479497580679323,0.23865025362489092,-0.3609380274438092,-0.10409579945605447,-0.10371009769812922,-2.946513422881897,0.2256321817082221,-1.5418405435602414,-0.04258048795003111,0.15624776674972038,-0.5737420049404048,1.8541028479871007,2.3125
-1.4262199465580727,-0.4331559764827424,3.5683724887414643,1.5161694698610697,-0.2410392382053294,-0.043029309159690096,-0.09108872241714513,-2.1389599247572963,0.20539763426376353,-1.842520279794294,-0.0008442969460969376,0.1452410063273012,-1.154605002444027,1.9351151889822487,2.3203125
-3.3255332181076733,0.413699575762658,-1.0462874767199901,2.0348746257654575,0.32602881753611207,0.10702053255964172,0.03261997660960239,2.8331639299320814,-0.06423215440423131,-0.9804891039106405,0.13936562566325708,-0.012905150488014367,-0.9878769460081799,0.528620276506211,2.328125
-2.2148281666942435,0.5692418531289797,-3.18236369974433,0.7614480594042478,0.453215531969853,0.1433278527025071,0.10948257793405008,5.167728862879379,-0.1765744996246832,0.16247216438160147,0.13978067171045014,-0.131437536983971,-1.1640373383678748,-0.6387755694140566,2.3359375
0.1804223183253662,-0.00035806263805214527,-0.8149275326701844,-0.7341924543716766,0.03351847928002866,-0.030175014484258463,0.0007714048104913671,1.7167921835868467,0.027703754104733008,-0.8985000757163298,0.07056915289552469,0.03014965937267804,-0.5293211118266737,0.9476144728989957,2.34375
1.9131558088968525,-0.603463829097693,2.5757849297565825,-1.4862939586195592,-0.4416991684459573,-0.2315031850773047,-0.15839314060430498,-3.2681357247893588,0.2883112919751704,-2.6635877463416104,0.008199973438424789,0.27111906920252304,0.5539537031516726,3.2436743379201967,2.3515625
3.197026391891004,-0.9646959068139911,4.480084307860412,-1.5955216269018648,-0.6569268897601507,-0.203524372692969,-0.13447587067555367,-5.263337583456189,0.2948188147299169,-0.8523168027404194,-0.1579455462264025,0.17338779327833606,0.10922391695432349,1.5750349018195802,2.359375
3.68127465184548,-1.0679581381144934,5.039351505385404,-0.896978453101914,-0.61834051457423,0.024017511186573977,0.041033503105991326,-4.556465445095861,0.08503974191586956,3.7519959862025813,-0.3913119004452723,-0.1995055692354768,-1.630909553284107,-3.2621503329892945,2.3671875
2.3534076632372534,-0.8207924647899533,4.456670976892395,0.3520352785368048,-0.42677041125982484,0.15418471994978872,0.11603193114904506,-3.457474718889427,-0.04671943826245931,5.170946367116123,-0.4156783440627474,-0.33854450422124294,-2.103128251227936,-4.99646406191334,2.375
0.2593946534117395,-0.3007689866565817,2.4488444281136545,0.9259746906713812,-0.18135069496261103,0.06142824260138525,0.020361697125131254,-2.5324234016529283,-0.004418732991190485,1.866160239224002,-0.1705777529656879,-0.10150560420576861,-0.4473163711793949,-1.844925072888711,2.3828125
-0.4226857946197767,0.2403461792026353,-0.7685024148862707,0.21531490417171742,0.07924800178858955,-0.03736388601129426,-0.037247624099418716,-0.7003904295451623,-0.01672726248169371,-0.6196372766067563,0.052562695003319546,0.07162126677781648,1.3713258963883175,0.5737472711335698,2.390625
0.4495179401147173,0.6245196376178984,-4.096928044866344,-1.0413082832448681,0.3335171949371592,0.019973794536495487,0.05942338155375409,2.316526995362153,-0.19767605722277626,0.7836798637330555,0.08027037069133278,-0.07240750666756557,1.702402304507706,-0.9593548358957356,2.3984375
1.2613330748580371,0.6720137816151505,-5.467885187433788,-1.9279059250002586,0.42289364449734335,0.0788678882005404,0.14230077212990927,4.57859129577604,-0.29069840014902176,2.0371077422660617,0.05882759331667436,-0.20843682818016487,0.8964472892154033,-2.253944213192051,2.40625
0.8601238563780337,0.3551652859252616,-3.739897305611036,-1.812005183250836,0.2542684779269921,0.0023467614340965904,0.06909209223709273,4.123246453226206,-0.11659593206069126,-0.004927916235003204,0.1107725575695598,-0.06436234086757668,0.009796667411484146,-0.0495931440345974,2.4140625
-0.887033788918665,0.19213665616702008,-1.4712615852387947,-0.3481621334271358,0.13403903645062423,-0.061440122307976346,-0.03764509979385721,2.2461702364645584,0.05342738684317998,-2.355635039581413,0.17517020656410584,0.12771885260408664,-0.09359517661518929,2.3251831293054734,2.421875
-3.131083765350227,0.6719694680020202,-2.320790845010872,1.543033544426721,0.38441881216072926,0.01404312181555443,-0.03118216964442264,1.9896131852600671,-0.05590100664283243,-2.1621978704346123,0.22176508227614689,0.11692200878110756,0.99364350755559,1.7683375825505498,2.4296875
-4.2128850782066625,1.2048834227214937,-4.665206183262111,2.1397028961819196,0.6858815741355816,0.08533837567981184,0.016073646398840766,3.339735605607192,-0.21644795094321026,-1.484951378380967,0.2773686048361618,0.05019628417735329,1.9974969822830917,0.78673513920146,2.4375
-3.3596785959739006,0.753049379484765,-3.0899550982874286,1.391864394462904,0.46662358392783243,0.03322631532153457,-0.007731471430311165,3.4368456220028216,-0.07949566895714426,-2.295044125341527,0.2598722912977094,0.09484351125950649,0.5555692689114105,1.8416408556985344,2.4453125
-1.6426035105649492,-0.41583044981599526,2.3045581109565036,0.8223275290058645,-0.1313126095159587,-0.023467447463647855,-0.048028889923187885,1.411990323286527,0.20833564234391758,-2.6120528851866855,0.0913030110962969,0.11941247281410755,-2.748828451829658,2.6620892253355732,2.453125
-0.09447183558711739,-0.9796751918163563,5.215006119243577,0.6736670898582929,-0.454818887342276,-0.006757708069254411,-0.034369333883475156,-1.09139096600002,0.26666306128303985,-0.8683779227833062,-0.10566786939671158,0.030209690986850328,-3.70104502301322,1.147297882447336,2.4609375
1.4123321321760236,-0.6361925157790181,3.680204271829346,0.04448546169620095,-0.40131324562013293,-0.03358787469499818,-0.03676128108169027,-3.7347975389526993,0.1238503410541391,0.9371570825450083,-0.18464071777555213,-0.005770026560172371,-0.5354977959100833,-0.6310450784811366,2.46875
2.608754555487033,-0.40358639469501967,2.997707611741219,-0.48826337014964594,-0.43939320878664445,-0.13649117334775554,-0.11029357752950832,-7.27008032549128,0.09350002256678575,1.1165578864452486,-0.2109652084552361,0.09399937580086844,2.8220700201858056,-0.6714452039380214,2.4765625
2.687410488143096,-0.7516176700773556,5.479993844696309,0.06483392069253041,-0.6617726859540346,-0.16307865258009618,-0.1561330421264928,-9.629668416733619,0.19831428752498725,0.9638445353468743,-0.28489576371526415,0.14100636339992,2.4949514361700724,-0.38002522846238584,2.484375
1.9754618060153228,-0.9311068928277382,5.958066975499136,0.44852158803637276,-0.627783498741109,-0.060716048455994445,-0.07846998329408815,-6.911377681658344,0.1905373750576569,1.4583690685098587,-0.2959670677966371,0.018134176453861922,-0.14445415315753649,-0.9984289500473327,2.4921875
1.3994877753911221,-0.3962987317512859,1.0913226033488879,-0.7927330044976937,-0.1636486285248431,0.0354468028058583,0.05625505353555988,0.4948156568848905,0.01339978713015109,1.3532308169854006,-0.11116322465886437,-0.1227936857026015,-1.6538157600865762,-1.2053541649516937,2.5
1.0417089384111902,0.35599464730277913,-4.6165708412188575,-2.331158177504009,0.3275523099518891,0.04612845443353123,0.1264961847042207,6.459989020571124,-0.155537254248488,0.35964049635582146,0.12714879262541084,-0.14485475343284443,-1.1372535198924922,-0.46126615441373,2.5078125
1.034374239940574,0.5952921886870676,-5.674427423952139,-2.3839493828040657,0.41836260813418635,0.033684499178767015,0.11874633628053391,6.115788642758633,-0.20922669194032542,0.4458606468312295,0.15027881178474317,-0.12901182440723719,0.08189915690884493,-0.5983443386150878,2.515625
1.6404834412365987,0.21293163420006175,-2.4920170744759096,-1.4510566921776986,0.14270652535363632,0.056894919007693445,0.10213965805370588,1.9463026997298718,-0.1744847261731057,2.1883619390685127,-0.04854962407242922,-0.18110422162086764,0.2818210778843826,-2.2249781553870975,2.5234375
1.205296785646352,-0.23545607620153122,0.7569534810810129,-0.1893963201565641,-0.0758334056052327,0.11677919872302361,0.10814362506256484,0.13752985988719452,-0.10234910152483422,3.0661007426124542,-0.18085187700220984,-0.23997787500921877,-1.2899195205871272,-3.078864282505023,2.53125
-2.1369018435133653,-0.03910030260394613,0.9208521333157581,1.8767529512890595,0.12345866542060747,0.17906557259462821,0.09724156508956518,2.27219098040475,-0.06485286711243972,1.1305069081100436,-0.033462358477926245,-0.17437746609006052,-2.6765027753585167,-1.4771173075365724,2.5390625
-5.944543259275541,0.8082522211559512,-1.9598511206410205,3.6908510994295987,0.5823698625163122,0.16530151671499232,0.032563420932231024,4.236433131034998,-0.1101720695982606,-1.990050604355638,0.2582185288530426,0.020201374917864307,-0.9872835500033138,1.1973899418605989,2.546875
-5.592027941477798,1.3425401916289488,-4.544236800873366,2.9502119560149422,0.7344785927459987,0.03827906000142213,-0.05134294318643511,2.864281057477271,-0.15233068829106045,-3.288309408760029,0.3765687357395347,0.19035158510757455,2.6038307562261145,2.53016941300195,2.5546875
-1.3314440962223757,0.8313012776832193,-3.459768252758098,0.21962313729608116,0.33646967702142566,-0.10057111528521731,-0.08831732964436231,-0.32180468402413565,-0.07442188749132311,-2.1325634652479675,0.2120871255060262,0.20331759214034312,3.7604245048949734,1.949422673832895,2.5625
1.8972820924857245,-0.07043302064324318,-0.15138761606734924,-1.4729188726109579,-0.15877606513719575,-0.1469284892310532,-0.08054499989683646,-2.310323996808452,0.0681171430373467,-0.7311319619161559,-0.002572173739188084,0.13109628183485217,1.9792094902316009,1.0524030687802355,2.5703125
1.7281959499354105,-0.2621063930227997,0.8278162018347519,-1.31542420544963,-0.23751086581768982,-0.1477406516669133,-0.08771241931751957,-2.213431963870205,0.1280650248180917,-1.1088443474223084,-0.008672827319876649,0.14406067343914586,1.0803412753891406,1.474491521551513,2.578125
0.5987686594711906,0.11787540169193793,-0.8584369757506891,-1.019747635540633,-0.03902408077360148,-0.1677103366872346,-0.11155909857545775,-1.20323424835707,0.09738494252444133,-2.338697200683512,0.11687843152015587,0.22318671055076153,2.028747738742657,2.555512659443933,2.5859375
0.8293875018189194,0.04868456644365943,-0.6925441042759394,-1.149279844174671,-0.06237775870678568,-0.15501656041293893,-0.09646330296937582,-0.9896938021961785,0.09504692380929256,-2.025810525189489,0.0955482945386969,0.19295238060380412,1.6491387091907845,2.259616985900843,2.59375
1.772308819629696,-0.6915585653744575,3.0283952279391606,-0.8681080892570976,-0.40173479494287495,-0.08076896988466757,-0.046820718397434465,-2.1216211255647535,0.1773277806786803,-0.20569554007564325,-0.1105672445483743,0.046501835202832624,-1.1069680981234014,0.6091692541656235,2.6015625
1.9925201423600551,-1.2938343492111264,6.296200307042283,-0.23508490859657236,-0.6609186010062904,-0.006010340267479831,-0.007126639917345191,-2.8187726749600888,0.2544259139135483,1.0435685146325298,-0.26465459235552174,-0.06751728868861136,-3.679125851534265,-0.5531992059270625,2.609375
1.4241984345805936,-1.2171218449539305,5.805931580519941,0.10618202613652103,-0.5555948696711914,0.06826052772783298,0.04822164676254829,-1.2202847723266022,0.19340365207924085,1.6734939405896345,-0.26369894488680856,-0.15699415405501507,-4.57340824794977,-1.3339373079783274,2.6171875
0.9706341011548998,-0.8030838632187677,3.4246641394347237,0.2108046197452044,-0.27849918583140504,0.1704764579465784,0.1386856953536644,1.0681296965399638,0.012925444563946271,3.099421556824787,-0.24642376323885545,-0.3022290738142757,-4.435675686028378,-3.0343428981889797,2.625
0.8734709176651362,-0.5163761756502825,2.2477175347365916,0.3685398567824384,-0.15428994799085172,0.19165447810892358,0.15371076978898357,0.7754814200820996,-0.08226266248959872,3.8098035576689804,-0.2474682998167726,-0.33428973441902515,-3.2324293598633367,-3.8581415201053284,2.6328125
0.16286994663068946,-0.24353125897904215,1.8631640350453558,0.6942179135911618,-0.13453395399199602,0.0531454772840613,0.02187332298450094,-1.643718576596757,-0.0034157127959948664,1.4318031343752136,-0.12810770848183978,-0.08647763918174886,-0.5670746445368625,-1.4215741556405428,2.640625
-1.5282838832362224,0.3535399330562423,-0.18152662401084604,1.293373234884667,0.0956445727444013,-0.05229021160854965,-0.08651679494949778,-2.249677428688064,0.006154638617241088,-1.2826367870229551,0.0763533033684239,0.151057350180557,2.2471621296733346,1.1598759018352955,2.6484375
-2.548508162577453,1.1051933298773915,-4.033496153621746,1.6323954888095145,0.5411892368323384,0.062337719519258934,0.009649265724137386,0.46941909484775424,-0.2512992193210599,0.1420038767901327,0.14434528267266886,0.008556348231715832,3.4042174697229304,-0.6833203354415286,2.65625
-1.661086369182102,1.4558622077386467,-7.031403713240943,0.8233010904638324,0.8136730393337985,0.21260967077097584,0.17264979538959277,3.646102582848575,-0.5133335655553546,3.3180513221233072,0.08098475675948753,-0.2784932308916179,3.060960131365619,-4.0988450264133665,2.6640625
-0.5149355390976375,1.2882241970532273,-7.314407737153342,-0.5874812148824533,0.7172898952289541,0.1216588990290943,0.13935953322446967,4.319821897843157,-0.4249365942583002,2.1067846665261527,0.13115986341335456,-0.1949460622423118,2.870493626578877,-2.658078459634573,2.671875
-0.7868492654017426,1.0043507442288035,-5.777518277250104,-1.1358219901661184,0.4761488066048498,-0.12453486072041599,-0.060797895522900554,2.6259654292411736,-0.10653490658250109,-2.8077902839175954,0.31350793249985076,0.20443941690919393,3.541891170520171,2.634521159052391,2.6796875
-1.047254504814702,0.7225677389503927,-3.791665647746124,-0.9476225762633603,0.2631078393512485,-0.24852787716240113,-0.1789376292061585,0.5366795555746686,0.09050588396987432,-5.178108755161801,0.3629458436999367,0.41638984910659094,3.774322448494503,5.2288115550339995,2.6875
0.17043538100786135,0.17519426190379855,-1.316290700759081,-1.1484833245320618,0.0011028868723006874,-0.20424833374599702,-0.13808836931941978,-0.3684336318449705,0.13958600921704706,-3.591156629357872,0.1985790759944757,0.2982473200903688,1.97409181088755,3.8135391036164292,2.6953125
1.1458237033517074,-0.49536615268988765,1.399175159498271,-1.338937321726639,-0.258645844312016,-0.12094806743966763,-0.06310440541335847,0.2682649484430339,0.20162239049493139,-1.9902867340105124,0.038797438051490184,0.13191508052247752,-1.2704976490688167,2.3534950318443926,2.703125
0.2931475502726765,-0.7950133632864769,3.0919722850823566,-0.48290046830400063,-0.3222717538544594,-0.03558820555276995,-0.018026704497211252,1.407173580725182,0.2408751096145786,-1.62997502087725,-0.005083409659186098,0.047218676854726215,-3.7118472825086126,1.9170923590913376,2.7109375
-0.5879019600049873,-0.8573727238293308,4.252578989890729,0.7619931846115363,-0.3213416523997135,0.057143426598271055,0.02102682467366335,0.9952073648947445,0.20259853439696854,-0.47193318130332856,-0.07938044076397621,-0.04872189091984925,-4.533270832545414,0.6046392819212525,2.71875
0.4304343398732209,-1.2389894913650796,6.781190437494475,1.112241262504893,-0.5708429114878797,0.08283493595884016,0.026900791843685948,-2.028344637505843,0.22285535534190296,1.3419681817648805,-0.2638688854832108,-0.12734829861269895,-4.696738207025599,-1.074188557082781,2.7265625
2.199211694228295,-1.701917263715877,9.274435419495502,0.6054157669173006,-0.9075308241045223,0.014405870945236949,-0.022087913254102764,-5.58918705951952,0.32230891482813623,1.9818422359246033,-0.40686003055590714,-0.09713011891810255,-4.282365585893775,-1.389412662190263,2.734375
2.72941391313967,-1.3986993467306315,7.506767676347525,-0.07908484757427699,-0.8073347891434122,-0.04032170653101988,-0.04549273695048634,-5.918119560186894,0.2699417087471296,1.7360369313624753,-0.3570897299238302,-0.04470780600416978,-2.424697492563191,-1.1260018627754655,2.7421875
1.4892677025794714,-0.2453366993912131,1.2956484384286844,-0.34033872716512686,-0.18392514479088723,0.0015456950367722562,0.01039922787214839,-2.320904115435429,-0.011741683227391388,1.6968472636521241,-0.14883669988139536,-0.07302906119314262,0.3685151573682885,-1.5399111791799087,2.75
-1.0674607528646187,0.9494572561160776,-4.303758559407894,0.569011985412081,0.48743449286912255,0.09135888334492874,0.06978949944626774,1.2904547815573915,-0.29583117948370463,1.554764070342487,0.06758438020821333,-0.10923715136964707,2.6976462903161784,-2.0032099583646823,2.7578125
-3.1950452156063354,1.5381027915653063,-6.0958166568551615,2.044816490651667,0.8007725504894018,0.15219547298301198,0.07859337233260738,1.8534661844934235,-0.42133438737730733,1.43512886755435,0.15707332283406647,-0.10665095518013396,4.012890878406603,-2.2534765897499387,2.765625
-2.338907950910127,1.382631858096018,-5.614767195730443,1.62576845748209,0.7127648001958687,0.15583985695945707,0.09427188518764669,1.4184037111064938,-0.4209669955924112,2.181645967681951,0.09406429590571652,-0.15196387641670875,3.772841688558131,-2.908637557863501,2.7734375
1.0288209329296947,0.6575508562915383,-4.5098715514152135,-1.205755137561468,0.36894813106851254,0.08449657863169135,0.12169834322974617,2.6154395537844892,-0.29199844752558757,2.490439578279943,0.00494606162027751,-0.20169328195298142,1.561949042486132,-2.722841180539517,2.78125
2.711194312299646,-0.010428745435172979,-2.8180451050203543,-3.0983238275846046,0.03975599932541059,-0.05130799300807134,0.06180570165715895,3.4392830336748506,-0.04707693671467972,0.28812377897498476,0.04032594960211642,-0.06784999755942372,-0.4266731214735532,-0.061355180601056464,2.7890625
0.8538733745339969,0.02178332795656925,-1.4387997506657522,-1.7806655331039223,-0.016894465019665354,-0.1611639626128026,-0.07935385337061265,1.2361512164168937,0.1179377570838512,-2.777186333853957,0.16214198750412398,0.19768338559968182,0.637698702095014,3.0248219718097538,2.796875
-1.237240645546035,0.42312680103700173,-1.1845635886017654,0.33805658096182073,0.10585230503445492,-0.15919146388234007,-0.14733832241514888,-1.6364971347910664,0.0817588920375135,-3.2605436835960133,0.1943521168857666,0.2980950280445804,2.9122265582924705,3.2708782531991547,2.8046875
-0.9225212374361311,0.290300831059383,-0.5802454542357498,0.4791717649266307,0.06873151096564517,-0.0914675369933467,-0.09357641953603298,-1.495559803253637,0.03951032281074508,-1.8328411740320576,0.10739248861857563,0.18034449626375043,2.0373106861555934,1.8142920911860319,2.8125
0.013157533475282193,-0.3693387895902516,1.3842616221369435,-0.3826393294911796,-0.16293497160783824,-0.06367961223077104,-0.04345530417677352,0.6676269779891184,0.16166906033918188,-1.7807497597102473,0.0486845822776908,0.09821128387427688,-1.536243083205371,1.967368583602872,2.8203125
-0.4645996727181645,-0.7349021020006793,3.011381174068919,-0.17208616418719383,-0.2847421029443507,-0.05693307679690043,-0.04614289570675808,1.7697523750465736,0.2790278400676712,-2.721228039897186,0.061214064761587375,0.11638462381848581,-3.728470304606126,2.9726608819518776,2.828125
-1.6758948622291368,-0.6040356250175964,3.363617579657375,1.2107614985265331,-0.19264461864710733,0.036307469407302256,-0.009880702374164791,1.472653105444598,0.20262815273887277,-1.6622509623762343,0.01910217172853831,0.032682451163536554,-3.879105466703628,1.6853886130330566,2.8359375
-2.4697472580692357,-0.38669721597017287,3.440244426393973,2.6852268066926914,-0.0700679614894654,0.17722232521531844,0.06511188709186524,0.5422842711740445,0.036132107478226365,0.9509181928599083,-0.0974709796621841,-0.14559072371103216,-3.513640624843881,-1.2157022758599196,2.84375
-2.052867014475342,-0.043965380457151475,2.281365893303923,2.7450894804525685,0.018932513398792778,0.16823075232557122,0.056032804738304944,-1.4286046224926836,-0.07457725908957281,2.0166749887272446,-0.1321506163876868,-0.1552954294782266,-1.0583855241102587,-2.3404741810634895,2.8515625
0.5760143493901876,0.5115248512285905,-1.5382870912587634,0.17620060612150273,0.11273474622012379,-0.033108383830912025,-0.032728190820412055,-3.504011448941536,-0.14948314058020365,1.3517377355244056,-0.04799939756804889,0.015069576429976368,3.9826918361794195,-1.41757358522,2.859375
4.084551041656287,0.5691735722364765,-4.2513850956493195,-3.2557037812532057,0.0641725742909467,-0.1831130087566748,-0.049427018961161015,-3.012584448452191,-0.16454554323684997,1.210231033764999,-0.018274335457273323,0.066531616444965,5.8355788085976235,-0.8929143223137952,2.8671875
4.67271237724866,-0.32927524068334413,-1.1316058117368026,-3.6967346757245854,-0.2232184268211118,-0.09204835169095026,0.041080908720855284,0.060301551586614766,-0.02054806413850202,1.731096790048077,-0.1202366627874207,-0.09253636555895449,0.44289266007525646,-1.24380774839966,2.875
1.9196449770975061,-1.1819530092026789,4.02484875222372,-1.1175897673155226,-0.44087990782183784,0.09220698740009176,0.11286716749354976,2.4845268907566718,0.15797672642526467,1.5554349768059608,-0.19784821868143576,-0.22587867111985876,-5.9610409259005275,-1.2275615714235806,2.8828125
-0.1969795702463408,-0.8324871570611465,3.598164389346159,0.5050145467659379,-0.256062169536843,0.13184593796895136,0.09610637975806888,2.3611959862894967,0.11371122869772281,0.9738589393814996,-0.12768733970640184,-0.18594424988113806,-5.26431893954741,-0.9201993651718734,2.890625
-0.5362500386461476,0.2362870780668235,-0.933296156877676,0.4197201565667844,0.13741180327536132,0.04815312292749163,0.031625884745713345,0.5251330384068686,-0.08776964913222975,0.6317148423613534,0.006987003401036339,-0.055925892516692104,0.3688643112219947,-0.7915956427274401,2.8984375
-2.0034560842144824,0.7616437684779714,-1.9778809321719357,1.646323641210641,0.3117742593075065,0.006966921638899683,-0.04315856121851692,-1.6745149662855232,-0.13842741115821355,-0.25134300053982717,0.08714675863457172,0.07582399283572114,3.2938275129672134,-0.09030821048307108,2.90625
-3.918204616152976,0.5562543906938282,0.4585993159579491,3.4029106074582915,0.2195991946907697,0.015193555913127706,-0.09639507083058407,-2.73189938514229,-0.01576749830059083,-1.587094641678697,0.1065200501486656,0.16510296737633,2.248669083845789,1.1794948459330616,2.9140625
-2.031688477565238,0.2779494277623533,0.18468823639030651,1.5461038320923846,0.09559263080807354,-0.03609230383151801,-0.08061480154194588,-1.4359985023016855,0.03594277905169629,-1.6846579642132393,0.09678058946901671,0.1513696787346194,1.3472808345453302,1.5317811295966568,2.921875
2.481500954105949,0.16877894037417956,-2.704794804017081,-2.6948558089901034,0.017066130171355116,-0.13915051809450887,-0.029382488674720316,0.5645500245080589,-0.014669906807755557,-0.6565036421195382,0.06969217090916609,0.08057237943199819,1.9216663438764054,0.9316921918892286,2.9296875
3.5405205170211382,0.11172588145715821,-2.966466568770529,-3.5514041806785928,-0.041529606929576274,-0.17976568938889284,-0.03712615617066112,0.23211385426738085,-0.006054181171726838,-0.5472111038387147,0.053982492015939236,0.09116339061641862,2.346385344995611,0.9527090946808765,2.9375
0.29113753630291783,0.21283403563139258,-0.9234351971060755,-0.4452922807732926,0.020988961669451633,-0.10258332139067239,-0.07312344552412879,-1.3766534304846352,0.02062574311457104,-1.157325916243067,0.06759161070237131,0.13748317386899828,2.0861686747419155,1.244941997487376,2.9453125
-2.292882582215864,0.414776363956844,-0.6012944330099417,1.809352345732221,0.2190612195385971,0.053106165877094644,-0.009422292501006731,-0.1467832100170283,-0.07006790542592842,-0.35474877062233756,0.06695780641530157,0.022999102229068053,0.8575878384781579,0.035033113786629336,2.953125
-2.1232615004877355,0.2525488703614033,-1.0562915435987226,1.4302777949051004,0.29647540412458256,0.19568585325352117,0.12978607449196414,3.85418917556247,-0.15218542582971087,1.323891107126356,0.019481374616543014,-0.20859281966024223,-2.190983372543304,-1.770657307706346,2.9609375
-1.078267707910875,-0.31044055598761705,0.42777041261008697,0.43316523015408875,0.09369254599438925,0.20618734755449614,0.1697046669572279,5.764907339723744,-0.045322233268669306,1.2911856650997409,-0.02518009103279232,-0.27084685997131014,-5.125640690166394,-1.5325569896849969,2.96875
0.39534126288302546,-0.6280154136715155,1.7849671091484869,-0.6374280544678452,-0.1805393934950894,0.046347445220408595,0.06124052169839654,3.118166184371531,0.12035258011685701,-0.23375771108434598,-0.02720880637438273,-0.08953521004927675,-4.103399630292648,0.3731324315213915,2.9765625
2.28089610731925,-0.4054393771418547,0.8072382692878098,-1.8745051858403865,-0.26607577348111544,-0.12506757772569083,-0.049319373596153473,-0.9482626852030303,0.12758445336152693,-0.7005217312764075,-0.028700717563437658,0.0817832713854895,-0.007906703142262684,1.109705341510446,2.984375
2.0955648531223234,-0.11409561509429039,-0.023277563206055413,-1.435507759182683,-0.16153447363369797,-0.10495467709449378,-0.04522259243546118,-2.093815250995533,0.03189687289981948,0.1609157591003613,-0.049438861243449955,0.057120316269275044,1.5518263432581998,0.1313450247846079,2.9921875
-0.9272837126098344,-0.06155137919535136,0.9359701673912718,0.9935971825346602,0.004003485037836137,0.06068207961192783,0.0211489746177387,0.049383875352267716,-0.005379963464958775,0.38846094535091924,-0.02915539427649347,-0.049488737448078544,-0.8800152305757417,-0.5019664321997558,3.0
-3.2013864549285382,0.03896275355578041,1.3902294140276106,2.604881722703349,0.1223488544122753,0.12236151122300822,0.023236685009522272,1.1522360012068593,0.008526518057938947,-0.4829378588092656,0.03926798823098539,-0.03321062415640809,-1.9140028723146532,0.12594108565277723,3.0078125
-2.3504733291992728,0.2567130835663972,1.0207087397147627,2.2798733781527742,0.06503391699379606,-0.006400160678987716,-0.08017034299291678,-2.7297925324730503,0.01984290944036008,-1.0204625829965168,0.04113476972296883,0.12465096246780219,1.5593848337641991,0.8168042801829068,3.015625
-0.14338065408570597,0.16279035442067497,2.084065376179621,1.528356654716771,-0.1897448521692668,-0.1395873397737795,-0.1767664619275694,-8.307762611411624,0.05428946919217669,-0.36139598320376637,-0.08108108236533197,0.2293703562681329,4.85376798646691,0.48672756923227434,3.0234375
1.9568625402164213,-0.3257095551034478,3.1313059373080674,0.08352225812990388,-0.4070585492236546,-0.13123972975217457,-0.12441949522679159,-7.67539628530353,0.09273843550759066,0.8734369955427895,-0.19548875013299935,0.11812330865268585,3.1021500999330933,-0.4963411211589947,3.03125
4.018655884205117,-0.6520047867400085,0.9522688222293951,-2.9099839041439757,-0.35413049472864133,-0.06483914366476191,0.036501989441406944,-0.183108913315341,0.06629470337492671,1.4687268461620215,-0.1558767031064835,-0.09526694175907587,-1.1600254620459969,-0.9647995433055157,3.0390625
4.290099926622976,-0.42001321911196454,-2.4456149733076917,-4.564200628922216,-0.09358723714944092,-0.03401950022336616,0.12439631402454483,5.615639914309933,-0.009209651689532557,0.9148814472860933,-0.011442654032530376,-0.17056850507169188,-2.694690077127718,-0.5020915213523054,3.046875
1.2272022147117632,0.13628260856536728,-3.1680321210421023,-2.1320387382325836,0.18586665717296494,0.02298870865612911,0.09699365488231396,5.044612567934172,-0.08854668559643152,0.22876128932542744,0.0834787524734295,-0.11238787407018407,-1.3004956790500644,-0.22699528003921476,3.0546875
-2.2012887170682296,0.5728387391873454,-2.313311273951211,1.3166965909204655,0.38384697023974224,0.12542497430986277,0.07342264783427895,2.683087193343551,-0.17297447138296598,0.5197366152063091,0.08621366701105683,-0.10024712625623634,-0.000589669167655526,-0.973368611365799,3.0625
-2.412465459176458,0.6560386037531749,-2.226989999157548,1.6911411864558434,0.3949866287585484,0.12321468837187934,0.05890196654377315,1.6853241481541974,-0.18909845328834005,0.6645717198666838,0.07510916928099466,-0.08597774087593006,0.7180025288718758,-1.1496045531431098,3.0703125
-0.8806239841187214,0.38948452955359686,-1.3691866774950983,0.3851931158644135,0.1558116279514878,-0.04139841390411195,-0.04516879907069044,-0.3975983560787073,-0.03203606090793019,-1.013131517872037,0.09577324580045134,0.0976465342619885,1.7539604713592747,0.905770872836177,3.078125
-0.743950877986146,0.027250722563781492,0.8071427199373264,0.3722444920309247,-0.09100862719704453,-0.15290297128556493,-0.1462950036522706,-2.4388800634404006,0.15793617203005716,-2.9036757202704053,0.11180560330679891,0.27177819169597495,1.6815603918725675,3.0489110422920764,3.0859375
-1.6496347078301083,-0.05903669654461696,0.996018782838691,1.0136068396113407,-0.004022285962080436,-0.019750605785233466,-0.04958320484973373,0.3151712259369069,0.10337529190543172,-1.8756210156033195,0.08693339343202601,0.10985208030423527,-0.7883125651905608,1.8190145992579885,3.09375
-2.1476616809061375,0.18897103920225947,-1.1593911540691302,1.24533056040475,0.3077701672900944,0.21518630809076367,0.15355260853776517,5.0894231922756,-0.1471203442775754,1.278843154991352,0.031265090597585185,-0.23822307776532042,-3.084660777945822,-1.7368037195658945,3.1015625
-2.3902150680706518,0.40629822056055875,-1.5330116524820965,1.8940940386237324,0.389818806313641,0.2635577381322473,0.17494220505073585,3.9649994805523026,-0.24778081011885272,2.570504595105555,-0.02089427044339918,-0.3020475429390836,-2.0077909956385547,-3.1641271904217,3.109375
-1.4718542419977065,0.25510179511054615,0.4946364178150202,1.843804589732486,0.09235642905180814,0.06289341398861699,-0.004589395044122719,-2.0660341862158225,-0.08038517206447225,0.8933267664738265,-0.04343582637727094,-0.027159524951743483,1.1833453907432039,-1.1308654435502707,3.1171875
2.0114574903260998,-0.23312226396618196,1.3428760685878427,-1.1009735136815424,-0.3039981312007728,-0.1879560053081099,-0.1316767069841732,-4.609836525234553,0.13560361730235757,-0.9691872510594294,-0.0458558986253262,0.19528453120705216,2.503359743938506,1.395536282972503,3.125
5.139352453506913,-0.7756924603493842,1.2574356285305488,-4.159879489805294,-0.5413486951690217,-0.27000961141697183,-0.104035796175344,-2.368308134027291,0.24080594633023877,-1.1787758613153072,-0.06938464187110786,0.16915715629361713,0.6137880417260526,2.0458497057123437,3.1328125
3.4356211894764126,-1.028275757762187,3.2795085441302434,-2.502597389570561,-0.5625172940741894,-0.14423133349387793,-0.0498085810180934,-1.2311654303232396,0.26401762757254904,-0.6747938379930802,-0.11606798076003225,0.06442230021934776,-2.088814134330132,1.3513750387251398,3.140625
-0.95925055507114,-0.757182362508273,5.0652521006003015,1.632693823189258,-0.36825262739260767,0.019911555249704053,-0.04213990887223586,-2.154104385530209,0.21196176326168903,-0.5340787762122674,-0.10946778975203918,0.03087050372254125,-2.7040056902167775,0.6655918355624169,3.1484375
-1.8411604748845976,-0.08885713992868174,1.9429252931119598,1.8407555650374878,-0.036919680459383646,0.03550774906801316,-0.03000831246850012,-1.1509501219907536,0.058698520808053975,-0.5596417032431669,-0.004795225692909001,0.03789400980061854,-0.6324056633623696,0.43017964092911337,3.15625
0.7381821353282377,0.5346581917464426,-3.627381036608201,-1.3267969306831617,0.24377497284902383,-0.05034581281030664,0.006066873137333541,1.3507018126436807,-0.12219419625871619,-0.1904372695881957,0.10346247095647473,0.024305608763291256,2.172574228646971,0.14634440102992594,3.1640625
1.5311804347362359,0.7568463708857398,-5.221273340168032,-2.005326005821023,0.342150825481355,-0.04181168986633554,0.037673848141424764,1.6540086618017356,-0.22210759455863646,0.7755097242371493,0.09133505006671669,-0.03321163363171249,3.1817680181889103,-0.845564833372739,3.171875
0.14194342968277485,0.4968115311696544,-2.408642486389092,-0.01854373723721442,0.23713724010140835,0.057004680245865746,0.05526505307003023,0.18579221786822392,-0.1966451352452445,1.7277682850326324,-0.016124211440199192,-0.10769328130298053,1.775903053287081,-1.9315129757840044,3.1796875
0.09114725480540797,-0.07754896969602659,0.6562093495699567,0.4038765044810607,-0.027304069071126248,0.06050372134626511,0.03997689767483611,-0.4370425804387161,-0.04625536992664562,1.3475389535179092,-0.08411176857438779,-0.09929461674471023,-0.4326946515485602,-1.396927012481213,3.1875
-0.0978948473628439,-0.45931483876110185,2.5350851753041317,0.3909239795674718,-0.21797522978345638,-0.005472229070169608,-0.019968826092768562,-0.6775985156829247,0.12731528930879987,-0.43376618102169484,-0.050525634533433776,0.018597859125589183,-1.6731126547320128,0.5644196643673342,3.1953125
-3.78500215238305,-0.10957593570417251,3.1791159282042174,3.450485114040996,-0.009646483715593157,0.07876938234524469,-0.04562531439490102,-1.1291207439869806,0.10417098706050255,-1.3394245701336238,0.02756994958089365,0.0697326367716556,-1.5336510777791637,1.0462057555551512,3.203125
-6.613992445033202,0.6717541924416155,0.7545246873119521,5.69847681111909,0.45600626798516636,0.25287328440336065,0.03856407409877251,0.38033988352265086,-0.148880170768936,0.13237390663598475,0.07559747254345209,-0.07127742567742337,-0.586644868655105,-1.0353268354713716,3.2109375
-1.998168448745793,0.8150590520635993,-3.813482564416194,1.1494862162177757,0.5326306252839818,0.18817308752147816,0.13621994164262405,3.6857760268706175,-0.302600881495438,1.894853464326361,0.06515454472671113,-0.21287613295638108,0.3444525858853766,-2.484080767777246,3.21875
5.929827318703181,0.01845992115558537,-5.210406794444323,-6.023053927207575,0.01779141705245194,-0.12311649582173192,0.09681991398037063,4.380616078862701,-0.11593216477372381,1.2982301542102102,0.014594248757345123,-0.12185316307381887,0.6321769945689347,-0.7981661473008632,3.2265625
7.145853642369672,-0.6661051287495662,-1.7307345260811091,-6.637332456833308,-0.4265129680627572,-0.28216527377781836,-0.028979481133267294,1.2062942617369403,0.15610870501884194,-0.6481690778663682,-0.024446841820277253,0.07857038105967364,0.2366884303852362,1.6163940181347836,3.234375
1.5079161275417186,-0.4592091083758099,1.604320614817632,-1.2008220062371857,-0.28723631320039633,-0.12067971318976335,-0.06837932385982422,-1.2559998286962692,0.1687043384704432,-1.2227142249854914,-0.016029527444528256,0.11551643912187437,-0.36058118890958074,1.5944533993385943,3.2421875
-2.3617193952209794,0.013200588908963602,1.6237008837383542,2.174007040945144,0.029987531538226118,0.05556146617195659,-0.022483511935972755,-0.7515921468201431,0.03570325711794345,-0.6013869501200725,0.015686303303216208,0.030775622072102413,-0.6265015398707299,0.38752521647185745,3.25
-1.5793975932283095,-0.01812827860924704,1.2806158504004932,1.4240673346807713,-0.007192419364537139,0.01332511746844195,-0.034877423585856215,-0.8187105157186929,0.05199189279077671,-0.8024806588413947,0.022205836113746956,0.0567555429349253,-0.28542299795824455,0.6987901295874817,3.2578125
