AF3,AF4,F3,F4,F7,F8,FC5,FC6,O1,O2,P7,P8,T7,T8,time
-2.464334523129873,0.17363891442484586,1.0082621269665495,2.659752648458346,0.1489444764989317,0.16947951001151032,0.062382202224898764,-0.26926942249678226,-0.11139935994437092,1.596728419644133,-0.06577488735350032,-0.14243063982566473,-0.7555372611065008,-2.007896062790249,0.0
1.195646013418177,0.10298648889049887,-0.6474873338271978,-0.19770404597018795,0.04666521949612547,0.09993298274455781,0.09542763902161924,-0.5864412060786514,-0.18022380284821263,3.269454585648838,-0.15579234431201122,-0.21830227501491872,0.5328109355170985,-3.3554616584885437,0.0078125
0.5116980378113316,0.22984504430367592,-2.030818432935753,-0.5923039483388178,0.18110315139694216,0.08591355005951712,0.09943021163026433,2.2831200481052156,-0.15809039050075854,1.749573069338446,-0.0219793283097105,-0.1696390766933082,-0.2735267303402275,-1.8950929950080595,0.015625
-2.415873733830071,-0.42585345232561495,2.084779926653267,1.2211548269143866,-0.03554969541964456,0.06810313499115649,0.02068693998913038,3.8058736374468674,0.16626220735916536,-2.1194128603501126,0.09870123138050298,0.01390644072568093,-4.492757884742314,2.007600615241221,0.0234375
-0.8798781239162645,-1.242449323646748,6.209938191865862,0.4955529895023577,-0.5593521574987946,-0.10467581610818213,-0.11474615569975413,0.09691113396545684,0.4712267638198679,-4.055985047076761,0.034119470114357744,0.2224282372159704,-5.061508502767195,4.487466105492583,0.03125
5.461001316536614,-1.1616229379700707,3.35622642756622,-4.355558177253724,-0.7926677566934085,-0.37798102442010095,-0.19582750860612247,-4.112496052086999,0.42760378860120407,-2.9528710663729933,-0.05770904017998669,0.32834787243705293,0.34816294709411594,4.087698770182226,0.0390625
8.637313783382165,-0.435338586813855,-2.6751262181644617,-7.6731553165827115,-0.49003883304267654,-0.445933629914631,-0.13913686569776917,-2.427131533605046,0.17260996707413487,-1.403013537465462,-0.005229650188221654,0.25692809511590115,4.0233023427392185,2.6069678173508617,0.046875
4.2077375004125175,0.11612663890038417,-4.057347697150407,-4.421169967034566,0.018203983353768736,-0.1482628632701948,0.02084570275092904,2.332121289579843,-0.05539831125358058,0.046416398255486005,0.05672540443127175,0.005345016731624427,1.5211368650138084,0.35736865167064813,0.0546875
-2.0997819307461065,0.37312974930263537,-1.228535783759519,1.8704704206909508,0.3461987911845462,0.2521873942844239,0.1647921794180625,3.095055261177449,-0.24436369336586342,2.7959665352997805,-0.048822645534294586,-0.2970950074666647,-1.6329125628215893,-3.34935621973263,0.0625
-3.6463655621526367,0.5228747631500755,0.3308018710286243,4.357045324120299,0.3854519938785043,0.3723221253508302,0.18599619224395428,0.04840638871938029,-0.35109439105066764,4.898272907478172,-0.18163209315146334,-0.40071964509032404,-0.7869726320385747,-5.7364206514745515,0.0703125
-1.6843627835728687,0.4520920203391279,-0.11924435187353082,2.4646003327786854,0.21746658956387113,0.17188646056470622,0.07146790343918175,-1.9424987571140448,-0.2297029123266253,3.0410267196040324,-0.12296081689909569,-0.18732688150212037,1.3545072940391802,-3.4859337307721256,0.078125
-0.5813942377715533,0.18416951899832879,0.22311261453024045,0.7043620921290975,0.0009114692515036555,-0.061850672162238114,-0.07673805161621525,-2.529809367274093,0.01997727534482423,-0.7806832505353076,0.02591751112821771,0.12139652838212349,1.978302551527376,0.7741140385554913,0.0859375
-0.7055740457742768,0.06068009649274239,1.137483315270258,0.8062041757308414,-0.09706767154951078,-0.12104780518612034,-0.13354611236323422,-3.5878354507615113,0.11065550686716101,-1.88543155876913,0.04879108679341962,0.22251354213794386,2.1624758597155753,1.981294447686773,0.09375
-0.4570458007855544,0.13381650666148423,0.5559841417753546,0.6738285491943669,-0.04245599787734287,-0.0817498184046556,-0.09396043960849658,-3.0774464971318376,0.044864297146070146,-0.970967321717609,0.02100938888212394,0.1475580872717407,2.1328282378649956,1.011055176977507,0.1015625
-0.19516509240438706,0.031275281061979326,-0.4274503398367968,-0.44348731907013217,-0.0008117955154164967,-0.08955259005536849,-0.061640903433454776,0.4084029920444362,0.08610322825876993,-1.9886620446422292,0.10961634396179587,0.14198413410601174,0.34413400644743564,2.0824927915172182,0.109375
-0.5638600723722847,-0.3555439531545953,0.6255102496839431,-0.8195773751327494,-0.1020505818160339,-0.10649459389604647,-0.0644603143319844,2.9905075790266284,0.23486532419992134,-3.7436784914296775,0.1818647762793898,0.18874399145945797,-2.4113767774885306,3.9449058431916058,0.1171875
-0.6424806902785654,-0.5282355164124907,2.043703668175907,-0.0016939795910211515,-0.16758416354186,-0.012355701556304263,-0.011081366303837652,2.2132797341320556,0.1896039913543788,-1.900217196651255,0.054427775034982875,0.05265143879437163,-3.3128034719684685,2.0251232186149406,0.125
0.14608406150215347,-0.08720757345247689,0.23574924804710531,0.3056800543768275,0.032547547240711704,0.1310874354743253,0.10616359503532737,1.1955814446319295,-0.10641771980449846,2.3267452982331225,-0.11064265880511824,-0.21308621307981818,-1.4969078462107792,-2.46140518588723,0.1328125
0.9824058482908941,0.4611276960280417,-2.9487230898576047,-0.4841760763606003,0.27340491178504994,0.14551538500571912,0.14881411114462756,1.4880041383327416,-0.30187176725170983,3.77861680747672,-0.10276039104694445,-0.2874557689282924,0.8853941579888839,-4.036129011208473,0.140625
1.143065539237772,0.2746254680176981,-2.009516634018247,-0.8034791792461232,0.13229604387062385,0.04284784633844072,0.06761834675115694,0.4790397305150102,-0.1638082069773841,1.9709007858408099,-0.05178207985566328,-0.13292594178667377,1.0849157492914536,-2.03573655273571,0.1484375
0.6077582257361313,-0.38026170230458484,2.0436849817808493,0.08784174073261655,-0.2051367823822906,0.005144100014041452,-0.0006729837147005218,-1.3193794106518482,0.06287443347250367,0.6204591176217973,-0.10045030545512292,-0.03342992018684565,-0.9073131241333421,-0.484683498510617,0.15625
-0.4592150388301579,-0.31228788845841376,1.9396659798341593,0.7721178344973223,-0.113275979297134,0.05975367908690482,0.02591454713954419,-0.050798520174453764,0.042711442446514945,0.5320706197824161,-0.07072094773867754,-0.0669597833147249,-1.7510055724734461,-0.5481481413309057,0.1640625
-1.4804946660635059,0.5219668538472603,-2.7520326255041727,0.3708146847347715,0.3416330567748976,0.057674290449314075,0.045552791291638695,3.0447421812582953,-0.12188649056026735,-0.37677854411755435,0.13089823512159923,-0.03252682407958848,0.1861059566483383,0.06828297712422508,0.171875
-1.6317636066789805,0.6584012195509166,-3.4366035006443814,0.06004355452050655,0.3680318503717047,-0.028512742680151207,-0.018815386853159477,2.7331245168330405,-0.07018328572235637,-1.9839924330147416,0.2250016645274883,0.10542364731160277,1.2842952451522045,1.738657063395488,0.1796875
-1.0244824912523944,-0.2811767543747193,2.0259098702671845,0.6434921946420621,-0.15485952705907483,-0.07703528369078866,-0.08979559585548577,-0.8037311129104274,0.18717158565377975,-2.4036938028945305,0.06817696745228806,0.17203825984439722,-0.7844600579691793,2.5211011613815706,0.1875
-0.5230456302028607,-0.6239629875994592,4.206626839831797,1.0086731213746103,-0.3564602584425173,-0.06184422985336369,-0.0925236445690251,-2.7639292678286846,0.2340505717381615,-1.486076630046955,-0.05178136348383214,0.13305577134694282,-1.3354977350114428,1.7097851665293538,0.1953125
-0.04540067615214227,0.398070427644385,-1.3020141724506236,0.10487770554034596,0.10049027987954968,-0.06360732651349593,-0.056579944098159446,-2.0241935656834484,-0.0561153161860409,-0.29739382386784097,0.039372300618816684,0.0925675390288341,2.8464592851090944,0.2633862237480881,0.203125
1.4585370548952914,0.9730744746297786,-5.3936535339201,-1.6300549745666428,0.3514795573372915,-0.09641314681833488,-0.023011658170633782,-0.9263570956637417,-0.23699411421094588,0.5743159083671701,0.09314127457523491,0.05509643960746299,5.441372031308439,-0.6387334711903057,0.2109375
3.771299380733247,-0.2458195990445708,-1.0031851247614625,-3.101873091310483,-0.18787060550297394,-0.10728182051249856,0.008513759140500276,-0.17844145076284626,0.008529294969920534,0.8322425296237649,-0.06932518555871277,-0.02479813033449123,0.6993745253724332,-0.4021334588279599,0.21875
4.441147763903958,-1.6021399877795044,5.326153961850194,-2.842963460493174,-0.7631937234287997,-0.05104852817693242,0.03994926617352231,-0.040234849167774346,0.2919227109850969,1.0889778762299513,-0.26287827536719033,-0.12131418212287469,-5.198458901077395,-0.30992510498259634,0.2265625
1.6106638364931454,-1.0699444701877459,5.355481597943016,0.25046100224304185,-0.5090043061134097,0.08912827111442508,0.06201417812206503,-2.0433696177061247,0.12155829231136747,2.6192788679819965,-0.3026394956931551,-0.1994536774810548,-3.649838548256431,-2.3372886179931482,0.234375
-2.6290698794598737,0.5032756706827771,1.3105531628880884,4.08656248925118,0.1884773570119131,0.21248250120672604,0.05128727736742392,-4.782626376696521,-0.25725364824489,3.9091507465712714,-0.2028330197477536,-0.1977581645245038,2.2863742313874305,-4.477357522492801,0.2421875
-3.9767858825138154,0.9831907164635355,-1.0148469998674328,4.079416880087737,0.41943477049714417,0.12619272405453288,-0.019539369231156078,-3.492648913980088,-0.23977832155531056,1.2086091605025637,0.013438729270916409,-0.008259922147223405,3.8053262281376137,-1.8802415178339116,0.25
-1.5548498602259266,0.24120293137562157,-1.6124962248386996,-0.32620813949658234,0.14583213553245228,-0.1338971712047261,-0.10114619999378169,2.4507345219263628,0.13981267360492408,-4.350804997595148,0.2831148957214859,0.2710996096926305,0.18731409674569272,4.361923577801045,0.2578125
0.8464029103882612,-0.258516124646244,-2.5478515913210344,-3.6758267918087086,-0.003851596219766497,-0.2374555191057867,-0.08025455861577847,7.25055573175737,0.2973597110804096,-6.262212000219704,0.38630302965347313,0.3092667268489264,-2.710513940382019,6.685052590629946,0.265625
0.5183077534678626,-0.1070293284104404,-2.404139201810437,-2.3816524257277147,0.10333975192524747,-0.05913931902374336,0.03315708044374588,6.582126692925937,0.09393723912601659,-2.662085426386423,0.21615367944317437,0.050850426583878575,-2.780442255505367,2.7941655800206995,0.2734375
-0.6558522540057662,-0.07446672760891686,-0.003391845036868099,0.38052263079259235,0.07888495117406909,0.11026104096728448,0.0867322702980318,2.630641964062144,-0.04910803906509196,0.8597201606217089,-0.016017169773129426,-0.14343877193469762,-2.184912581951875,-1.0202116742873377,0.28125
-0.6355277933577492,-0.12558582832594425,1.4063938957287123,1.136247886620461,-0.033739160815024,0.09200401327225856,0.042845057095570155,-0.5626458626178262,-0.033917676862365284,1.3575597692591024,-0.0945396089677427,-0.1099604362975392,-0.9608718178524327,-1.476264171562265,0.2890625
-0.7833761446152471,0.5435271082412163,-1.2521105402510169,1.3390740002801216,0.2190600588198923,0.08432107489846469,0.032828495791475384,-1.9678518865186034,-0.20729906261828346,2.153300583799815,-0.06456288320774778,-0.09997718686661111,2.4652905942671244,-2.4585243888577355,0.296875
-2.0012788841694267,1.4941469079799417,-4.930338186076194,2.3774309244150618,0.6668448701709869,0.1698310401906882,0.07942722828364336,-2.18528459630592,-0.49630745805933857,3.8603103755287376,-0.026948604871726182,-0.18603762773782415,5.797117650025155,-4.615412664590874,0.3046875
-1.8953641531114305,1.1538681811194287,-3.7487818934164,1.9487900411033583,0.5207396310141134,0.11646723411208308,0.04527393019173842,-1.4587341211714993,-0.3538461098642928,2.343201628349544,0.013739723816700876,-0.1048249082744857,4.34969234067863,-2.9290673578475817,0.3125
0.7355282882412832,-0.5605845260995276,2.2909914064421906,-0.712073095697106,-0.2990214624893649,-0.10420767343615485,-0.07033253898936635,-0.5735539817506338,0.2159250080949681,-1.8305167396366582,0.008837079315956894,0.12960699809482162,-1.3975421503977072,2.1650468051614524,0.3203125
2.8984588895251413,-1.6986969351684509,6.560612942708235,-2.1879822607232207,-0.8459118959480911,-0.17778216566034757,-0.09360608797871152,-0.7529070073706992,0.5022549999166961,-2.597430934647305,-0.10512650991122648,0.15375869162290745,-5.133860447898369,3.4753266624169963,0.328125
2.297512003209143,-1.1425199589674877,4.981677441292336,-0.8414124266754858,-0.5757916195774623,-0.018296308422630827,0.004066377391095853,-1.7982088433214778,0.21785975814987282,0.918788028965018,-0.22237709537818867,-0.06848344721998818,-3.3174237784398697,-0.43652189992437296,0.3359375
0.857353597137971,-0.08846288858773055,1.0298773636814127,0.4237177776972906,-0.08414537816153288,0.07532047146347148,0.050721854836432316,-2.251949191814439,-0.09875246911025688,2.774016200741514,-0.1819529886932707,-0.15716756598670878,0.44632305038291686,-2.794427602083133,0.34375
0.59602801457007,0.15317800307464274,-0.6065127556752248,-0.27357101785294,0.012081989408255247,-0.0346750283995578,-0.02001580910380498,-1.4222617546364336,-0.04224220025626965,0.3918658591143933,-0.018147381161600293,0.01903490054906151,1.6008731267383238,-0.35633485752595273,0.3515625
0.45808657148623927,-0.1020159707547585,-0.19639362860317977,-1.065117451239493,-0.08332146938441796,-0.13502359945263082,-0.08183459186874098,0.2791990373508469,0.13795083070297248,-2.445077557776477,0.1139477070835205,0.18136907521834,0.26260394591624037,2.672408773628566,0.359375
-0.5207921520501726,-0.17052776339471318,0.11459918274234895,-0.5886572374997583,-0.045269325946237546,-0.09556241168595402,-0.06217701542518898,1.974812235634269,0.16760215653433172,-3.0200975177320193,0.1560493305056519,0.16836581033026898,-1.240395016275474,3.158261781503599,0.3671875
-1.0791161300191827,-0.1217850170018396,0.1973222946020939,-0.0006651374892924061,0.007597502552953286,-0.03996528689910818,-0.03243348163074973,2.2917322734473355,0.12557569298759555,-2.4211803109071064,0.1360251775371329,0.10982178376064405,-1.6153972823798863,2.4409359858395545,0.375
-0.365612453195789,-0.001353543095757202,-0.19302160540817248,-0.16010594089997898,0.010343387538901783,-0.04323178175410101,-0.030436094300010368,0.761122588811247,0.05884210871578493,-1.3423511924637568,0.07752100091262756,0.07946587518335858,-0.22436839840882822,1.3748820286402372,0.3828125
0.7641480871251352,0.3610428272445166,-2.068909345692724,-0.6867418883982752,0.13033191837239064,-0.02446616999058105,0.004873761614297016,-0.3884476538581659,-0.11005852118965892,0.6560110935345052,0.01226523685831611,-0.010623355616059973,2.045587207260483,-0.681284648659492,0.390625
1.5998843224024317,0.5944516192323384,-4.010648208321763,-1.385647020450174,0.28018467619954346,0.04279005810467335,0.08946666140344552,1.0247083683793796,-0.2663629133819491,2.52088782198725,-0.027042350016861793,-0.1625272593939823,2.3512677267969986,-2.6479643606879417,0.3984375
1.7031310572165377,0.3574782820192919,-3.4675137256305595,-1.622661373645992,0.23442682897436243,0.0835560584154053,0.13273029331225988,2.758913208687098,-0.23793200266990114,2.686671748374827,-0.0419677188309927,-0.22914224915404394,0.4377300881553314,-2.7939079471286896,0.40625
0.1520399499230897,0.20832513899481656,-1.2491396924341684,-0.0346053003349685,0.1356525575495731,0.0729324720311959,0.06839745894350775,0.9189155570503866,-0.13128157951208913,1.554254814167978,-0.03574465793294014,-0.1287892664104361,0.1669459153895273,-1.6976162624656277,0.4140625
-2.5810904939327606,0.5220083708158669,0.18818839917662997,2.8083270249631864,0.19129965675122887,0.05897807088976585,-0.039049938030751886,-3.159756718046733,-0.10733075427329845,0.47310841571713164,-0.004600252538680123,0.03199911597007216,2.46603912142779,-0.8470108601452131,0.421875
-3.9286048516857073,0.5669001964992044,1.1060349497412068,4.057720323311865,0.19888984012475708,0.06285134249803002,-0.07756636367790473,-4.239806514986287,-0.07177978638040966,-0.21843217110760763,0.017314398082096477,0.09498664058323075,2.6852818508804246,-0.25186415617377134,0.4296875
-2.9809870145304136,-0.0058048802500692874,2.193425537241321,2.781868046319972,0.027098750205109084,0.07242013498745035,-0.028265909657638567,-1.0273621042773995,0.04915549646919413,-0.7234384340718959,0.013789098959282823,0.036880631249866264,-0.8656607621413875,0.4570387768281654,0.4375
-2.2337257490418656,-0.23816458215399894,1.5443497709050296,1.441155126561291,0.02434713962924105,0.09413989207326183,0.03653042106346543,2.753985753312534,0.07771258430374314,-0.9690970812255277,0.051413773361416996,-0.03665312373885477,-3.331123409721767,0.782409228586616,0.4453125
-2.932756788215469,0.25730640384066056,-0.9773667615279203,1.5288852996901596,0.29509924990470965,0.12323281517323623,0.06357636453900727,4.213742528298219,-0.04761136955580441,-0.879592649823241,0.1340385296479416,-0.05724180684498533,-2.1974876158352914,0.47329603174722434,0.453125
-2.0069483409811557,0.23429223212904698,-1.018974757357847,1.0141051406127497,0.23625954675108385,0.09365917222962562,0.053790534034002295,3.1248416015831992,-0.056978052104989386,-0.4155592613235802,0.09389040168024854,-0.05614288747364797,-1.40500931723237,0.10850687001915119,0.4609375
2.992680788200524,-1.0544147056318516,3.488913340455931,-1.9848418480287155,-0.516316932972208,-0.057106508101461104,0.009904370192394324,-0.23413635480013284,0.21011045989864727,0.3787185356227359,-0.1588535174470342,-0.048243573494948455,-3.1935385246996497,0.16800409490006515,0.46875
8.574323988649134,-2.2848908829078702,7.467442662127649,-5.54649833876063,-1.2783453546735333,-0.2575116349368409,-0.05881552544965394,-4.094642131108202,0.48275754147987276,0.8706449835697108,-0.3946354788271369,0.006340212446806583,-4.09936696457819,0.6116346217621701,0.4765625
8.745592094240354,-1.8474312339952557,5.359762563573891,-5.969086579722427,-1.1294076908188118,-0.32261833851781985,-0.09939644165155323,-4.830072117924536,0.4171959226903375,0.3712871579745388,-0.3205681200570833,0.09124862669296757,-1.5516495073410508,1.0810425044176308,0.484375
2.911522512186051,-0.045474086745470696,-1.0095655098505423,-2.467423338368382,-0.16435650022247164,-0.1849454439642607,-0.08054467653076487,-2.065734503157769,0.05662478687424145,-0.6869096518966198,0.004692733489113474,0.13757141335785564,2.483697975695392,1.1083022683197197,0.4921875
-2.947197873308604,1.4368464167952877,-5.448811162907195,1.530102556218203,0.6530077665979717,-0.014022865590679043,-0.05177151469821394,-0.021401865703388773,-0.25243641829179914,-1.2281694758727846,0.2500651057948647,0.1409523126712696,5.288504286626372,0.6662344222593538,0.5
-3.6912903844961913,1.5806487427504468,-5.588308300986959,2.243897127831105,0.7299525199439337,0.021608905250107367,-0.04343021827359657,-0.2047404792935607,-0.29526278360155284,-0.9416782647790019,0.2508422832601182,0.12150863037559648,5.569530118537374,0.25093774169590194,0.5078125
-0.9726732492219732,0.8789462536305521,-4.15491718781904,0.10395204821659852,0.4209283229063839,-0.0005946995893985039,0.004243112157419075,1.0651337060336135,-0.1926316099025465,-0.19484281779330911,0.14254680897067232,0.028576120724587525,2.9831252407096396,-0.10948455781816703,0.515625
0.1988028810245862,0.3447417989274789,-3.248518505185907,-1.046558350321829,0.28392312239670375,0.06902215136059273,0.10215725982846259,4.344394105699714,-0.14952443490424583,0.6948803328085351,0.07587842269620133,-0.13367128921806465,-0.6650852087430668,-0.8712355694406365,0.5234375
-1.2423907564042174,0.17346636558352196,-1.3629094773396961,0.5726018234517394,0.2522950270396456,0.1644435622869381,0.13066941690265826,4.218957971727628,-0.1360875153046513,1.2519889613975677,0.019805950329629198,-0.20415972610557356,-2.2520972643163115,-1.5881520149491621,0.53125
-2.1638157189143103,-0.10969709087808004,2.3352418871007057,2.5056599136060793,-0.00213692169043031,0.13475538554793506,0.03478405454715153,-0.8031422877838397,-0.01674667718786361,1.020440068815812,-0.08236142390294586,-0.09834164225379467,-1.464291035546012,-1.290335261169161,0.5390625
-1.295909558088524,-0.3976336743890981,4.314993462091369,2.3785126264384955,-0.2565350457298971,0.03788679038965244,-0.05029096864432371,-4.179663054186588,0.10201303130713356,0.47508286693847795,-0.14166909066296243,0.01748113132991999,-0.5164538809410758,-0.4857173597998018,0.546875
-0.8233829794608947,-0.004758574708453652,1.2355612169330967,1.2364521658788328,-0.030535444009980896,0.031301837461627034,-0.01363248422412103,-1.7959413398396835,-0.005555048958178927,0.4659486285025908,-0.05221279400746653,-0.007379643591280488,0.3189613498645522,-0.551343752720652,0.5546875
-1.8987146012803864,0.873881830808154,-3.7751355670154974,0.9903644818022243,0.48422459564337833,0.09264035998198471,0.057153767272767574,2.0554662235335193,-0.23785503810512956,0.6007009984566577,0.11419685187561811,-0.06947869721352916,1.7934584490931558,-1.0778854589024567,0.5625
-3.084654987134653,1.0189943047606589,-4.176115285361973,1.5993992517530686,0.588796331752512,0.10405603281162952,0.04865869812021377,2.968859403020872,-0.23388193765516846,-0.2643227822695194,0.18815555911386342,-0.031341498730553564,1.612958830170354,-0.33979734235494896,0.5703125
-3.1734262163057503,-0.005942766327076609,1.0887375176657916,2.051455943968101,0.10895624987566979,0.06437339233827888,-0.008638949799475664,2.0771531669368715,0.08007158181054554,-1.9117566892385272,0.11848324516852389,0.05355011336427549,-2.188981360317762,1.6417998040729023,0.578125
-1.879207496271444,-1.1081762166478077,6.156014474975874,1.5863979983762493,-0.4410962939793778,0.004662379592931382,-0.05401102290502563,0.6448696155662564,0.3736529378990876,-2.7369950612729883,-0.007901491593339811,0.10177556629139246,-5.575564975007152,2.931213840046289,0.5859375
1.3092312734842422,-1.2846552318477373,6.090144671715662,-0.4947495534845589,-0.6655759215964187,-0.11432534485169495,-0.09254302903497987,-2.1671980114638925,0.38897626941690494,-1.8419247626687016,-0.11084170081221435,0.1317675958163184,-3.5767360186949118,2.4279759133850054,0.59375
5.354063401335944,-0.8876491287169979,2.5434743169515466,-3.5825425210206703,-0.6388540569090762,-0.2427693970978207,-0.10172741660831174,-4.42748031327614,0.22558008633419238,0.0022801678315788445,-0.17346085109758919,0.12211770379392657,0.9328002414696768,0.8762901548658526,0.6015625
6.919155063559622,-0.7101522038344281,0.33710533915593865,-5.044972470210603,-0.5341543681190399,-0.22261118408311584,-0.03335836132359092,-2.9479254833791164,0.0996111402937122,1.464014286538167,-0.19749291413689415,0.006616058936138383,1.4331464430139926,-0.5691453841138061,0.609375
4.947650881119468,-0.7188576161826794,0.5739817180581718,-3.6907374741610983,-0.37930922122931143,-0.0648738835468603,0.062216288559657454,0.354044384618497,0.04790063793381318,2.0196177075301818,-0.18256444452493942,-0.14175017202226697,-1.3894580962415461,-1.441413906675295,0.6171875
2.7089504209007185,-0.362279171426384,-0.11658282518629284,-2.0038333375711668,-0.1433475712981587,0.02856493014189573,0.09126808678458682,1.367307864214346,-0.039790860276547435,2.091509913593104,-0.12783025283228205,-0.1803224153934815,-1.4508878162673347,-1.8657722919520197,0.625
2.266878516334051,0.3733214106513159,-3.2956388657655586,-1.9529910632418337,0.15312008728710444,-0.005669429094841831,0.06416713970872051,0.7110321571718112,-0.18940792762884714,1.9760933778819594,-0.03273445804691832,-0.11722458193154005,1.989670973198917,-1.9402309771519684,0.6328125
1.2981375829290893,0.9307347248448501,-5.611636998342858,-1.6237846766949608,0.4036651355708527,-0.028626037380422676,0.037146539575875444,0.8735628646345722,-0.2758045572455096,1.237900635554884,0.08007619386485955,-0.04329173357507621,4.11247305255934,-1.387875152521793,0.640625
-1.8028749850900767,1.0331299507834149,-4.3169294466509625,0.834770926438409,0.5002193003740326,0.025702763073161796,0.003910670092799581,0.8521892988998764,-0.22586530189582613,-0.1467420182150502,0.15610380210679378,0.027756953223788208,3.3464870814239664,-0.28511188888160643,0.6484375
-4.704965121145898,0.9541942775695066,-1.8197350427097232,3.5655440436156716,0.49296704020473525,0.0947263192683716,-0.027559122941524832,-0.1955438280881415,-0.15473544930555436,-0.9721739715306206,0.16504691492864224,0.07129137322424679,2.2292219188252695,0.3034563208868722,0.65625
-5.60108515653444,0.8960628039995427,-0.9076203289682332,4.50765609000552,0.4917019705560784,0.14547077403873154,-0.014845526871021461,-0.2641134693102894,-0.15101952112147457,-0.7500864039459433,0.14312022041496103,0.039775449155450865,1.485216062008052,-0.019946648807081503,0.6640625
-5.539214314952572,0.6563769930768886,0.02726050342599851,4.410501801133839,0.4003088965998752,0.1453386900551259,-0.012926956385324326,0.2522194469809828,-0.08641142988517166,-1.0884572129395196,0.13521933673197997,0.04016974209986043,0.27003329101630136,0.38928528062645557,0.671875
-4.716354019419706,0.13606868144036785,2.365807428671545,3.792038033798542,0.0932240795864944,0.03321413652408207,-0.09505353263610296,-1.1465616216358072,0.12115567704320132,-2.7611016666746337,0.12969130923687164,0.18227280603078133,-0.5339868643428037,2.40096333460518,0.6796875
-1.9506606504796415,-0.37072669818569776,3.344818511751875,1.5217744282528503,-0.2231701384308528,-0.10220145924914503,-0.14235396255184213,-2.0052301464452347,0.2687176971068071,-3.4224861094213868,0.08748903230032103,0.2610112766224995,-0.8067211164907019,3.542772191489854,0.6875
1.2288958808329464,-0.585828243122981,1.395500345185389,-1.4445679051226046,-0.2429257807941499,-0.06314764296467146,-0.00855115410522976,1.7069816482631786,0.1733990758262217,-1.271336636636097,0.011688506536765297,0.038085553999709074,-2.527102131854197,1.5897757676649575,0.6953125
1.4675046771131268,-0.459073139585706,-0.5388517820120781,-1.878471959845785,-0.021318793947051235,0.11426731884563389,0.16512124572883224,6.035812898530092,-0.021714459307594972,1.3552703467816172,-0.03891876251892476,-0.255945225785059,-4.640134939967963,-1.2868358953919603,0.703125
-0.5876940681052427,-0.07814851027798943,-0.5093385079030107,0.187233325194455,0.13828801031130444,0.16716919966192698,0.14414655206378604,4.300921180030538,-0.09786436530070632,1.5708348454384116,-0.027748141837562457,-0.23707310656882624,-3.1752021013888134,-1.7990278320375994,0.7109375
-0.29763161260157234,0.14858211675168176,-0.11956774505241675,0.5326041156750666,0.04526150076592249,0.01629505730745189,-0.0018402705746112013,-1.0511580432387353,-0.05100569874790911,0.5521628016007474,-0.023334885319604193,-0.014668401018489078,0.897375128028328,-0.6325989329618958,0.71875
4.274116395717008,-0.3569527042906704,0.4120187328981162,-2.820681990769716,-0.3499412663170199,-0.16553148663291403,-0.05515937757348989,-3.5816165918157425,0.0571711695195534,0.9372705545082854,-0.13814177309410625,0.04726797611580054,2.113374504614258,-0.3708701485191341,0.7265625
9.105193287470453,-1.3549640607168278,2.641510620056907,-6.2675855044699205,-0.8791772601774572,-0.25788499699505546,-0.028942963693307275,-4.038706699720918,0.210506296107408,2.2289338854315313,-0.33444683459004787,-0.03618385803504471,-0.012244933688595042,-0.9767626086020461,0.734375
8.448830840628052,-1.6018101827753413,4.604068234102156,-5.325838355832715,-0.9936498512599855,-0.2296878642512345,-0.0379380099019563,-4.945804568179093,0.27274663214858397,2.2465281122823804,-0.3835180205759015,-0.040427062366155474,-1.017738278165981,-0.9998866238317701,0.7421875
1.4999449409932384,-0.5293401410034932,2.811467296444422,-0.25457854606788183,-0.33294862156111543,-0.030134998831424297,-0.022513888228585993,-2.918936358158589,0.0919454224299682,0.9579293425964838,-0.15897288216594788,-0.018818256841472616,-0.41705875875202086,-0.6813770042290825,0.75
-5.470647641388339,0.7076591902371457,-0.9971258951056996,4.123976734571718,0.5143497288209773,0.23052664917721538,0.07334359532870424,2.763047315827336,-0.1735704037705457,0.005386442290906731,0.12431008254136573,-0.09927781397430706,-0.9769574349320725,-0.8249843005123441,0.7578125
-5.552348942281325,0.869995738747037,-2.4353595113489424,3.6986113221486274,0.642610192125451,0.2483457579304209,0.10569990152456435,4.719127757484198,-0.22148416816036828,-0.09252581170926526,0.17950502005511904,-0.12888264217820575,-1.230700771071084,-0.8001056061035119,0.765625
-0.2927721894097439,0.40173272538940147,-1.8872937365864368,-0.06557820397671234,0.17480915724355295,-0.020443737716730963,-0.011468514219703808,0.1245706160713428,-0.07795576477629598,-0.2448812242543301,0.06795086416894602,0.03478927450959524,1.658013445078232,0.14092698787427127,0.7734375
2.08016621379882,0.4289883937589582,-2.499651171464297,-1.8646181782457556,0.014226424681831334,-0.20820983536914953,-0.11851008860662884,-3.1980336001338436,-0.019177778773126212,-1.0393073035047393,0.06820312792333372,0.2087368969034731,4.8395851973441495,1.308085407610679,0.78125
-1.200612285054322,0.8801090258960628,-3.6550956322366797,0.2130266629858225,0.35156934294085446,-0.09491825992020553,-0.08313675010049318,-0.5996135862795525,-0.10017039430177144,-1.7851994412663024,0.19763839741038178,0.18777339080415192,4.101584055735876,1.585802319237587,0.7890625
-4.061907423119052,0.8978695985871896,-2.976099250021737,2.3242502146409367,0.5298946376367047,0.08142652399575238,0.003772520120968821,2.5694309045403,-0.1402608518620741,-1.5330909419553915,0.22739330371281655,0.05546166381182786,1.0877738598906606,0.9333522606725759,0.796875
-2.5843251134137426,0.46193024293173857,-1.6738624523971302,1.3705444944419274,0.32176566723497096,0.07297245090281988,0.025080851234764945,2.6165936173241566,-0.07630102401034196,-0.9305618867888623,0.141827903720258,0.0014622668104292925,-0.29867404574930606,0.5534465509834031,0.8046875
-0.4474974187028104,0.23935113643115435,-1.955718556909599,-0.6157993469190712,0.16307187893800684,-0.03735263218751826,-0.0071486145659309195,2.4915561349858657,0.00038653612148881097,-1.5351863570948956,0.1446376816256627,0.0671174949594052,0.007792220176630117,1.4888382038383408,0.8125
-0.5668844670699761,0.23850344365073012,-2.1409129348526514,-0.8395609626822889,0.1628274097874771,-0.07610093766988388,-0.03330495023967922,2.8883123237862107,0.045091916013989486,-2.5133894187562276,0.19908333830940445,0.13192980803315305,-0.000893184621262577,2.508730074531628,0.8203125
-0.8674193477059426,-0.10719462559951295,0.6688647348577549,0.47722631855126035,-0.00916241821914893,0.010563272201749978,-0.005187438309786261,0.9049662589396672,0.05698095903694891,-0.8402900351189174,0.038918199169989835,0.023791500925192346,-1.1562738361775657,0.8046650267372576,0.828125
-0.6867298526663022,-0.6864824387279626,5.0941728078575705,2.4028271758972934,-0.28881271145367854,0.2006337124700022,0.09055420800885283,-2.305559736421688,0.005387345722935862,3.386420070354935,-0.2977528423425981,-0.2610110238746014,-3.166970506218779,-3.4890487586959438,0.8359375
-1.7996167983648033,-0.7633781652264287,6.725751031047458,4.169903680271015,-0.28758387611790004,0.34072775998814725,0.15329338597251732,-3.110660318831914,-0.06687822253422478,5.385861004222583,-0.4225579608890834,-0.41711198740847755,-4.199935570424561,-5.710474892457041,0.84375
-2.189381179405797,-0.3576891240569725,4.2793097264856,3.318852132979242,-0.1312056966918202,0.19373320410855113,0.05649738709056093,-2.3043371288975587,-0.013236483121427466,2.336291873317153,-0.20395121538586325,-0.1805379527899598,-2.193949359052112,-2.611151886092148,0.8515625
1.5319068320025535,-0.37833104869900785,1.4357921559600848,-1.2908906297602725,-0.2978864419543486,-0.18084282496729476,-0.11825875616894917,-2.279359322132427,0.19937518812427463,-2.0258145413271387,0.020190164681717294,0.20692901103776717,0.7228602408361101,2.454399468540663,0.859375
6.4906462649236625,-1.086486369154399,1.6386209592194985,-5.711639953351789,-0.7212798399931286,-0.3890962649292909,-0.158542792945091,-2.082629765019718,0.3847221485160239,-2.8126164294614124,-0.02275032994810909,0.28863591416654166,0.18041128540296114,3.999783364441548,0.8671875
7.224975615737151,-1.4632713677070206,2.9410078690098818,-5.801584382114872,-0.8274814499501556,-0.2739929905224472,-0.05667743421786206,-0.9382483346688826,0.3493119657602769,-0.6267435123490773,-0.16498240706305628,0.07963156985039313,-2.2634507190980018,1.8167066519946473,0.875
3.933156577607278,-0.6192651154869779,0.7991630245014472,-3.0306497564254666,-0.3567859818281672,-0.10673835712068162,0.00390703373339572,-0.3751754541254817,0.10074876291950448,0.6541657852173313,-0.11350348335975993,-0.026871763936991172,-0.7555057796115684,-0.11002979343000326,0.8828125
-0.01191317733489381,0.8859494617936893,-4.480684828409339,-0.575709078378319,0.376610077523189,-0.043554080466043116,-0.011435950280086607,0.19642653471756324,-0.1975178095595634,0.0003588650145224528,0.12322825006287104,0.04756462073706812,3.8868490945906844,-0.19477146130497802,0.890625
-3.2575261759987844,1.7093406691086779,-7.4843362907926565,1.3321302567507107,0.8774891629761746,0.07090250748249473,0.033189366604250266,2.8709319193593092,-0.38091052558975824,-0.33728682546649436,0.28368712418180964,0.016260398975962986,4.699708350797402,-0.4289687237509922,0.8984375
-3.966557102599115,1.2866775636670988,-5.635469047440018,2.0957695061191743,0.8158463331123883,0.2208958387904599,0.13813058262222555,5.41555696297016,-0.3702954860981362,0.9052322062373467,0.19956764207688293,-0.1752718638878535,0.8610321385070078,-1.7875580345061675,0.90625
-0.026053093255820486,0.293209393977761,-2.456847850819385,-0.29147838995036907,0.27451769379639196,0.1505769778029644,0.14761804736909712,3.7846728663446427,-0.20802966886106858,2.2284846833768,-0.01662165096049905,-0.2455498867412706,-1.126305334107028,-2.5077443889033897,0.9140625
4.628585905634828,-0.25610772607130194,-1.3110541091261434,-3.605746077287597,-0.2045003462770778,-0.09833270136810553,0.03274880848089548,-0.38254049479594104,-0.03460577101985852,1.7665751771761071,-0.11845318530366127,-0.08106137789551927,0.9595180636766159,-1.2962174740942463,0.921875
3.157089943870335,-0.09207902288910244,-0.8723168562864881,-2.5628541227268187,-0.18558335051343666,-0.17485765173694046,-0.06888036752118515,-2.1003552909252714,0.048881506671201225,-0.3212453989927435,-0.019837470102952236,0.11067506273329294,2.3240744161143128,0.757064367376918,0.9296875
-3.337950050051946,0.24191005093501422,0.9038552249948344,2.486074349974706,0.11905294926681485,-0.00643228026694607,-0.08553699117892569,-0.8443434335895444,0.0746701815752236,-2.3810104352642747,0.13264146426651063,0.17134001209146518,0.4039757501385266,2.1235202697546587,0.9375
-7.531226054759447,0.29455216893118813,2.958202049305643,6.020259684642148,0.2564877976969312,0.14208175213047225,-0.07176725651838753,-0.06572007819422192,0.09652781480248135,-3.0789130230401995,0.17675023622802963,0.15232917429495976,-1.7165223440725463,2.3693166404950077,0.9453125
-7.232471099761318,0.23915924522253285,3.586123846830959,6.2881238098220384,0.20740425475372995,0.17098512101093546,-0.056720838475963105,-1.2301207797223528,0.06522775497641661,-1.989620288269246,0.09821035857599442,0.09591506041172823,-1.5187695859585513,1.2773114338900686,0.953125
-5.618736858058041,0.288812208666583,3.1392832561085107,5.663151413277521,0.17723206340225406,0.19523917514460992,-0.015795583749743828,-2.7818867203892803,-0.047077516616499594,0.3112762756554969,-0.029474109134489127,-0.020666430018032252,-0.2897571383481655,-0.9728181446544936,0.9609375
-3.1607686649676467,0.12515947507601208,2.672183066558566,3.9490658758958195,0.06719611295129496,0.17931703010333974,0.025745206689215764,-3.0013736393501977,-0.09197047764907113,1.9282712468051053,-0.1304553943872049,-0.11672851399233371,-0.06830158565150884,-2.378745325737221,0.96875
1.5658543697814256,-0.5209294812361652,2.2655545999378286,-0.5155541106938578,-0.28088174175667324,0.004304754352802007,0.01754464855618321,-1.440286313614425,0.06082509992903595,1.2895525341264524,-0.15287084999894845,-0.07778054638596285,-1.1596939873448293,-1.0557921482354182,0.9765625
6.553116687327411,-1.216941520165302,1.6067511551347344,-5.557730899532115,-0.6507776668659349,-0.21633867265040685,-0.01125448731688388,0.7584378788902383,0.2635976114870588,-0.2658710050377966,-0.12630866671686464,0.017708365477580087,-2.426509691880272,1.2724315118925116,0.984375
8.590510223764966,-1.345210063030139,0.5572948782565426,-7.615453109760812,-0.7218839673668553,-0.28519394609303855,-0.0033325053962773537,1.8584880018426608,0.2847857867882787,-0.37908233830995963,-0.11754345237654558,0.0209556509749686,-2.4761131892494785,1.630640623095328,0.9921875
7.0163672235987065,-0.8121390944038935,-1.137974778227083,-6.449254269767094,-0.4495004506991022,-0.2300034282848027,0.010011058231351481,2.0620727113409107,0.15472714902104096,-0.1090776436327829,-0.05919994073899318,0.005922783627086457,-1.051566067026251,1.0465039979313708,1.0
2.6624345638613307,0.044865299172479084,-3.163447524207903,-3.53707193257393,0.01686147332434428,-0.16260252572469056,-0.02094283323375323,2.947361730728364,0.04558318404142967,-1.7632650725430503,0.1434503577565878,0.10534793570747529,0.5640116530669032,2.114260894324504,1.0078125
-2.0945190569746823,0.7333411338874644,-3.948362967183758,0.027754203443313617,0.42322453696940987,-0.047781208015553384,-0.03335039175483792,3.615597408334764,-0.04820412129219159,-2.9212480278631037,0.29428838815660524,0.15562451270406327,1.1934602488059485,2.649592792936912,1.015625
-3.119012661919699,0.8079243462323885,-2.433672498771175,2.2532249736271566,0.4582796300841995,0.12371894086303752,0.041428357792475,1.269984037307179,-0.20298621713574794,0.35882693594146886,0.10353581039239042,-0.05303235086745107,1.323656692896808,-0.9296962815901381,1.0234375
0.07101586171279937,0.4279793704190324,-0.4070251638181737,1.6770393472757745,0.1624615075396757,0.19628250511766004,0.11766981509688157,-3.1597976866751396,-0.3266144252126786,5.295029171466186,-0.2530812139831943,-0.31056257815606764,2.172714150924372,-5.660929431186095,1.03125
2.007872934917116,0.34595576205920336,-0.6259225305986584,0.3465104247518554,0.038298457391207956,0.11796584892760634,0.0913842740467016,-4.772263772604211,-0.31787870801732715,5.717203959839221,-0.30462864326787664,-0.2836658706896002,3.4849367856482005,-5.8457685893820654,1.0390625
-0.3728932278979542,0.6683540817212443,-2.1253265065663385,0.8947920794353298,0.26057195910202713,0.060749745418484886,0.027685073899050224,-2.0231437391930007,-0.2358867185230132,2.1679333358982555,-0.04806756118392056,-0.08644272346810634,3.268015082890387,-2.4571545860088295,1.046875
-2.879753169069636,0.521610601314761,-1.0113725331327572,2.1831727537318737,0.30469655092382164,0.09128191219790546,0.0129277832332453,0.6319926432376214,-0.10760467558729138,-0.19610043189575327,0.08366936848324152,-0.009177315132321012,0.615217992322841,-0.23937007958187695,1.0546875
-2.1901443896536783,-0.2906405127084741,2.762830171268513,1.9484847919871366,-0.09168099462748217,0.04522728244184735,-0.02564128107079272,-0.16495076216659685,0.12326346943304531,-1.1354862717435825,0.010175481754487667,0.0422420247077022,-2.0609446927047093,1.0308132740221185,1.0625
-1.0954025341985745,-0.7223393772178935,4.397416053075369,0.8643648157242384,-0.37511547207043683,-0.10991337215868185,-0.1292892545018647,-1.5081898498109227,0.33763649562635406,-3.362239854373004,0.045789355834436274,0.23494380606299603,-2.217688582957668,3.643520764130561,1.0703125
-1.8202804149556806,-0.39698487288229106,2.3421909046352436,0.5208546439475683,-0.18644700406027587,-0.15233646528388042,-0.1512076181491748,0.454476389215074,0.3310662988950444,-5.0240395340067305,0.2003274277024021,0.3274225825504236,-1.6670229544493311,5.22283421534131,1.078125
-2.3985449480930567,-0.20941330732566685,0.7988720536249196,0.7290946219981761,0.03915826852751946,-0.0034132107464150945,-0.023967676765737942,3.9117459197659366,0.17707258470866083,-3.3321949438260736,0.1904062937291697,0.11881369809563395,-3.2509348319500457,3.250677504005671,1.0859375
-2.05254042829082,-0.2967269923150275,1.190719318056353,1.0527648097781876,0.047436349427824216,0.12160242420343653,0.07427873083492063,4.352812328152982,0.06691259119847938,-0.7814295565492324,0.05807340356319877,-0.08959456192974984,-4.334122553292057,0.5853434481435104,1.09375
-1.9990050161382509,0.2187898994534871,-0.34581942740285315,1.3771576963324363,0.1799140492467531,0.07762233896141037,0.026263100240973183,1.4366895759157268,-0.04572570495423588,-0.2698454956883098,0.059974192715957074,-0.028715966866868874,-0.6806618923746343,-0.009480573955770042,1.1015625
-0.7290567860145789,0.9324719406879799,-3.6869511177570002,0.38642155247488036,0.36384267502589956,-0.03704197680681987,-0.03859721999465104,-1.44022208894348,-0.19416655547105843,0.039942641679931806,0.10209088581954963,0.07578115535316408,4.523373893668534,-0.2970832855519838,1.109375
3.356839472215027,0.4435953918432114,-3.2485644696017606,-2.4323129251329405,0.05405971485721881,-0.1085566721249233,-0.011985252451360472,-2.5245578984818704,-0.17010688277097813,1.8191240366703942,-0.06031061881829015,-0.009851963945475443,4.500792575453832,-1.6059084057157582,1.1171875
6.336051451560493,-0.7688674433676326,1.1419836168932596,-4.03491887484829,-0.507042775076858,-0.09863579438040698,0.04135719245720626,-2.6619843775769545,0.021073965418288557,3.2957886123240994,-0.29439569089525736,-0.15366865420370562,0.26114007805785205,-2.577863056257027,1.125
3.8341533127607548,-0.8579080725219728,3.0808634653331777,-1.6832511361894444,-0.4706596971914615,0.022073622820847037,0.06862265342686315,-2.3210408224847363,0.034813638467322265,3.4267073681567717,-0.3135714341825021,-0.21186195536118005,-1.6259521882134453,-2.9852291376648967,1.1328125
-1.2791000891093958,0.10897381939512128,1.033045304677132,2.0417052255701797,0.07846803254348433,0.15886309920727637,0.07228844472772043,-1.2409497663029216,-0.13822108397265473,2.5743713197514597,-0.1350563592600846,-0.18298001247766285,-0.2103371838050595,-2.882058935783001,1.140625
-3.2846835310572247,0.5357729036410144,-0.5971076061120683,2.7160500187970147,0.30593398695824314,0.11018757129540442,0.011453784198552532,0.062440753311452206,-0.11538158214051136,0.0162871711927747,0.0656392070714916,-0.017082685554561817,0.6943576270334345,-0.5015750340166485,1.1484375
-1.5658783365935565,0.2834266252470495,-1.1648479076615974,0.27828633195501595,0.14108577070542389,-0.08887463983876037,-0.08265395297802812,1.0434814932556125,0.07822495098596276,-3.0308446487397895,0.20208033150378252,0.20436319481913814,0.7348103389711961,2.9709973553795277,1.15625
1.3503395214118021,0.11722867495651271,-2.4144451954601656,-2.4030525421088385,0.027529901567222285,-0.17864363583008885,-0.07289634504350488,1.7801500028013464,0.09109526448304579,-2.766717626906451,0.18347000021483553,0.19678350796808228,1.0510591287702467,3.0396853137270754,1.1640625
4.232743874438108,-0.381940660727205,-1.4388274920016995,-4.114075533985233,-0.21231677082684117,-0.14740825901731072,0.007611057772227042,1.7861820770676746,0.07415536199767188,-0.2676026810470535,-0.0029516060980754933,0.012435438920790914,-0.3616228312513058,0.8114813503406129,1.171875
5.110998113890646,-1.260777390532823,2.6907909571350275,-4.357775360881079,-0.6483183765396987,-0.19194982867116778,-0.030094914441871127,0.6379556511649677,0.31161052247324555,-0.9909806574031973,-0.10073999662727864,0.053986262001590964,-3.1205722652315506,1.8916351990095126,1.1796875
1.527622498443164,-0.8445393641232823,2.888211433743986,-1.7359308006600018,-0.4494080919657641,-0.1928390122803653,-0.11548177899428137,-0.21260789795286195,0.3467697312622554,-3.3184428454638164,0.05210882056183512,0.2301080938121927,-2.0697462536747557,3.8916472004664886,1.1875
-3.8903726129829597,1.1284679289069217,-3.369034411449894,2.809667453415344,0.5875497299221619,0.1153975103074807,0.017390471602457432,0.6484965099392123,-0.2518553299207837,0.05354554227583732,0.1516621894953587,-0.005889251147970579,2.7558165920148774,-0.7495285876931157,1.1953125
-5.314422311835161,1.995896289226897,-6.207707445713406,5.244938282174464,1.119603709554065,0.48949646949127945,0.27014483463621447,1.5325352709103441,-0.7841731995811431,6.913870517641085,-0.06459204408251615,-0.5248566532268422,3.7474216530356066,-8.415133091279698,1.203125
-2.7698764347509934,0.48360787287964774,0.15835469803964183,4.045048937033563,0.3839340436728894,0.4387934522548088,0.2542613358672302,0.24105759457578527,-0.4407037962904068,6.848388770170728,-0.28004727565127574,-0.5465686849205541,-1.1076032488764482,-7.707401359866204,1.2109375
-1.6420862484375987,-0.9704206370580885,6.458174482192223,2.3278593435191026,-0.4325754465238489,0.06075038003908599,-0.030675074788551436,-1.8558665512722714,0.2600621374064257,-0.5907142804777681,-0.13300821279027736,0.005725002715823016,-4.148444250076969,0.6905861487733645,1.21875
-2.9074493690966614,-0.5758764982519228,4.848607258347837,2.181114776134783,-0.3141078483248407,-0.1290194832879915,-0.18915052457317852,-2.1871818228345,0.3892629283810555,-4.906223022160831,0.12918705494812627,0.35432904718491876,-1.7545817242731783,5.0611875751329025,1.2265625
-2.4285235952198576,0.10085295294665693,1.0615909938219075,1.7227351183146247,0.03144647097529391,-0.04568661201810098,-0.09559445220731241,-0.9893657850736746,0.11179100525088392,-2.5078297565828103,0.11957540561232408,0.18841946752721045,0.3388525289622547,2.3934384241892976,1.234375
0.448588410431386,-0.1907145120768021,0.5731343374352597,-0.3954127466053747,-0.08898212939860527,-0.019266633437959698,-0.0034289470582448637,0.19409367745810419,0.049702046508692185,-0.22512863654959253,-0.010730186506639759,0.00590177138729831,-0.6661718734539938,0.3300207022273757,1.2421875
2.116803244758432,-0.1610532515369937,-1.1047658406497636,-2.455968110228825,-0.10738801672996531,-0.13737219364859155,-0.037514337299925066,1.110136299731949,0.09073207488839086,-1.408271171160559,0.0695484513753225,0.10085697015629243,0.16939761567840944,1.7549838593595226,1.25
1.6604853661011387,0.7711325270932802,-5.741807237302286,-2.9562718304083204,0.29112116797838616,-0.21109212448480494,-0.07876837921034698,1.5202967663334286,-0.06779808073346306,-2.418850320891925,0.25171647095132066,0.21994345729012013,4.189004340080715,2.5696355435693183,1.2578125
1.477777559912968,0.8688148365085013,-5.685155042951498,-2.4727214185543205,0.31664826242868716,-0.18772518778515365,-0.07450687583069725,0.52338314802304,-0.11411044409013517,-1.7299346733675407,0.21562949942478365,0.19346358809055064,4.854722635958608,1.8115916156104424,1.265625
2.395119760898018,-0.6495220323375457,2.0439279129465846,-1.8642489017044022,-0.3914735956956954,-0.14659018575035296,-0.07050408563469855,-1.3943159916729133,0.20710432147059,-1.1545450198632374,-0.04520577115129427,0.11417933158827555,-0.7116247263665321,1.6653610440583093,1.2734375
3.3847631682392794,-1.9104802021338558,8.287059880383536,-1.511151110185947,-0.970709364499048,-0.09739044500598398,-0.04882007918773427,-2.729210505572507,0.451089777849457,-0.26233133613280485,-0.2784519516129261,0.013260450109591789,-5.453951513852603,1.1247771801834892,1.28125
3.743539070027101,-1.2483152846717946,5.145216996447964,-1.5823225566134216,-0.6727010142451078,-0.030133050832948524,0.016536058904192207,-2.971897849191205,0.1912787405874691,2.1048865042253535,-0.31002362567538394,-0.1192054370124535,-2.7746821849201777,-1.4926015102496466,1.2890625
2.334046351068837,0.5515227432354161,-3.1872477986525225,-1.1700880587671627,0.18663836905080847,0.04878289888693285,0.08511884445303608,-1.578159478182748,-0.30417325661526995,3.9309394278996783,-0.13992668858161275,-0.20325561271407824,3.4556156393448294,-4.0099426058913075,1.296875
-1.495284871092936,1.6648854296468691,-7.6730870927787445,0.8158189845830128,0.8502468395979542,0.1714543311523493,0.13713915695590906,2.1421929779321887,-0.544154834420062,3.272516176738287,0.09021779466898174,-0.2246008777211819,4.842759272800109,-4.050250152392092,1.3046875
-4.795699554394292,1.389156540316395,-5.583898063010076,2.966444155250886,0.8950020639490692,0.28934384771470417,0.1699189105494321,5.5729417887000965,-0.4288163070454469,1.6333266583489499,0.17780314989729631,-0.24046027437449288,0.6367790315516401,-2.6806991413506718,1.3125
-3.8423887547918367,0.41210079864010896,-0.9971645865143945,2.678784447080692,0.4092368553090827,0.23448763672609998,0.12391623145515913,4.3159473526043035,-0.1584518831431949,0.7005642213863088,0.07551820051283936,-0.18508609239329854,-2.4192195036956057,-1.3447968309705993,1.3203125
-0.15526115742908675,-0.3395929220647702,1.8790370461649473,0.38362512392587117,-0.147925178740262,0.01494872874666513,-0.0007070481404800162,-0.25177729567749624,0.0799128141178459,-0.07393214612330838,-0.04649490205045279,-0.012865320126334024,-1.4676156860690448,0.142629027895952,1.328125
1.5671949475348577,-0.6590636105326648,2.7582373781991647,-0.9720518342308633,-0.38096877019827396,-0.10434065635077205,-0.06340866894514927,-1.6917401528426619,0.20226395873520414,-0.9300222973251798,-0.06424457391157735,0.09153849269494095,-1.0950367311553981,1.3427523096945624,1.3359375
0.3011425298686318,-0.7605732967385904,3.1800984973294675,-0.23679151878271285,-0.31454280962768855,-0.013003229002832496,-0.0065947016614741555,0.8661583390698219,0.20656883832604556,-0.9896751008741776,-0.04033388341175926,0.01255350735839014,-3.4444636476282144,1.236888881517399,1.34375
-1.5599251439688409,-0.48424253614845775,2.8717022202624682,1.3422866802945814,-0.13190949584866762,0.07913862182855681,0.02390314023747852,1.3557864679114517,0.12328728888499316,-0.5643606338117616,-0.020972222089751164,-0.04069353474112108,-3.502656152881304,0.5057645491216751,1.3515625
-2.5500209243560867,0.2300534900797551,1.0691022101563774,2.403450190408498,0.08326875618865538,0.024214817203800827,-0.05706834929758501,-2.020528266110419,0.009345488476531962,-0.8043698533787301,0.03646980497986288,0.08688045672207363,0.9303870986536181,0.559002214242828,1.359375
-1.7328540092055242,0.4917681822737013,-0.16628410936169638,1.7115915081843027,0.10629670929085122,-0.07582502767291704,-0.1213097347567256,-3.92508355511381,-0.007673515376710947,-1.310788670535149,0.07124463700789628,0.19794204399160611,3.5940619511675695,1.168967115620523,1.3671875
1.579222361014993,-0.3232450865803578,1.1517554736603268,-1.1695568843578892,-0.25110043209867455,-0.13194218727246498,-0.07893434787286963,-1.9700185562318038,0.13663079799419153,-1.0498526258634349,-0.016588636451180343,0.12803054893989493,0.592640936689156,1.4027186476467006,1.375
4.207441000258244,-1.0051256268730886,2.2505807585610516,-3.4816534109310484,-0.5357847084948266,-0.16407755830735726,-0.033588527528461476,-0.03129703757894473,0.25040173278919453,-0.7408719432275973,-0.09037508264689208,0.05349419761001178,-2.1630343219960144,1.480252033981302,1.3828125
1.3712063436402984,-0.1456878903415615,-0.2814164191424559,-1.5512168301893523,-0.12327873201946885,-0.12999489057607994,-0.062025493227282645,-0.17711877383099847,0.10426359245230822,-1.5056472259526197,0.05632407193469167,0.12928051070035376,0.5190253389397044,1.79292146254258,1.390625
-4.629325624608225,1.290862741650264,-3.665212759640095,2.9672258366162847,0.6063679173112622,0.005680354690838438,-0.0834155248074477,-0.3542949038859482,-0.16297530396735077,-2.288086949262574,0.2746671071184402,0.19850727850264827,4.19584520905044,1.6446433154500524,1.3984375
-5.545006041460563,1.2988164377602613,-3.0306999394067895,4.06222157827603,0.651688014674128,0.09718225967315489,-0.039508384590505936,-0.22573806430460974,-0.21472003471557652,-1.2620309149772768,0.22407901530006522,0.1038439011629856,3.437848344227748,0.44547330961483617,1.40625
0.6367943525472636,0.03146684315472218,-0.09677493775562962,-0.15347097193592044,-0.016266251140593935,0.008818765818323077,0.01363482115027158,-0.9596932575361915,-0.050962451294087684,1.035185659375672,-0.06023139971542439,-0.04851366718947142,0.6799717184260264,-1.017284485107131,1.4140625
6.869864079015558,-0.7639770011075242,-0.020122832823706957,-5.143960721410972,-0.470172977266034,-0.13644620837812374,0.04669317718450078,-0.6678498870285791,0.043722735292652644,2.43737896426085,-0.2204908919837943,-0.12622431883973714,-0.206767046013762,-1.6419434583205814,1.421875
7.962537342035367,-0.7167964735289142,-1.9637890280130628,-6.760047910085275,-0.38725482575791054,-0.1445845961661816,0.09574659164218796,2.2659383742691337,0.007328722236983986,2.4069031917740733,-0.16726975521466655,-0.1747881276726423,-0.8758882155690966,-1.5505368115773466,1.4296875
5.449005011704025,-0.6817633886767231,-1.2323537997251948,-4.8863781012101795,-0.25673439025505973,-0.028335541364372125,0.13712037067596433,4.188347710483476,0.00011387016708017723,2.1222925507264545,-0.12559901323811484,-0.23048655358962944,-2.8839332036270497,-1.5738062821785532,1.4375
1.0038982070949714,-0.4420659841941795,1.2048905752169818,-0.49576967282545675,-0.1257003841350092,0.10011079364322868,0.10371636019690494,1.776053450165549,-0.01409479851627969,1.9007183590866636,-0.12685168929576945,-0.2034919195349214,-2.8353371663503064,-1.8463627606733493,1.4453125
-5.41536517725313,0.7899266600962429,0.04442873459708357,5.039503098911431,0.44186635879493585,0.2186366797058097,0.030002217793183215,-1.1763745514081692,-0.20563147324645,1.0027824626147956,0.028118993929051088,-0.07830501502055189,1.1086046617395688,-1.8250985987600288,1.453125
-10.017201359999717,2.052711634410411,-3.938287696359016,7.9453639647959715,1.102402225272334,0.2994486023353932,0.01400885507664194,0.11833432543448182,-0.4244612615831715,-0.29485182083649586,0.27317968660067526,0.005059571233515845,4.127154722534968,-1.2580477895703708,1.4609375
-7.463188392126212,1.4377491019432456,-3.5087834798001,5.3001820154521955,0.861334837872006,0.24094208224668567,0.048537812408207606,2.899954317615392,-0.2957484235965207,-0.7394345226630715,0.25808906747417076,-0.028049994197951397,1.406000612771729,-0.41529741249375957,1.46875
-0.2563044246616201,-0.7417326785641777,3.197865787556912,0.2775599238747952,-0.25092886391502045,0.0612452701634399,0.04219644202005203,1.8628296143001266,0.1577961354310633,-0.24245371125253476,-0.06194325226047221,-0.07537904748268304,-4.330223175022868,0.3569350672689267,1.4765625
3.153690645977743,-1.9873636919451922,8.432143347737089,-1.418471319510554,-0.9565136359214444,-0.05514461192590705,-0.01451777563778874,-1.5237291866724592,0.44643501517920403,-0.03389140139886187,-0.28335263070444544,-0.04072585668710993,-6.572848637857652,0.8502107853454243,1.484375
1.0562141688607563,-1.2226786712631998,6.107291939399757,0.01298298610506061,-0.6180916149515475,-0.05129023189321381,-0.05390018921298245,-2.235561950593613,0.32136730736465763,-0.7209841318444762,-0.16010713779560587,0.04687904834294173,-3.676355371935995,1.1935599595662207,1.4921875
0.390435040848502,-0.1598587499992268,0.6924423706965632,-0.5016861265323561,-0.13410777203495855,-0.10692378068169868,-0.0772776952561719,-1.023845128367522,0.12293352860911491,-1.6369110185245368,0.04624228095895134,0.14492362209101448,0.4038425318179324,1.8421961481474114,1.5
4.279416731152457,-0.2907898306882769,-0.6515675457353217,-3.813947788332518,-0.3324512719619924,-0.29491110085610384,-0.13401250147434973,-2.5037237761922784,0.16994435876602287,-1.8556781700385603,0.02634394067327782,0.24227636207458503,2.5906521028491847,2.5690255513395273,1.5078125
6.637409693309981,-0.6266632305603933,0.6755474739642041,-5.031159743651835,-0.6159173407530535,-0.3876892757739558,-0.17964714016853478,-5.621455956761749,0.2360873940048071,-1.2072809075338873,-0.0920254606135508,0.2772839320243142,3.6582343146840914,2.274089443538081,1.515625
2.6992596990523197,0.13500189479086072,-0.93581138456868,-1.8955796705544414,-0.15594219959028702,-0.21431411430759686,-0.1258699284218876,-4.470620721043451,0.033706509427962085,-0.5889967767103305,-0.011377303341211743,0.1944113011955161,4.347246443037641,0.9855708584701167,1.5234375
-3.116696093822501,1.1097691921809019,-4.092851095304663,1.7511614481474942,0.5655761473124384,0.04753984380538268,-0.006499311192637297,1.2481127972729076,-0.21065973282192021,-0.8368991715942029,0.2040950007300558,0.05850578912756473,3.001159844162315,0.2776831558881672,1.53125
-4.607253842645977,0.889381127264772,-3.221106032742618,2.5932323043275787,0.6121284071101173,0.16338592585935308,0.0681367675907287,4.647087469105432,-0.18434276311307943,-0.9522511615904752,0.22621926949653778,-0.04634768430931057,-0.40410236992877513,0.2181117172949253,1.5390625
-2.6554088489911436,0.19257024208769813,-0.08039843102641861,2.020585124231016,0.23584740681827565,0.16972295706775553,0.08622388652557977,2.625608027191614,-0.0945236603530629,0.6512255010563085,0.025980437737804007,-0.13866586974957607,-1.9568824254581672,-1.0800658519069868,1.546875
-1.6518025044485514,0.5045037773038484,-1.3736987473446203,1.736367057835734,0.3089101686910552,0.1725113504083207,0.09852381192319529,0.6509608295531765,-0.23310940691117074,2.406502791665817,-0.046201539478613655,-0.19544668484384545,0.489042828929798,-2.8665645165483036,1.5546875
-1.834833293395386,1.1951744630826064,-5.6355978563892215,0.6770637609846304,0.6450071304290489,0.10013119108046495,0.07677145487021171,2.7853141922807394,-0.3310211305450616,0.9230544856328271,0.15278358509403597,-0.09100905540120695,2.8346324957728526,-1.4977655204737188,1.5625
-0.4462817245579409,0.6073121903176425,-4.613118615114389,-1.45657404875751,0.3672226131135806,-0.06939389424138806,-0.0032253377831891108,4.533160922109841,-0.05808665990952977,-2.367434678987837,0.26651455700947196,0.10632470621182195,0.8774445351869938,2.2556668444393293,1.5703125
2.4306217997375996,-0.793047009300173,1.7913375098965896,-2.4098359405838474,-0.377694215599762,-0.12237037216790726,-0.03010441558594974,1.232898727306673,0.23367512359763995,-1.5252651203141316,-0.007671967743579844,0.07300782335910536,-2.5427993963225095,2.047553549606244,1.578125
3.7896473080720114,-1.0815757139386013,4.574535838988622,-1.1690713957642933,-0.5744700782368198,0.062098962776592395,0.08452594994164377,-3.0468533051229985,0.054592922388772926,4.160729682057069,-0.3913396626575344,-0.26584570446266254,-2.485485477317763,-3.709891595760976,1.5859375
2.2988022750916173,-0.19900385326830633,1.294582386227607,0.40152745506538773,-0.09540019499265093,0.2547726085450349,0.20739527417765788,-2.332562116788098,-0.3039371685909294,7.433933975044424,-0.4284661269809635,-0.5030486748056658,-0.460893260584218,-7.566175267134684,1.59375
-0.10471768024922351,0.08917774865024365,-0.12815776487910183,0.9290931224489096,0.12265854699791333,0.2042110115511594,0.15020751448459121,0.7302410229338056,-0.2166359847878451,3.8743042298749275,-0.17156445820135224,-0.31486895838969065,-0.9973789868410944,-4.166902555895886,1.6015625
-1.0666645006211122,-0.649705004268544,3.780713633508216,0.9983957812430657,-0.2779584521581357,-0.009413176393432154,-0.044440721551792496,-0.20035246408514656,0.22552940996579796,-1.6410262925720203,-0.011203414270498115,0.07588541779468795,-2.954363588329504,1.7730876348567939,1.609375
-0.2636417865565849,-1.0511712459800413,6.176132968563665,0.6213331250264627,-0.5999049468968511,-0.16945875631650714,-0.17718736308311087,-3.5592808651398125,0.43886212920075507,-3.610942531937138,-0.014323596607265947,0.2939010817668981,-2.1945827521516326,4.109981624160809,1.6171875
1.219454159109694,-0.6304103129155104,2.8634362226918797,-1.145178189626481,-0.4326682215343646,-0.23513078854800076,-0.17254160856338618,-2.730674638436338,0.33095851447142993,-3.4888838933692035,0.051931735049045226,0.3110762386824948,0.019640604481522248,4.040377321593562,1.625
2.181820254040709,-0.34828588214376965,-0.7527827070267917,-3.1920682213705405,-0.20788648157843204,-0.2501519279476282,-0.11239910683007752,1.7292954125730535,0.2507838985579634,-3.952517259180689,0.180681273939784,0.2728407452284048,-0.2961558176547635,4.497430113565808,1.6328125
1.2490443028942246,-0.36878778558155795,-0.3447254930407488,-2.350010188656522,-0.15085648288463252,-0.16339752575302927,-0.06381715158149297,2.7940342157564135,0.21644724125216713,-3.326382339554622,0.16017445989643073,0.18530138561330725,-1.5490767105088992,3.709891939695331,1.640625
-2.49254409222949,0.3066350782175639,0.19062703586754964,2.0804399782525547,0.1599338633872241,0.046159917020163505,-0.025637890229471664,-0.6294666693535644,-0.02830968080353588,-0.6346665529662628,0.05894555332224944,0.046582405667915744,0.57630094889737,0.34143833905344817,1.6484375
-7.046446040119763,1.630620778169115,-2.763924828637998,6.192004187345626,0.7967623010895315,0.21828803333555236,-0.003689074021949315,-2.274990468041664,-0.3685997455578978,0.8011464177769436,0.132684512621777,-0.008393482981258252,4.647313817691803,-1.9542937071312214,1.65625
-7.721813909189948,2.1207349442181656,-5.711416965092354,5.758729576995599,1.0681312870788926,0.1910076324643085,-0.007968802465037715,-0.02238153562179203,-0.43476414914710365,-0.43300386061482166,0.2923301804401685,0.05483946174594419,5.711912894875036,-0.8641986027969322,1.6640625
-2.632471605683119,1.1494274430706988,-4.5786078675477455,1.3541194306778448,0.5785073094630742,0.04452071929893742,0.00436457675420551,1.3356719884949553,-0.2382302367322517,-0.478738211250367,0.19373912840321794,0.03778282559444883,3.2918435783038573,-0.05849544710482845,1.671875
4.061819413349665,-0.22954999688458125,-1.061198060163795,-2.90427816716489,-0.15609323687837753,-0.025012827264720136,0.07399301539957767,-0.09314147730578262,-0.08756694792255623,2.6967070041530867,-0.15861455596669044,-0.16606505402000798,0.41058189915155224,-2.3607805130395527,1.6796875
7.263822866538561,-1.0328211744587896,1.3867253810763709,-4.675404184170455,-0.5507671884500086,-0.009445759886034535,0.14030242713661262,-0.6233650683783367,-0.02339317280623156,4.993144724173105,-0.38331115468253946,-0.3362217106643855,-1.8912077182512097,-4.26087608193218,1.6875
6.494771215325852,-1.2399767450137529,2.178872425077157,-4.635170371237486,-0.6090162967706181,-0.05081703762404469,0.10257258717161032,0.73985810755257,0.11152297309185825,2.9441504087624515,-0.2905191655758893,-0.23277637495276393,-3.370230905385348,-2.146503433302789,1.6953125
3.758508632954318,-0.8610155112421034,1.5145629837948293,-3.291797105752707,-0.4333953704747615,-0.13095720500463126,-0.009129326515187584,0.9203405747766799,0.20302277529012636,-0.577190491404348,-0.06607216466524853,0.02107349531046345,-2.256338157634698,1.2083679859470908,1.703125
-0.038126069957336126,0.16648723926158715,-1.0157664682002072,-0.4552674930599691,0.05091325852306023,-0.07780923789025089,-0.05028180814753317,0.09035521411860785,0.030167797463561626,-1.397593448672625,0.0939288581332676,0.1142386772519857,1.0447592982103449,1.4475215245772601,1.7109375
-3.361648438223243,1.0455470100465258,-3.490032933782213,2.1786827070750676,0.5468801576255904,0.0830693182046885,0.009823375355945888,1.0798675692519746,-0.21816369824187426,-0.3530067493485725,0.16793295205804135,0.017625938429501255,2.5439661954460573,-0.24635811813504632,1.71875
-3.391225684210447,0.6873928579832618,-2.0765631851291553,2.183689423102194,0.4296625392453882,0.11168851312738805,0.0331046146021688,2.1780580435766015,-0.14282665826460764,-0.4816432709185235,0.14171038957855056,-0.02049086690065698,0.40461168869942304,-0.05541909700523055,1.7265625
-0.3792267830863348,-0.6139425367863881,3.187668480465994,0.3943210818788067,-0.2752187461030191,-0.02770727217316351,-0.04018388247464743,-0.1748514458276309,0.2048396581961645,-1.4052034866390217,-0.016276014043847,0.06866211832716634,-2.5154244697082286,1.5909276037643743,1.734375
1.6391237032579036,-1.3957862041819937,6.938187965770563,-0.2504570500137713,-0.7373476369871512,-0.08585258327378496,-0.07742595137852984,-3.2585518452282347,0.3719390555538432,-0.8118259400011919,-0.19260797577349814,0.07542232419620411,-3.629718857862707,1.4116716911699818,1.7421875
0.6008085125423899,-0.9282557859556932,4.963649016431625,0.5420176510683603,-0.4492890956994643,0.028488972572770603,0.0006060816202755856,-1.8219852349235661,0.18577098416901108,0.6636738076769361,-0.1844288359478825,-0.05844898451234087,-3.140952873629075,-0.4034485168088296,1.75
-1.4103733500574822,0.11644517201102478,-0.3699734757618384,0.9294082457330494,0.15502969214344914,0.1015432641932544,0.06193269815131021,2.1589615779809033,-0.06246386610552903,0.38674022254293494,0.024791593360727743,-0.09466022863404963,-1.362756298703987,-0.633473384048858,1.7578125
-2.356299169572223,0.7363205481228603,-3.2064844393545253,0.8951105450883488,0.42145391736260523,0.02658959970453615,0.0020315094519574753,2.5131322938970437,-0.11522304669678751,-1.3535100154650686,0.1991249467989541,0.05644408584408562,1.2107648986164778,0.9728443895994001,1.765625
-2.2852301431065722,0.5922641013416449,-1.4846286190992146,1.4514464985902535,0.2584374701808485,-0.027218991689348083,-0.0669933642098942,-0.6457148764265265,-0.04270617490779256,-1.6218865384688828,0.14712323951065384,0.14358222576136717,2.2262231017982024,1.3557329951321475,1.7734375
-1.4376508431986827,0.1062766502076039,1.06428221146803,1.6673378582998786,0.02133687049116047,0.030414177314711903,-0.028134802644987668,-1.9413009117514592,-0.009746044483684043,0.09267535835104256,-0.021661480393735444,0.02336545507662371,0.6772185707310275,-0.24617646634435847,1.78125
-0.16038002463232706,-0.005342193354968004,0.3144027361916944,0.4979529150508592,0.018631962952497236,0.06747766173260544,0.04377185685012501,-0.07238303757655211,-0.06021677494210937,1.2490548553322092,-0.0645658400519447,-0.09915101212489834,-0.3862101888268221,-1.3443997493171242,1.7890625
0.39483013635353015,0.41559297617989555,-2.5613999090727546,-0.5780893106263357,0.2100163142261447,0.021971455034404237,0.043418114043085106,1.0368517136544915,-0.1473429220938842,0.9235854567980187,0.026313590209789243,-0.06667217888356519,1.3278220368232776,-1.0463556735482886,1.796875
0.21014479940884268,0.6393452817659887,-2.9621811096267403,-0.23271010244640286,0.2521528856306784,-0.012006941036495647,0.0023302246474354413,-0.7398875422169197,-0.17553770289217077,0.8215533523327898,0.03544612724377158,-0.006050657541998246,3.1412069989523097,-0.9733247386152358,1.8046875
0.5794835680197601,0.17639579509627573,-0.09416847051829487,0.1773666421957392,-0.01786566130911673,-0.029409623895416376,-0.03148175685809112,-3.004502002101598,-0.06056382648073418,0.9481831575402017,-0.06598928753776,0.01417636912154708,2.331473598270984,-0.9249693712575648,1.8125
1.153023579779109,-0.2526411942091726,1.4479947188490156,-0.5619267028491105,-0.23898579926303817,-0.12117550904609632,-0.09007122374824277,-2.9994226937695267,0.11987091653657005,-0.8298778899261805,-0.03380176864265679,0.13361443963306643,1.1465096054600503,1.1240317037406755,1.8203125
0.7680732906427453,0.08908523702458158,-1.0786611847197307,-1.52457312042819,-0.0639929013782656,-0.22754093175614842,-0.14704233267609906,-0.897611412058974,0.15742993272505457,-3.497708769728405,0.17608298559134974,0.30647105998062557,2.13170794571847,3.8079591162583775,1.828125
1.0674541194347564,0.43858002144879665,-3.6777446195899195,-2.207057112830842,0.16038993891957323,-0.1770267067175754,-0.0760568614963715,1.4056375179530738,0.01307183123903284,-2.5393292103286607,0.20975927268090813,0.20362574618641027,2.4768200861592473,2.704709981376027,1.8359375
3.8408591814977258,-0.2975668798042643,-1.6275276758038015,-3.266490530182709,-0.08890101024961214,0.02411071474258037,0.13092530877609038,2.9211784385861006,-0.09273768855533418,2.573710620079108,-0.11818119979885745,-0.23449778676522953,-1.468339193703294,-2.2939102064420105,1.84375
5.653207509099803,-1.4131182324410858,2.856037160106371,-3.6274308133948763,-0.5223764191865173,0.17412775595639263,0.26710063035456355,3.8722395471107696,-0.009259413222032671,5.650704038679516,-0.40596809583310683,-0.5380695099517612,-6.814859698107975,-5.1426284733536916,1.8515625
2.0483102348080444,-1.2792870583741034,4.06019832069183,-1.2244210517368164,-0.429558904837329,0.15249772413783869,0.1695905446991783,3.867213267961624,0.1270226288237484,2.370726597801978,-0.2314857345399039,-0.3255843643173061,-7.220016337306417,-2.087011455697295,1.859375
-3.9034519859592036,-0.003983077352189817,1.501521728415807,2.5203997878393345,0.10566357284177155,0.04371177251808107,-0.04233855013970392,1.8553641670303438,0.12923263962337683,-2.8622003171428925,0.1613765022669916,0.12235836444856674,-2.202970531275908,2.575212661864808,1.8671875
-5.065599642114165,0.7174220622694853,-0.30192391387277173,3.6182475453067315,0.32393029153437486,-0.023511032882569578,-0.1351800478260354,-1.4521671263174523,0.032860578156515996,-3.499958461254741,0.2404147295417762,0.2772296057764874,2.241034335547661,3.02978391037304,1.875
-1.5413870436143715,0.29389992022548295,0.6730833308170688,1.8173415699100783,0.04622271618097851,-0.021384815116792636,-0.07825563495024974,-3.497713020205596,-0.013137870520631895,-0.39308296504390877,0.005093789091661408,0.10746697645056039,2.3567398730311098,0.24875348324703814,1.8828125
-0.2518869133955535,-0.12066249973761999,2.0450809838908586,1.2279758507715128,-0.12999001045779493,0.022264230563058984,-0.023297652103075238,-3.3162162057378644,0.002831138780845581,1.0694114925908464,-0.11900726039208838,-0.017498166507346414,0.6914009276548861,-1.077958749830239,1.890625
-3.2799263163724084,0.27686264931535504,1.5316997189187753,3.377542705765376,0.12756947775177485,0.0987235616911936,-0.024182962791959754,-2.323693578892474,-0.046438472167860484,0.19868156619398625,-0.013526523590754715,0.009048721087110351,0.66410906968698,-0.5968861641500965,1.8984375
-5.138269883665996,0.9389623606928607,-1.037130825013693,4.4931968919444545,0.49639182446234903,0.1743529067319966,0.010540413718756553,-0.9372317758868716,-0.21331762908388943,0.4382524877901953,0.0806227628086088,-0.02739310067172377,1.9465137681877136,-1.2288792197804115,1.90625
-2.573133844688647,1.0980936061028803,-4.15676858341468,1.8420975274439655,0.5930280895485406,0.1509944004166085,0.08095332059706163,1.5065537927180879,-0.32933041777778344,1.5779814394864051,0.08650889032229254,-0.12789355216548237,2.478827358699138,-2.2318853681356283,1.9140625
1.0456255205126503,0.5243600296476536,-4.3202804155825785,-1.8146752719882615,0.29508176031705213,-0.011459764228021363,0.05755164774477671,3.1424108489790776,-0.1612185056167912,0.3212119998232222,0.10341557758553331,-0.05384130439469885,1.2633343475099923,-0.39317145682471094,1.921875
2.7856702851298274,-0.5674811935671336,0.28971547295371364,-3.121961100650839,-0.3005135898627088,-0.18821394652141946,-0.062423081268293185,1.3629267288112852,0.2225904191658769,-2.3432544605652157,0.06648856065384481,0.15190229494838078,-1.2022623931405039,2.907186990939049,1.9296875
4.1398642426203365,-1.3547704480874532,4.362258607569039,-3.3140082050667425,-0.749988337567965,-0.24032261081904663,-0.10931331009761674,-1.5256999930617368,0.4142297385008408,-2.240976460190241,-0.08474005482844264,0.18251407696894825,-2.653781179812569,3.1742296843472575,1.9375
5.647156471848396,-0.9285295943188397,1.326073211777524,-4.510576817058219,-0.5510005413414472,-0.1999295191460167,-0.03099387004310104,-0.821592211230036,0.20027618881856765,0.04112423972455349,-0.12761080428290775,0.0359294185970928,-0.8920850309009711,0.8095684066670966,1.9453125
4.352037042522594,0.22603423054121946,-4.643973040351101,-4.572838480622537,0.059083976035166026,-0.1557199508084725,0.02002313859760038,2.2241103812419394,-0.08443408266204015,0.15811596544690293,0.0649285258570377,0.007784559585695786,2.1105987189344426,0.23292437789272086,1.953125
-0.19352577577688024,0.5412350773449592,-3.3812938123530825,-0.8906993955364344,0.2623058287903481,-0.07110164875968476,-0.026080892806508146,1.782295621080674,-0.06260733343051725,-1.4899196619284625,0.17386575288458686,0.10224817992127301,1.8396968714641364,1.4150313493072304,1.9609375
-3.224012715955596,-0.22795702318022612,4.025912909167151,3.5284814089014636,-0.1023083217498777,0.08888930663616232,-0.04130294766577448,-2.5637272241086406,0.09559503594882783,-0.39323136247001494,-0.05566212401545817,0.030621767694734115,-1.3114332414742018,0.15316293291999616,1.96875
-1.6080712859061592,-0.6622265663820435,6.419841485695035,3.6802849363679213,-0.3390578652425362,0.19033462644566396,0.03742179566083511,-4.880051187307721,0.03501589637009454,3.1648316233498983,-0.3231911676309688,-0.1947298804320495,-2.2028110737349778,-3.315171541926989,1.9765625
1.2970080938666269,-0.18998123876620363,1.5092069200023686,0.46002149224542566,-0.12600812643978354,0.12155555606032951,0.08897912758532263,-2.5173661612305995,-0.13604997264075616,4.026657839068167,-0.2613236882464423,-0.24801376912017437,0.02691887911388559,-4.050820487766259,1.984375
1.0731496555900228,0.22679363068335578,-1.8787963795570317,-0.9625206617472956,0.10405015545068112,0.005905087614400333,0.040372415565686375,0.5974244361863167,-0.11156991268780424,1.1000698800386985,-0.013042175917551102,-0.0721065010648965,0.9979067517532693,-1.1083278038229676,1.9921875
-1.4479359339032232,0.22920654188070164,-0.8485777728105214,0.6363207482429988,0.15621520585831447,0.009793477473914064,-0.008441723438285184,1.3982140255581694,-0.006133164804349659,-1.1342235597298034,0.10534450899224787,0.047473654448988364,-0.10874767930907689,0.9706687670564648,2.0
-2.7639701945855717,0.5254553687488228,-1.556597843292784,1.770829882501221,0.33687659405596315,0.09069331334939294,0.02710623442048295,1.85652920561004,-0.10680655817198685,-0.4509686251667672,0.11495454359415248,-0.016384410634077615,0.1504691720907627,0.02275813059604487,2.0078125
-2.344732309200346,0.9945743883172352,-4.70533884833084,0.9419232685567773,0.5932716388988247,0.11622652988792465,0.081555888075167,3.7374607211023743,-0.2662762726372933,0.35046728918190934,0.1666982737533193,-0.08830414454265714,1.3436269963308007,-0.9185049098133761,2.015625
-2.0274227893089294,0.6705493398581615,-3.7293442989106733,0.3753286411445174,0.4579631543166821,0.07255787236653191,0.06061782134287246,4.583960213653759,-0.14574795237636218,-0.8169680978243229,0.19420328729136502,-0.033187254671263315,-0.07615341849417323,0.41514259177400636,2.0234375
-1.9461227562584198,-0.28509563130005017,1.7031394357290337,1.0223727331694425,-0.0453935195820867,0.011050392038039208,-0.023146888452381716,1.9798678473450613,0.1551732880362535,-2.2068275621743396,0.09633996123790878,0.07844278955895863,-2.6994166854143717,2.1579224868402322,2.03125
-0.5661692527480728,-0.7097764430550533,4.225386863852953,0.7826774616367409,-0.362965568456243,-0.05960885335713317,-0.08274455564573283,-1.6397161327859895,0.2622955091945006,-1.8791096407874384,-0.02738129833931693,0.13127353324117963,-2.198788655354283,2.1216272778290164,2.0390625
1.9242928211659802,-0.376173641855767,1.2985540730919767,-1.3218981030223271,-0.28059471559184557,-0.12611013300482588,-0.06928548064477975,-2.1323204466687895,0.12979994126908467,-0.6558141875346666,-0.04495568473471466,0.10293915677831275,0.513992868680506,1.0365325519208115,2.046875
3.0826343909069838,-0.05206598113243563,-1.6731844332648715,-2.8598938760846115,-0.10612789006363386,-0.14092337672061514,-0.027512679137971455,-0.16471196305738678,0.01788646775621256,-0.2117195158652173,0.008082874774372372,0.05812335679658666,1.4813523083456643,0.5890932622813193,2.0546875
1.6614621931651683,-0.0768085213068748,-0.6310926012538982,-1.573721144943677,-0.0904549809275878,-0.09694525370499064,-0.031975210516635266,-0.3056989330783999,0.04099779358435052,-0.5047672715642628,0.014156447185214464,0.0628855308974438,0.7827429747984028,0.7494333448770344,2.0625
-0.23806237804129118,-0.21725603088849443,2.323683924048282,0.8747579674789231,-0.1943408463630645,-0.05005195040653837,-0.07550160145125372,-3.3284184962869765,0.09829273345624673,-0.4466174056697372,-0.056115845058285,0.09450003475538948,0.6546822085927401,0.5581506784785097,2.0703125
0.10652257772021549,-0.3359998569483957,3.2188144146840263,1.03387911295709,-0.28357234495809625,-0.04757392198490217,-0.08048516642541007,-4.640504946496393,0.10683862451941865,0.13579508885277142,-0.11969654853035545,0.07783870954265341,0.7997771651335488,0.025267580690068236,2.078125
2.032154574594592,-0.30213176289381444,1.0069811866130114,-1.1264422118811739,-0.22869868352462508,-0.06535094942726746,-0.022151739488178283,-2.054865265271447,0.046699913753841416,0.6908083940679451,-0.10087964763122446,0.002933492107017579,0.5228928971458225,-0.40302428826713516,2.0859375
2.3458042020450747,0.03838038374110759,-1.7297561072212126,-1.9355677005661975,0.004102784403594702,-0.013997605893360182,0.05407572347007177,0.7144680651377359,-0.09434245289319372,1.5372425379731054,-0.05606466275607635,-0.10261034222311867,0.6315725129973991,-1.3915986974462864,2.09375
0.13103820227662155,0.3696468488017526,-1.8211468352565712,0.3428532483114278,0.23164350754756116,0.154222650024464,0.1280426966813768,0.9471142897949538,-0.25249209181254456,3.3032612599208946,-0.10119060410988932,-0.2553826952949183,0.42153739399894957,-3.5963686177649175,2.1015625
-2.085753135024693,0.2594708421903725,0.29264237133122684,2.7936813099598905,0.2592668958331779,0.31405385204575875,0.18578585925212585,0.956435449803295,-0.284731417897279,4.517432218519454,-0.181719787326969,-0.38697689078821457,-1.5221121259543453,-5.115844955658995,2.109375
-2.321967544096833,-0.05384453495480803,1.3359642169838726,2.4252197064889542,0.13593938197852304,0.2486435986710959,0.1396471014012592,2.0983576168607176,-0.12145177081656815,2.389419282675916,-0.10139548503315461,-0.2712392893242648,-3.0724858523495095,-2.8311908117242455,2.1171875
-1.2309117859629013,-0.10767288382711572,0.33976794228037577,0.155166382490437,0.0008014813414342,-0.05160023301072917,-0.04802937784903182,1.8628758328788637,0.13732328469686594,-2.641551608176247,0.14235029716199937,0.13575197365670258,-1.3592026746003814,2.6635620799250517,2.125
0.1308636004854865,0.0041129466566662,-0.8465374679815943,-1.6699320000751774,-0.09442103334301272,-0.303354425046664,-0.2083083486900138,-0.03333155875306445,0.2850254173606275,-5.8551502216511135,0.2937797795261982,0.4547465585750097,1.5928298736674467,6.249417672439946,2.1328125
1.4174912530839503,0.08952365514791816,-1.7789661540300683,-2.3879664994686256,-0.06758358001236768,-0.2707049805048023,-0.15561651243901922,-0.24049035627215798,0.17532414243416555,-3.9975324299237562,0.2120243152442302,0.3387088850021555,2.265207401323699,4.402568568229014,2.140625
1.548760308888127,0.3554105160832856,-3.2468577988219227,-1.9171146211001617,0.15663735807720938,-0.05946476194641339,0.01649388496109061,1.458319880128642,-0.09845466097905456,0.08855625290194653,0.06844107682550746,0.00037152100665011355,1.6531223227719283,-0.021307159015583662,2.1484375
-0.4141647427864068,0.7299158316377418,-3.8289222434187775,-0.04352298494288212,0.3942318162398874,0.07640268870027749,0.07600835317857062,1.8452450876760929,-0.24680581863966455,1.4229511866307385,0.05374678584847485,-0.11642100821647963,1.8036952587105948,-1.7510145564827597,2.15625
-2.776421832164839,0.6461300806379049,-1.940526017761269,1.8611123464551649,0.37416752482955223,0.08696032276554971,0.021193216986750692,1.3133267972311404,-0.137792986077877,-0.2621118400675853,0.11384731158541894,-0.011218277931280007,0.9052722682573442,-0.19486881488466992,2.1640625
-2.823530051500722,0.026412485025645673,0.65340941249579,1.8215638888793997,0.1392754872004592,0.09305773412508081,0.02463983079253516,2.5291345613422083,0.03120090870860302,-1.1479798977464983,0.09177313865286314,-0.009521286646494731,-2.2856281345835954,0.8547969075285862,2.171875
-0.6620819410508421,-0.5261118738216803,2.05009464615784,0.4468640633081769,-0.10595146608087856,0.112648685117942,0.0839513372817297,3.042768511733967,0.07271250304477886,0.328847698827894,-0.04494527421947362,-0.1397015675258534,-4.294617731125942,-0.3646180903457561,2.1796875
1.1999251592191325,-0.6987692500610827,3.359499824797616,0.014262289457280156,-0.3300761296629375,0.05752854265883842,0.045510876425753674,-1.168647700072905,0.0738202174551769,1.7850238771489386,-0.19869940905500166,-0.13843185380792333,-2.409158740463958,-1.5913792763989802,2.1875
1.4632049676420869,-0.6560150787793886,4.813114931039201,0.6910298747910282,-0.4930477889588918,-0.052831727439339116,-0.07752752220799848,-6.6598097319458205,0.13143703248227018,1.3979272644409462,-0.25303015545815044,0.02663094252444011,0.7258323235159276,-1.0580062066538907,2.1953125
0.9766949093212773,-0.44797287802683994,3.945833398900823,0.7106335827699121,-0.41362403098913514,-0.1029201257998551,-0.12059265624687,-6.700472991765629,0.144208528326139,0.224016530330557,-0.167528711469072,0.12444460446453094,1.730849727952117,0.09330566521933996,2.203125
0.8263412939453716,-0.1781421722428854,1.0654343720537034,-0.3514688795719528,-0.16949869730366865,-0.08016914397653953,-0.060050380872013136,-2.2072644231792853,0.07767241772344005,-0.4353107343151973,-0.03248648132568759,0.08445855912093524,0.8199640022741583,0.6372609303221903,2.2109375
1.1854360758421285,-0.20338145839305363,0.01533308535404814,-1.2041210287580344,-0.10525593102219631,-0.05688752118125965,-0.009375746338019164,0.538352973766749,0.060189208145302014,-0.4703874097213154,0.006748646422360733,0.026244026194948568,-0.4532314951372686,0.6692863833489126,2.21875
1.4325346156657788,-0.3536265962024371,0.8588590170969804,-1.0170905685929872,-0.170524748556438,-0.016478539252060005,0.01841202115388595,0.17103210686487377,0.049343540548391115,0.4867435543432582,-0.06649069459000297,-0.04493678768170129,-1.0637507939809567,-0.2825064154506455,2.2265625
0.9207132555736178,0.03143989310005392,-0.4101344461831593,-0.20551394300657153,0.02931702011938489,0.08532830004877989,0.08289114060784766,-0.015550074560265845,-0.13249800626161365,2.521683229244143,-0.12011166345408461,-0.18179839323385324,-0.018357701497734254,-2.585226847734893,2.234375
-0.08390373238864816,0.7600370156809465,-3.560990400225145,0.3837856160769081,0.3994172266885552,0.1517390928800388,0.1269832741927498,0.8003974833750777,-0.34703875739061507,3.512689219085953,-0.06119798813444529,-0.24729209334736516,2.0914904961438916,-3.925471658303716,2.2421875
-0.8258206473562988,0.9266185913849859,-4.35004602908579,0.2867732158738705,0.4627245398517975,0.06300830895462518,0.054160537417559836,1.1788465733901896,-0.27289782337836915,1.2016323019847264,0.08105885525319621,-0.07734129772672067,2.8631768535436013,-1.5927760304780452,2.25
-1.2043683362743414,0.5813024688739329,-3.021547328982508,-0.29218994998027686,0.2728055337591812,-0.10604623846881728,-0.07638881781577553,1.490274022443303,0.0015374939031804384,-2.897410428431509,0.24318091146472423,0.20660323744672004,2.006266065460588,2.796097906507866,2.2578125
-1.248080457400135,0.48292194932127214,-3.1451926364383644,-0.9333431871983303,0.23611986704020513,-0.18362878429186213,-0.12266394197109905,2.6185979975695455,0.11072111772052257,-4.884612461314403,0.34566503102167745,0.32750212281949653,1.4914695514414313,4.907449534951627,2.265625
-0.4596563393827483,0.38605901735514997,-3.3418314858942124,-1.4628651076065688,0.22694031616280644,-0.13344826888660202,-0.061151844711016916,3.6209382381555657,0.060010007415655986,-3.6151846178323264,0.28522363556006786,0.21062590383554824,0.6394990228702649,3.6485057439316515,2.2734375
0.5768361783448651,-0.3317511546300034,-0.11037003219295485,-1.3937656245748085,-0.06705690172163196,-0.03185013602102722,0.0203496627896111,3.542808030154269,0.11098467992226439,-1.4492654923760975,0.08038913664233013,0.015200613276629759,-2.5786645257624468,1.6167441980913833,2.28125
-0.08311119113384219,-0.9057938908135903,3.6853239798268556,0.09919954960649006,-0.3027990608616928,0.07334425416637026,0.058074280948205353,2.524724567016161,0.18635354078892727,-0.20971328551049598,-0.07591356225911405,-0.10104994576952525,-5.31683540013121,0.3655296173300155,2.2890625
-2.2449769075243315,-0.35856846961493893,3.136728293737511,2.39141598238165,-0.06947831100403046,0.15166222929057802,0.05268649881702186,0.5038734772081742,0.0438421811031655,0.6696854128491126,-0.07981222657571688,-0.11821790514568525,-3.1856287627148276,-0.8952633870383476,2.296875
-2.7422333813374613,0.4592326948211744,0.38245211472064494,3.1535170396156045,0.22797592855321108,0.15892996137432372,0.03737498241451749,-1.9707853468030172,-0.17477977989201665,1.923035778233932,-0.06865969478146598,-0.11420166261850487,1.1453323739204462,-2.4161499608079824,2.3046875
-0.3628929077417242,0.2627167275538198,0.34222829733182747,1.5171545188507012,0.0688950384119577,0.1015287323953607,0.039201419577002544,-3.0501553061971185,-0.1713356104705314,2.861446193822362,-0.1528594106409194,-0.14067229545261367,1.7713530752600786,-3.084060454377853,2.3125
2.0250676836513812,-0.45730919743329795,2.281978280545665,-0.3699218822047931,-0.2832475823641895,0.033778540262422815,0.037834520646698074,-2.723186050372899,-0.010281298078121491,2.6777322773071,-0.23147799330190583,-0.14506992226291998,-0.3645056323019024,-2.4698673154278734,2.3203125
2.1485732484617754,-0.6177681352649934,3.0996764612456547,-0.5209780151831708,-0.3882388768765955,-0.021925069394155353,-0.007493279591694491,-3.3746658390207216,0.07854280176579913,1.6966881077481584,-0.21335999505744327,-0.06188551844822447,-0.451869918211787,-1.365866613703629,2.328125
1.2699328593826953,-0.44955139352273105,3.229999907440865,0.21595171429621934,-0.36267073838575303,-0.07116266601690266,-0.07510171883769036,-4.99222358401137,0.10978592403347931,0.6166623359897618,-0.16179244564239795,0.05792226281683037,0.93237718195623,-0.3232482288191265,2.3359375
1.137273761762568,-0.5508895043653805,3.5555179229647957,0.08364425217628357,-0.4030781012057375,-0.10007813686432161,-0.09632908386394014,-4.574766572616837,0.1725933304012598,-0.28565367857528484,-0.12438906505884928,0.11011252814138614,0.43556999064539736,0.6352319300157908,2.34375
1.5005929219594552,-0.6125610066955293,2.613780230081487,-0.8689382429524042,-0.35890314359014647,-0.09501967243385227,-0.05851036004208528,-1.779269313049181,0.18271748902770318,-0.7297753416781707,-0.06894914341635071,0.08020955271175258,-0.9206612087745527,1.110469272003966,2.3515625
1.417248790469361,-0.2895158437893193,0.23152567522785342,-1.42898453979249,-0.14488219287729176,-0.06752851121453236,-0.01175770643833934,0.6672401626554783,0.08458414095329142,-0.6120824522257503,0.004380134592513437,0.032203824636182925,-0.7456413754491744,0.8615069544144209,2.359375
0.588458890149771,0.19790910959341368,-2.366920648416245,-1.4073545277193575,0.13281675703005041,-0.046481961333822465,0.010798954674598652,2.574619513809008,-0.022949451855171988,-0.9223426730043843,0.11201202983061236,0.029716355093937954,0.16263426387096297,0.9585223843322354,2.3671875
-0.6340399161885796,0.8422157059115694,-6.059074438285127,-1.6713294892728745,0.5017449983372332,-0.06408662302837559,0.011058306871631748,5.639337160451661,-0.11311619194030484,-2.4900354600710672,0.32003096169438505,0.10156398956071708,1.3245871144979795,2.294254508577069,2.375
-1.5562376129603332,1.6882847956401397,-10.664250870611747,-2.1038671209427915,0.9332666203003744,-0.09389202820256023,0.007045275528810195,8.02581871554814,-0.26169100010350377,-3.6564321491848526,0.5260744340857272,0.1746266855783421,3.779326704174283,3.2060556837298906,2.3828125
-2.0288953861463024,1.9858533941965097,-11.067302125877498,-1.1221043315584374,1.0409803556795156,-0.03650321600281215,0.02532870270348441,6.333426393152678,-0.3858094747929988,-2.1363750286158356,0.46449091254720787,0.10809377261755285,5.320425248298797,1.502972520206353,2.390625
-2.355405120659793,1.0311231661920195,-4.0536672116412085,1.4898474743245798,0.5492824127488131,0.1103584157492733,0.05677897322898678,1.5392736166645515,-0.2806604035681135,0.87747310342123,0.11315680224695754,-0.07556649903846233,2.4484419513040443,-1.4469368912704768,2.3984375
-1.8504939819321773,-0.4873346901990058,4.755860363430449,3.0908458724277024,-0.1997518304164196,0.17945165441370506,0.050559671692645684,-2.4630142135561846,0.020591798873313142,2.2476834035824793,-0.21888141574496822,-0.17325184703128144,-2.5033138451334227,-2.447789178707543,2.40625
0.03414611165154073,-1.3005796600288755,8.101462694191724,2.079423338350035,-0.6347361282241242,0.11162885626912684,0.01800969960999527,-3.96155076270971,0.2188486604858091,2.062863974491877,-0.33763406452801015,-0.147185821628426,-4.409664109812361,-1.8362567650477761,2.4140625
1.2854578683523816,-1.1940753313998282,6.6567680955614446,0.898654511529513,-0.5945828165463225,0.09121267105027023,0.04039927531883304,-3.4101765908067425,0.1600463173272335,2.6492075061771367,-0.34165429623836724,-0.18174776778383148,-3.7103103501887538,-2.352058874516904,2.421875
0.029146792714377028,-0.8345414012561182,5.223254600981179,1.7153238542794147,-0.3576798009610158,0.1773713142025236,0.09232696548553154,-1.8973133891843514,0.039855835418298416,3.254634224124512,-0.3038514523272907,-0.25964960696240386,-3.638703322007521,-3.2428653346713427,2.4296875
-1.362638557256831,-0.6055285636036152,4.553432222664754,2.2512645540145355,-0.24520655931368904,0.1293680987788265,0.0346307757319556,-1.4406302772350201,0.08544963559199961,1.2543641473841165,-0.16900021313915703,-0.12071464628160912,-3.0362217655389623,-1.328909786912659,2.4375
0.025599959547826817,-0.3964363053290544,2.572895810495079,0.13422817428311334,-0.28121280288655165,-0.1307121205115575,-0.12201394318310065,-2.5990367552489126,0.21732746586398302,-2.2097476424633613,0.019051581355764003,0.20677507129203204,0.07488825458695457,2.4898759483018083,2.4453125
2.2926748224908504,-0.1639608751157523,-0.2138095460308362,-2.443926346914562,-0.2548838473377908,-0.2953246455646241,-0.17889497403688476,-2.5214551040379476,0.21942743849221547,-3.377675656090675,0.11527437263544041,0.34093121982549335,2.544702041882625,3.9365436776472507,2.453125
2.5516585327178665,-0.11380268125854365,-1.3357066784843505,-2.8022575850124043,-0.13369574679077112,-0.1906972014625778,-0.07317342727031291,0.132090814871267,0.1065160145868065,-1.7842298475749219,0.08160730158424634,0.16181168278176053,1.1853524013269368,2.2103519387341586,2.4609375
1.8146279572765185,-0.24545611856215224,-0.537686221478389,-1.9109048381215756,-0.09808482658894858,-0.050403168699063354,0.020290215951586386,1.695499929936755,0.044514936215559506,-0.18824913494906217,0.005018663938953932,-0.016731487128536546,-0.9655283762835218,0.428279101908253,2.46875
1.1347092421238083,-0.05163751740927628,-0.4671679206789189,-0.9993764331579474,-0.04590146346381566,-0.0387628309705125,0.0003180491504588899,0.06033428858941068,0.001555677008872242,0.13371984982841142,-0.01014440264714879,-0.0008175813461194153,0.2854710812790243,-0.003199376076575612,2.4765625
-0.9045326775514781,0.7967186094516266,-3.1652307127132824,0.4976488877844688,0.33683507484087116,-0.008481916421667896,-0.017601413201771072,-0.6429145103311503,-0.17413518026432567,0.10059422407052586,0.0918966179902298,0.04182088263196467,3.4192995874555003,-0.3682855370377823,2.484375
-2.94503199686058,1.5478020963139505,-6.60408549021323,1.4129518254418243,0.794701045289783,0.08931048158860395,0.04499311276258202,2.3062967877416045,-0.3711580430713601,0.2812596346896731,0.22328861972427363,-0.0238540793169639,4.255063791968818,-1.0068217566157946,2.4921875
-0.9994782928350034,1.1141044051405298,-6.36519969868019,-0.4543062439195092,0.6350862253531522,0.07465749176155578,0.09276170316010557,4.413556092018028,-0.31152815756103897,0.57354464707107,0.1847800751692798,-0.09554987878476996,2.182999138614783,-1.043461383781839,2.5
3.347337587035465,-0.18445409104661728,-1.6903633854994555,-3.077174633120082,-0.08981543112580435,-0.057790243711830974,0.05292627307473835,1.7613426992085954,-0.028844573622348088,0.9800550490309801,-0.04095351315674265,-0.08384099066807049,-0.23312211456165952,-0.657094543057235,2.5078125
3.6735126148710613,-0.8651809731869489,2.7621541291402036,-2.2290410447299465,-0.49223287624614864,-0.081353086599139,-0.0032737790682681642,-1.8660339239431027,0.145937506903273,1.110256209721423,-0.192074218400821,-0.04571509407042487,-1.3742101810233265,-0.5455829441956916,2.515625
-1.0029513531220005,-0.3615138258871835,2.9757663178086657,1.5243603210915257,-0.164777395455079,0.057523859751074394,-0.0023683264191327463,-1.405752912045282,0.07432001957404882,0.36678452869343603,-0.09013098289786808,-0.03286679435661235,-1.5399015497507904,-0.3984244286929317,2.5234375
-5.110577072772458,0.42610257002673074,0.5443615217947754,3.9885921378817124,0.3310967554699892,0.16481435351482496,0.01742527875974058,1.3833665102497688,-0.05559401170527594,-0.8955967080251563,0.11152129835599112,-0.009407670055937529,-1.1545427267037522,0.2621220373576754,2.53125
-5.35208343644504,0.6534498282170775,-0.6227068825519367,3.8218451583424518,0.42868312475014514,0.129168284070767,-0.006462536027694741,1.648699307632552,-0.07072871540286207,-1.6461690292608102,0.18325779643229462,0.052913053915267134,-0.19729560219896633,0.9811310176817936,2.5390625
-3.3077488768120915,0.36574238036361717,0.3102091079057318,2.5916733144692046,0.193538022782249,0.038962077415748725,-0.04837903870846942,-0.5936847831479749,-0.0026251404864307054,-1.402676958360044,0.10387899673083205,0.09739956572190542,0.5987318120560948,1.055407584824428,2.546875
-0.7928726311767278,-0.12775245044316572,1.5121009018293488,0.9459711094949446,-0.0776874557756757,0.0012306978643723122,-0.030741067570422987,-1.2176814895042845,0.05807296030076361,-0.39072459987587216,-0.017217007223765447,0.038477490155442,-0.2811175452759223,0.3781445456738112,2.5546875
1.6781048340196874,-0.6515891304168068,1.9729827730424438,-1.1157927648421886,-0.272871318632299,0.01604636862928742,0.04867168564670163,0.9220892854031115,0.09142710048730013,0.8220457843847263,-0.11232151118895116,-0.10330642269155442,-2.7354399518833956,-0.5610931373547947,2.5625
3.7795984622725554,-1.0488495800220243,2.3775289814382075,-2.8266220930708785,-0.4502940645037893,-0.0031405694842605593,0.08665096168416582,1.886544000000574,0.13359558705746263,1.5122060917486697,-0.1821259574204309,-0.17455411089074346,-4.100993680024148,-0.9896497046034495,2.5703125
5.399976769512966,-1.2234643265227652,3.30213457257077,-3.64402089272691,-0.6626110402730181,-0.11268990846672963,0.01418226436115539,-1.3083603028192603,0.2032989328985362,1.402706228653741,-0.24345319922064346,-0.07944939635483056,-2.4567120296097444,-0.5930509019232744,2.578125
5.430137987377224,-1.0087281754147575,3.5913450294646023,-3.1406778020752966,-0.7116941330395654,-0.2124446818655918,-0.09165539852206506,-5.5401785395004355,0.22017699995963505,0.8532208201543519,-0.24848253490704816,0.07584870076122797,0.7536477203763278,0.025951480640501276,2.5859375
1.873809502490009,-0.14568712272823373,1.4600422884028232,-0.5574826727296514,-0.27635075622682226,-0.145897024707225,-0.11318154530480405,-5.5742867223479635,0.07219198215516272,0.10685234374901524,-0.1022016745084239,0.13793192592099549,3.0288130921021734,0.23258656699615995,2.59375
-3.460701813733332,0.9684687837832539,-2.233969228807016,2.710586546939911,0.4353615966559552,0.03945277891407394,-0.04843793323009195,-1.414436063438811,-0.16336851039635614,-0.6795905064749943,0.13745691409997524,0.09544836272036622,3.4629950164789562,0.15119748376274209,2.6015625
-4.965711417354761,1.2207360335799946,-3.8377450188200375,3.1881903786985197,0.6891881837704568,0.1326021645837191,0.021902397809907454,2.320070742881791,-0.2401063995402376,-0.8721077687805987,0.23244678010505662,0.01726966828656317,2.0322935503749755,0.06396069489823855,2.609375
-1.8125224772150428,0.41375134004162667,-2.0323191917218493,0.7310872879488934,0.30792745805458066,0.0792127745892687,0.05176557338377825,3.1445860207712437,-0.09925041484972753,-0.3644817807339492,0.11627470598217755,-0.04706859487779367,-0.5249887657284422,0.03825666540539083,2.6171875
0.18975943581288665,-0.11335044198062164,-0.47252767026243303,-0.6842848747987176,0.021221023571753022,0.015568466100685418,0.03892530752510196,2.555178490562823,0.017448647369034953,-0.3343535220168773,0.03899534009475078,-0.040026940987435373,-1.5888309163869347,0.3557550117832462,2.625
-1.180776929616375,0.4254872983894031,-2.2138891562893472,0.1442656642914797,0.2509611256173394,-0.0035416524096647285,-0.0019904274969823155,2.0133307275535848,-0.0543894512450327,-1.1510097208173973,0.14230677624134164,0.049920495209423814,0.6140610303737419,0.963252682876238,2.6328125
-1.2309238262382773,0.9734418683804587,-4.696860457099464,-0.03243352027709799,0.4603458232216551,-0.04073890941507054,-0.02543352513220716,1.353898469362142,-0.1670799058173414,-1.189237162477828,0.20899734491688568,0.1011141643416322,3.39193812770427,0.8922851964449275,2.640625
1.6885568117794156,0.5324296121518386,-3.970399770970819,-2.011034556693569,0.20558944986652355,-0.0829884675036002,-0.00030287037576990006,0.7405393059759928,-0.13277292067294907,0.1191476927564136,0.08094596785782845,0.027588456873065652,2.8679459607049544,-0.06320905112827942,2.6484375
3.0565965377072857,-0.3105822067727438,-0.5660851149885391,-2.6072112016458817,-0.1695782104015777,-0.06522886555159485,0.029283386795928665,0.7905545742424049,0.02004756326083372,0.7372331092609451,-0.06088958122227702,-0.05399229388357684,-0.41238507062609586,-0.38440120107177245,2.65625
1.4694235526610147,-0.7526069399790841,2.4535288251132727,-1.1327812160568023,-0.32137298656534985,-0.016311747934173233,0.020387127899457232,1.0374491142150997,0.15951472648235276,-0.12601270780036075,-0.07752227358829573,-0.041740226645713654,-3.1161662119869207,0.4458355199345081,2.6640625
0.5887326465733781,-0.8709256759635308,3.8740726027415686,-0.07135759138257329,-0.37129445078078577,0.01994893729906296,0.015461787074628449,0.27098977243676825,0.18931700486877995,-0.04316232889686947,-0.1107175231159577,-0.04944444286302143,-3.7398048273035416,0.2963929201593365,2.671875
0.5741487221370027,-0.6321022853235828,3.5888818217823792,0.7084590035461347,-0.2931680685875142,0.09108555804378815,0.05193906525955417,-1.5366875743999837,0.047776293211579175,2.100891932544435,-0.21208573120194926,-0.1587724980985224,-2.327843739513657,-2.00562242241896,2.6796875
-1.8824110391822364,0.255037833173445,1.2404154503565388,2.9539672262923244,0.12387472326008239,0.19291047074719433,0.07177578064651127,-2.5806285907620183,-0.19171460139430405,3.2713777097269254,-0.1710280577893572,-0.20498674923460453,0.6199998892758952,-3.6988858480107987,2.6875
-4.848542622789392,1.0605538517805646,-1.6242697866700253,4.377309797137385,0.5390585721596108,0.18277232451445585,0.022374358738751814,-1.2690979063821966,-0.2678179115991152,1.0606629733758837,0.061615195158185546,-0.056510179859041824,2.642839930265059,-1.8774654513991633,2.6953125
-3.162577638843453,0.6634045274202623,-1.9322151560380654,1.7714546400107596,0.3549749009213591,0.006692239937811924,-0.04599367549679068,1.077595938686553,-0.04952645866084067,-2.087778354074815,0.2033985842971032,0.13147894896207926,1.3674094780660033,1.7049849684046698,2.703125
1.5389349071544034,-0.49258372032664516,0.7485087813819351,-2.0306483686091554,-0.24845152376978072,-0.15455694606767492,-0.06884368130834756,1.1551121855328546,0.22106041190269587,-2.576457734892399,0.08247963842424598,0.16213823723203954,-1.3398660007827743,3.0022397848285243,2.7109375
2.927722970496273,-1.054597267799155,3.836917356028481,-1.99177507895845,-0.5753763073529574,-0.1360929727449185,-0.06008764708856355,-1.6000084755793214,0.2827606278396575,-0.8576290399583303,-0.11700154203709053,0.07859419280642846,-2.2398207725014836,1.5020561742150482,2.71875
0.5975942421888951,-0.8931536094800122,5.368881949474459,0.7189425622723553,-0.503719229200928,-0.03324744623855857,-0.06058798570637423,-3.7506110514063997,0.22690765968762902,0.013447307435478156,-0.1751756451498213,0.0392081191535133,-1.869643631088929,0.3176016394348204,2.7265625
-0.6481279627315204,-0.6528936638315811,4.626082175640185,1.3946151531566118,-0.3633551899582923,-0.021928325699771527,-0.07080052897666335,-3.0513560077042774,0.20692223511150215,-0.7469774706930048,-0.09704034969935806,0.07915670572106073,-1.5755064929799998,0.9208740407321416,2.734375
0.2993991556624423,-0.17242990657977808,0.9246037423083711,-0.23938419303471747,-0.13192379932217782,-0.07625650363470433,-0.05935378231296082,-1.1433199732376695,0.09969467947270066,-1.085079702813882,0.014940073229366956,0.1029426649895658,0.2202964712427976,1.2474753802072247,2.7421875
1.09403015055449,0.6485482373990156,-4.097524812914373,-1.49234831080882,0.26197886146087007,-0.06827838572246306,-0.004054849081642101,0.5145517174299153,-0.15447383597435105,0.09815363624123463,0.09303591553354937,0.03333121241011629,3.203875103344404,-0.13014987206157255,2.75
1.7893602686631818,0.8264375865247763,-5.993410612516062,-2.350903841234753,0.400055882388246,-0.02148098964718324,0.06807899695929864,2.5721524533869937,-0.2669715724485113,1.2044432239196614,0.09343899436206898,-0.08022859119042326,3.062461617299112,-1.3051362488164577,2.7578125
2.871173190549534,0.1137711128663184,-3.762983249201465,-3.3684071040224355,0.11842195159876179,-0.03241227417066667,0.0887613894790542,4.237302956097098,-0.10174468544331568,0.696355255129198,0.048934785151175095,-0.10837489754418773,-0.28388672390431174,-0.519396971364888,2.765625
1.822324069329851,-0.008944593523895204,-2.329813982580491,-2.431174965074235,0.050713163046373605,-0.04626697144810773,0.04418129401658494,3.406921852322179,-0.015232248131330695,-0.33860599135761466,0.06969654967517372,-0.03063061330276008,-0.6987802486366128,0.5055719045155277,2.7734375
-1.859084922197399,1.0594763399735951,-4.5551742735998895,0.8164227247392414,0.5281324147868264,0.039472658738659065,0.017118493039806303,1.309486276900165,-0.24172665988868622,-0.021583013930309706,0.16009169739064438,0.008278621908278242,3.1804388735797122,-0.43798789362702445,2.78125
-3.664952712492877,1.6411485664676333,-6.007098556231836,2.5339864014095914,0.8215833013949526,0.14000744724726727,0.05164126902016804,0.8878999249635279,-0.4220418645625229,1.1805233353015794,0.16863139928009174,-0.06448457093734072,4.774658811867228,-2.0375061737024325,2.7890625
-1.5264052919848927,0.6436875598605776,-2.4703422761431044,1.1550069833210395,0.3646668220600252,0.11578432002037341,0.06958920084769155,1.1978514425095832,-0.21812637664199133,1.376037550961573,0.03252988060020334,-0.11819708132317444,1.1741414246341575,-1.7944878613481279,2.796875
0.19896976179081644,-0.6005037713964886,2.949574760038671,0.314984142542936,-0.25074596229545526,0.043003596760042076,0.024394990269046103,-0.044847892228458704,0.10905938730725419,0.45162565166816726,-0.10451059919287158,-0.0694651628048901,-2.696430886332598,-0.32520310849699735,2.8046875
-1.1491806384510193,-0.873467620846094,5.430840395471394,1.793121112382846,-0.36836064741924296,0.07628207128292139,0.001974928945160357,-0.9803410949052156,0.20233005076963148,-0.021354508631426104,-0.1344592898087863,-0.04611514210608395,-4.032998117419457,0.10189373754756272,2.8125
-1.9232500611786605,-0.8577296337157093,5.5020431310302875,2.388902747806303,-0.3017448982117279,0.14393186699184868,0.04242417051985792,0.16536125009343747,0.17059425803123504,0.3731655455736194,-0.13694583112962885,-0.11319647223407964,-5.023196836187594,-0.4295419946426838,2.8203125
0.23419912690257486,-1.106406971336075,5.551429625747989,0.6426366237948523,-0.4740111893134705,0.060469397337101306,0.025208143136600802,-0.3533714079216074,0.2254376988929133,0.4025689825064777,-0.17494527891706294,-0.08860554204073476,-4.7904334137600975,-0.15394732791647267,2.828125
1.9915027298075172,-0.8406703834487763,4.547341738268854,-0.5357110875139574,-0.5599519102889973,-0.13850118274101716,-0.11154280895531633,-4.904378450712229,0.25080629996971976,-0.5391269392391032,-0.15427773754118454,0.1315091174565563,-0.2109495008822688,1.0727498944331095,2.8359375
0.9631293557547561,0.1037188725506668,1.2881412489547133,0.07732685107288959,-0.23993750007821973,-0.23611218677550097,-0.21297222387437997,-7.641176041024049,0.1208075092595029,-1.603571107911897,-0.01494234055297271,0.3214260718846317,5.136383100048511,1.935388803760362,2.84375
-0.3518655290507587,0.4762699413254196,-1.2524594493914412,0.1401642994624916,0.07154709183556585,-0.16262476218185165,-0.14487510183575247,-3.3994266200559218,0.024996127220417576,-2.0485624522762986,0.117033316154623,0.2609541307838114,4.16502524258496,2.1011944510937623,2.8515625
0.19845757890524068,-0.2638027226607855,0.015577935274321027,-1.0638727095374683,-0.06549567332002142,-0.06090595098276611,-0.016212273679241447,2.6528595533520174,0.13212109663556026,-2.0207314923947792,0.10478219584559052,0.07942556383623836,-1.875590612346431,2.1816389411734294,2.859375
1.2662429446592105,-0.9369213693627704,2.5520603052668673,-1.639608943928357,-0.3486521937605782,-0.04119278327885324,0.01599687314189694,3.243775303296887,0.2524497893976109,-1.5917779989370304,0.0028386317012201985,0.006091911499695806,-4.762411244298141,1.980544617842573,2.8671875
1.318381187082353,-0.46673260516972204,1.2251433653943904,-1.169300856052034,-0.21522617705789351,-0.04539573062420213,-0.002230517121124684,0.6249565940019687,0.1149536825242781,-0.4231958061046018,-0.030084730400358257,0.0062815706486797265,-1.6278517772928762,0.6899685367125209,2.875
0.2475190226700926,0.7454310895521791,-4.083710290258152,-0.5924104288199717,0.3548810218542268,0.021019332398422772,0.045184823269717185,1.0234092704272295,-0.22911515786104023,1.1195881542618003,0.06063621284709964,-0.06358690394468072,2.692350691724845,-1.3421618177908614,2.8828125
-1.7883235959858876,1.6175442701927374,-7.844742080182159,0.5182015110071685,0.8530354513959416,0.13309541480312712,0.11413882560334321,3.3501033178940602,-0.47595747608095895,1.8838344213861178,0.17035578614447855,-0.15232001065227052,4.236825731424725,-2.616652158551603,2.890625
-3.306013551302317,1.5554477159951254,-6.35453083993618,2.0526667561298004,0.8398168658780488,0.18096212949315957,0.10422663207792078,2.664129862103821,-0.44523843361648674,1.7043274762447607,0.1576660700558784,-0.1469909961334852,3.5642979840451874,-2.569793072816788,2.8984375
-1.761148199701879,0.7801806447573433,-2.650689791845376,1.5384106466489482,0.4030332872290124,0.11943262655647267,0.06033342376090048,0.27813530504288037,-0.253127764029814,1.649981377616465,0.02358790806218993,-0.11269696126797846,2.0530569582832783,-2.1249496586592205,2.90625
2.0643070563076003,0.03202286796580761,-1.619126275861523,-1.6654236424514561,0.026398862755707877,0.02060220170868394,0.0756742917772077,1.1416759511673833,-0.11211510696826776,1.8635795095284162,-0.06791541798564758,-0.14230119165080288,0.16259817173549573,-1.7754146961257122,2.9140625
3.7869092082272884,-0.21247359250932307,-2.511849718001481,-3.7804101283329303,-0.04104690915768721,-0.02616627515979136,0.10538121141402827,3.8945901848906885,-0.05989350557268627,1.3458629198318628,-0.03126956461586008,-0.15788935497301096,-1.2792001203697072,-1.0299775019989272,2.921875
1.9238213256478467,-0.27949134557180433,-0.5749816669909243,-1.9451428019437136,-0.08539215326379614,-0.012371405899599461,0.0549333346174413,2.3320280714673394,0.015253360783621009,0.44425306379806984,-0.021909217142131565,-0.08112669512570461,-1.5324540608403383,-0.2384811024732973,2.9296875
-0.18131883933193232,-0.5877429439692068,4.372879793292552,1.3721326842531534,-0.3460090463872792,0.01078545843977521,-0.041596580295859775,-3.657748195808528,0.1350026866345894,0.523375025902641,-0.1596206333880978,0.005462682986002172,-1.066036108426739,-0.3822120365085507,2.9375
-0.4330304822205161,-0.8269673708989104,6.791594001732406,2.3593673886474518,-0.5331135057323355,-0.005909859014818855,-0.09291900911840817,-6.713408941882903,0.21145517557121787,0.597588612199617,-0.24108726797173255,0.05327490405813373,-0.7874253459202145,-0.3798385354875305,2.9453125
-0.2268416162931738,-0.7109742845701593,4.629780398097373,0.8642200612185922,-0.41881496017614395,-0.08234490593784706,-0.10658833516659273,-3.2996657883071356,0.26247774598345663,-1.583974758000452,-0.06597735610453778,0.15197044773780344,-1.2885638843648581,1.8777082086188048,2.953125
-0.08338846661999168,-0.7803527014652264,3.039935917198113,-0.8291345069718798,-0.3672661908492573,-0.175565180594993,-0.12900001167413516,0.940883599525584,0.3862131508760269,-4.569096233475902,0.13637036641156522,0.2814700002631607,-2.8564412790151903,5.006627243951806,2.9609375
0.601397672423708,-1.2109907687981383,4.94962718998652,-1.0522380357420256,-0.5767355169391365,-0.18012390672722206,-0.12899552029016062,0.4267474481703785,0.4752496737940525,-4.383917104020841,0.06284317560105991,0.26250580114654465,-4.23687492308553,4.988244334793536,2.96875
0.06189072574566125,-0.8452220618096632,4.784111178467926,0.57428830504117,-0.44146007649027574,-0.05191722385027571,-0.07053966460808071,-2.2061736244870365,0.26214148862761855,-1.184686525354911,-0.08722512185113851,0.09130936440292708,-2.3843347288110546,1.4924308100516988,2.9765625
-2.9576502826221605,0.8913675522246157,-1.8127219752679395,2.772775573649152,0.39964644324910453,0.0907178536402584,-0.006647448375544942,-1.88448542946436,-0.21557568651235462,0.8054218497704788,0.04689642619685489,-0.006391428275288628,3.2206431679187006,-1.346021643248659,2.984375
-4.729090824140161,2.2305100476658737,-8.245576013190075,3.0158131425792853,1.0694146186648645,0.10754643094073385,0.011076215141963735,0.5020927693280526,-0.5065810819085061,0.35866184504196547,0.28194308946188706,0.029313443416011116,7.280805776211305,-1.4033011758021108,2.9921875
-1.912397049009671,1.4027728580368195,-6.188147916548519,0.7559405000814856,0.6797202890394725,0.044294547618818125,0.025671714603992566,1.3210777947644767,-0.33659117445190934,0.37430850625982987,0.1868481946132005,-0.00254275200227616,4.591346058877316,-0.939486559403751,3.0
1.8910214144777864,-0.394896012084901,0.6188938347754098,-1.2506990201961898,-0.14948430515284533,0.045828340252319306,0.08101779369279498,1.1079110265178076,-0.014617120259445773,1.796977846499597,-0.12327827166686146,-0.16467610723680928,-1.8116951950450462,-1.6331743327449124,3.0078125
2.0555605308145672,-0.8499788833489951,2.497255018792572,-1.1719797551254978,-0.30234513460605467,0.1061996002941255,0.12889901622254857,2.164712052998538,0.04765464970321539,2.3713032345369816,-0.19801689314931556,-0.25947815780362354,-4.445948967771814,-2.1469881336180427,3.015625
0.529783388984537,-0.0906386238156317,-0.7756213511810536,-0.6450393694962134,0.06941218253723692,0.10119699990336413,0.11307496373122652,3.159986649518236,-0.0831433823738422,1.496847465047208,-0.039869333442127106,-0.18994772007705474,-2.0771101628043804,-1.570638507099886,3.0234375
0.6384394630046343,0.3092408128564216,-2.465483973834203,-0.887706084560418,0.18573504945851854,0.030960527831523345,0.06144880610449885,1.8679854402387217,-0.13360264984040734,0.9630803342691534,0.022526225805706568,-0.0923553064641452,0.5540011246767078,-1.0529229259222195,3.03125
0.6630650377769426,0.41429918288638656,-2.3344854140256825,-0.5865475822182096,0.17136170544049556,0.001597729823753629,0.024979615757144,-0.05090623906305139,-0.14373326684345344,1.0468981388070202,0.00450237925261578,-0.047031227244269294,1.9661238266359178,-1.1262291949012126,3.0390625
-0.5883805032605683,0.9405642472103999,-4.228822533183442,0.09133932893674168,0.41083438144872386,-0.005881853173768214,-0.0005003836384023098,-0.10166154931183617,-0.225880606479079,0.4088371551049024,0.10435752726049079,0.018320915602636295,3.8820245767489867,-0.700321504175882,3.046875
0.48338329375101735,0.7908276417841843,-4.5153177979024886,-1.224467543799143,0.32301995029198305,-0.09121908274511081,-0.03205907297974482,0.4946127101254732,-0.14496438373820475,-0.7125079919580599,0.1513999801209448,0.09685972403971302,3.7478145199961697,0.6350536780630512,3.0546875
4.2878655095074985,-0.9723286430751498,2.138653846765905,-3.550096146045934,-0.537532097059975,-0.181787400424524,-0.04686715430960053,-0.3834696876606863,0.2536605417292314,-0.8931866552016468,-0.08319599546859442,0.07666990225989355,-1.7632038422186747,1.6522387856882599,3.0625
4.779729971931146,-2.3690472269619267,9.399236209776038,-2.6818485783109756,-1.1706382865000782,-0.11996289332125377,-0.032246449218035766,-1.8941828045195428,0.5419403128510948,-0.25220095716455243,-0.32591059908037867,-0.015794968297049947,-7.218424696542802,1.354521218525684,3.0703125
0.15222702208539862,-1.269833723832008,7.0544052988585815,1.0873988052686963,-0.609701400493998,0.02052266685854195,-0.02715801413130699,-2.379608643038353,0.301674874335341,-0.05587887553316661,-0.2039458119876607,-0.01665815087666244,-4.450588815975467,0.3960072830968709,3.078125
-3.12556847571028,0.7807485275573707,-1.2658766384780054,2.662055926734093,0.32912797261907994,0.02937163748203488,-0.0573848786997508,-2.078282649871262,-0.1200778264237903,-0.605394385327422,0.09902413003819854,0.0983553484867467,3.0934048999509605,0.16382433545412153,3.0859375
-1.7305113936773457,0.9864044586942058,-3.4547781441974714,0.977448264416664,0.39108851965374697,-0.058726310074082716,-0.07676166423531397,-1.4857859309195955,-0.1457039247005288,-1.152097487776917,0.16601020512349876,0.15852992723657033,4.578967350273581,0.8480931980109975,3.09375
-0.36641454082849384,-0.21445068179343746,1.3012728736673442,0.270376025066082,-0.10823158113901804,-0.032574382529308096,-0.03779401709198605,-0.3696446729507988,0.10056291021744193,-1.0325046204629909,0.016304651745284435,0.06875570485048946,-0.7110422078004424,1.1130542460961268,3.1015625
-1.6823080556906904,-0.49489021539974565,3.346136442936858,1.7065565414556771,-0.15615592040686738,0.08626413496047781,0.01727947797476864,0.4660654529842539,0.12011476757980773,-0.287386339932596,-0.04970299175753472,-0.043774828397651705,-3.2475949704779925,0.21598427565239278,3.109375
-2.4724770545222188,0.3297219882522424,-0.1298152519368075,2.100340768976846,0.20844080823468736,0.09810070473448951,0.020037635028140058,0.24340189429994566,-0.08148966619008904,0.19027212252982217,0.033473247467273856,-0.036119581193536913,0.051462344611950275,-0.5557517711827541,3.1171875
-2.136618726250304,0.7833656812830295,-2.790582765319972,1.2768939214656823,0.3884730045488723,0.03178440207652907,-0.007332153982769507,0.5326762943885168,-0.15203773558580586,-0.46556585760106906,0.13295292763307054,0.04022435470955528,2.2896583992402597,0.07787239428955302,3.125
-3.539565078652747,0.6024428422873046,-1.7785862035987918,2.043747016570892,0.38805863284047176,0.07129253810747642,0.0020556037226925764,2.4148717111284306,-0.07339238276950288,-1.556129350183845,0.1873484990421562,0.05006371758488548,0.10258693157902425,1.0860703524023387,3.1328125
-4.871130488826456,0.4703257751516167,-0.5838333396958645,3.183723218030731,0.39267239115053,0.14477202210780904,0.028308793224639518,3.3107896135100323,-0.048769028803809365,-1.5899025907152824,0.18118216696730738,0.005144839664866887,-1.6078791689157248,0.9836484146547346,3.140625
-1.597461456905869,0.26189930389574406,-0.741391370389242,0.9369188710582012,0.16998022446387828,0.03147743637544539,0.0004517811257728653,1.050330412715615,-0.031427709618882055,-0.6989292185246581,0.08252789527196722,0.02177224141797352,0.022540334197482442,0.4895965707734782,3.1484375
4.388675782233697,-0.37909996682300673,-0.26566033604317246,-3.470003353660875,-0.32045243018110314,-0.186101117528855,-0.05041578380205019,-1.8226992234309258,0.08670767929221425,0.1093033528770757,-0.07362999053758701,0.0703770858242708,1.4170654015687476,0.4946910887171573,3.15625
7.444555430124818,-0.9022856696846823,0.7921290500959827,-5.484231558997935,-0.6087698672665622,-0.2203153194359124,-0.01763080131314697,-2.3984292548291806,0.1297099682953979,1.5965348870516405,-0.22086468695842465,-0.02092068581795333,0.530894020091418,-0.6201281240052674,3.1640625
7.093488724410097,-0.6840210218203387,0.12485711177202811,-4.599865799106737,-0.44401152494701907,-0.05586712214471496,0.0986989074494044,-1.8282441929198028,-0.0709801801977757,4.623522240732752,-0.3354859962997826,-0.26039655395823863,0.2795427367871549,-3.939413253722033,3.171875
5.47201859175305,-0.024241233055222154,-2.163207510630127,-3.157838292331545,-0.07535608987319217,0.082671036869788,0.17708163088188855,-1.054803129901478,-0.311210898199221,6.474031098724658,-0.3310210845201472,-0.4041846061999092,1.5671476024288964,-6.249213416017452,3.1796875
1.3705340145259017,0.3854370523553275,-2.9131300488097724,-0.8767539211951948,0.23693827980665408,0.12905359923007348,0.14713204085315792,1.7052574919467922,-0.2808166272836388,3.6349874311814534,-0.10191242317486056,-0.28080198549971674,0.6733427907960253,-3.8288832983614256,3.1875
-4.5892639853201675,0.2545357823151535,-0.2678598740942017,2.665598025631233,0.3375122840900038,0.14806484791804647,0.04822141843521412,4.863652749845703,0.001861011691092671,-1.944498360108702,0.1928691572084851,-0.013076907559315466,-3.1075694869361348,1.4095157905037883,3.1953125
-6.103707433518796,-0.15711096449211936,3.0870829479517736,4.002577657886163,0.10026988335145844,0.07099054631793855,-0.0677089608736493,2.904173795128951,0.24168131969728532,-4.593950451472935,0.237790418905199,0.1921180157996001,-4.098641463530183,4.185310704948732,3.203125
-1.0327163319349513,-0.2442836989427617,2.636458230622066,0.9609456322028459,-0.2252734621015686,-0.14165430975504167,-0.15845286204815626,-3.2991407114757467,0.22812413431910286,-2.9540786257669795,0.06438262681759414,0.2754245764588499,0.7481977942754792,3.1447546251191953,3.2109375
2.7426765763685794,0.2681174622199645,-1.4671059234709387,-2.0193944781452626,-0.12803192627163473,-0.25466928318117354,-0.15657164720208191,-5.092533800825704,0.03225809607622806,-1.0427199561662275,0.02029221877124254,0.2528441847095669,5.389685158951639,1.4572299430897575,3.21875
-0.7025310999809474,0.7602964360391938,-3.4848605591177453,-0.16096780675311376,0.30992956090237955,-0.08255953608584438,-0.06038197374988269,-0.12314457297338567,-0.09835218250209682,-1.3826650303960715,0.16911279999340192,0.14494376049444033,3.4780041017413317,1.2320345855441297,3.2265625
-5.7848921451342585,0.5483174023898485,-0.3688093248241114,3.871423650656563,0.4269756794591633,0.14037793864844675,0.001999692823451825,2.9794366315019816,-0.02881842934622373,-2.262779415351988,0.21860870307955024,0.0571802728047837,-1.387590646215235,1.5850621936599798,3.234375
-5.273531363930838,-0.029391359127137542,3.4636586201386734,4.518497659021625,0.06649360725049995,0.11242243269901707,-0.05065160871866205,-0.6113509223328142,0.11496018582505796,-1.9717549673175077,0.07439769750457416,0.09079922314616987,-2.0317860035451267,1.5250253762605666,3.2421875
-1.075281108634183,-0.3701469042187937,3.7845716755009007,1.7537516911125373,-0.26501002712316235,-0.038471434310003896,-0.09597914093590462,-3.9642873138748898,0.16039737180860977,-0.8863871397199807,-0.06592926135579184,0.12269747443081375,-0.03778085127523358,0.9784695557975448,3.25
1.8016722154918756,-0.7033008270819464,2.849088363398149,-0.8505087247813431,-0.3648632757138881,-0.025926976267064878,0.0011846801979973859,-1.1680817469102398,0.13075700965704332,0.6265995333398097,-0.13987008275981574,-0.04063055354514918,-1.8270090183373744,-0.2885575411436254,3.2578125
3.5899173650923664,-1.1812425368228945,2.894250281780895,-2.5666849916320915,-0.4557769438411733,0.06547390955122201,0.13790081607561683,2.9455965741239356,0.11577025636506676,2.2827838373065874,-0.2237800379021509,-0.2698684603945554,-5.512981606050892,-1.8238075393189903,3.265625
