AF3,AF4,F3,F4,F7,F8,FC5,FC6,O1,O2,P7,P8,T7,T8,time
0.0013837099309472114,-0.018922522989653703,-0.0190291868692754,0.03561686554744208,-2.7351113585029047e-05,0.008805457143558003,0.02110576501424096,0.015224317932568456,0.27344483364882416,-0.027940058760866783,-0.3458943459102887,0.0058404841486987364,0.04641524578056785,0.004050960911257961,0.0
0.003955930183027853,-0.051547717107959426,-0.05305343713458013,0.09818475627787712,0.0008296499920967044,0.025084113907457847,0.057686320821966695,0.041493447379255914,0.7515865670624586,-0.07741038627810581,-0.9502239435906976,0.01532799386317031,0.12779011148461503,0.010491678451136084,0.0078125
-0.0031596588105484015,0.03875506860524732,0.0410711675219736,-0.07505258713695696,-0.001542704639681599,-0.019970806963705602,-0.04357211299821706,-0.03120525428375665,-0.5712216167524231,0.059520624460794695,0.722340729000254,-0.010911611864589742,-0.09735040901306001,-0.007336643499756679,0.015625
-0.007476488183244306,0.09352409240008802,0.09818446314873087,-0.18011143674292235,-0.0029817327652147353,-0.04729945162528622,-0.1049955975716279,-0.07530297767293256,-1.3738001908618296,0.14257370727305657,1.7369119864506772,-0.026835424882103994,-0.2339440800314085,-0.018150056999917077,0.0234375
-0.0028367732283548813,0.034624958320167896,0.036816139982370266,-0.06711784445559717,-0.001434907556593709,-0.01791465211756841,-0.0389593615503752,-0.02789756950357064,-0.5112889321713832,0.05327538397178593,0.6461647782931871,-0.009731010140950513,-0.08715812959040643,-0.00652216043646656,0.03125
-0.001271204950558004,0.01474502921759017,0.01608592947557694,-0.02897791694612315,-0.000912966878377744,-0.007993411774606333,-0.01665849946395327,-0.01190583543266349,-0.2201278153529139,0.0231366860176265,0.27790937925619075,-0.003956101010570727,-0.03762143024876788,-0.0025964413005274355,0.0390625
-0.004628037919288361,0.05734402649701031,0.06046324768180335,-0.11069587326598315,-0.002031927296532546,-0.029250354805931418,-0.06441526254757023,-0.04620830134650074,-0.8441197236717144,0.08773306411519105,1.066867237675565,-0.01632763379324823,-0.14382115842915846,-0.011006517154849594,0.046875
0.0017535179437929275,-0.023634319673457683,-0.023946277246744408,0.044636642430374164,9.567286225861825e-05,0.011135456554958604,0.02637713072533224,0.0189829438258265,0.3420834750628132,-0.03503682616581074,-0.4327443871065455,0.007209740176077748,0.058073356945540035,0.004977932099087132,0.0546875
0.014724660204333667,-0.18823808855493768,-0.19549851310066294,0.3603842428726269,0.004419902997946889,0.09324853393767543,0.21093806316399558,0.15150414768164688,2.7533382035705953,-0.2846060241257496,-3.4812380617775074,0.055039351133245464,0.46844197774547824,0.03747252498260396,0.0625
0.012369226416989138,-0.1583449256455093,-0.16432489918986828,0.3030355306395984,0.0036344617950629533,0.07834544902108918,0.17742969924753788,0.12744939195904317,2.315503854839512,-0.23928668611503057,-2.927778893629643,0.04634668543589128,0.3939088064961613,0.031572463447423954,0.0703125
-0.0038228279095895074,0.04714394494115169,0.04986116694296772,-0.09114834251188694,-0.0017636724536611722,-0.02415992947192222,-0.05297013319724212,-0.03796753135327018,-0.6946271111384241,0.07226666768662157,0.8777037731895548,-0.013364589972294416,-0.11837984323740221,-0.00899313516345179,0.078125
-0.009026743964046863,0.11320029140669442,0.11870034835779122,-0.21785263492811507,-0.003498330057233745,-0.05711920339258185,-0.1270407284384534,-0.09113309549092836,-1.6621121690662635,0.17240390338369815,2.100819050580479,-0.032547610616647626,-0.2830236051426139,-0.02203354438537106,0.0859375
-0.000671000805318184,0.007181035568730806,0.008177106643884683,-0.014465220977729664,-0.0007124606710027851,-0.004236413172879799,-0.008166934383791258,-0.005772290097176852,-0.10870301705958549,0.011634823361368864,0.13709849963720663,-0.0017297459916938052,-0.01867583784006136,-0.0011029149051072964,0.09375
0.0012224884131871291,-0.016850907485126784,-0.016870998370306405,0.03163048374583273,-8.135333672711003e-05,0.007756989911143321,0.018782905682174264,0.013570953562901257,0.24340115648163754,-0.024801988712788717,-0.3077944565367761,0.005246263070151861,0.04122438216124695,0.0036420145121111055,0.1015625
-0.004327886175131131,0.053558772676675255,0.056545407533241485,-0.10345995198390662,-0.001932217570161064,-0.02735671064026163,-0.06017121902724668,-0.04313047545106054,-0.7885289378041361,0.08198789634827389,0.9968048204197812,-0.015232327696310503,-0.13434718544669114,-0.0102597927808477,0.109375
-0.0029112674090501,0.03555939621053446,0.03780106644637407,-0.06894366831997763,-0.0014601477327620069,-0.01837037527951716,-0.0400024755031551,-0.028655434637275712,-0.5252957194964164,0.05472084742184105,0.663799087903088,-0.010009328561169433,-0.0894715805544095,-0.0067089266973105344,0.1171875
0.0008989548852930584,-0.012791766584119926,-0.012622158127066121,0.02383628412779494,-0.00018943191241162043,0.005750481795056516,0.014214206506549629,0.010269213620079974,0.18325485853026752,-0.0186155794298082,-0.2319548130245237,0.004050525604828551,0.03110093045540471,0.002837345799341499,0.125
-0.003654869952126019,0.04500631503683681,0.047584642204156806,-0.08699681001697968,-0.0017069665550769548,-0.023086271641627194,-0.05057600673797856,-0.036257826154133865,-0.6629525410875975,0.06898106565663972,0.8381122571926357,-0.012735387051835521,-0.11299366671841779,-0.008569389812370076,0.1328125
-0.0051933005141882585,0.06452642424420274,0.06793077465871691,-0.12443917377572267,-0.002219847963523904,-0.032827789814950624,-0.07245867456242418,-0.05197749271444024,-0.9489538645901056,0.09858660834099152,1.1997020356256025,-0.018409447376693523,-0.1616820913810766,-0.012421777816374827,0.140625
0.005824132033209782,-0.07528858421803321,-0.07777537289211202,0.14373334883418185,0.0014525750013585708,0.0369170160133634,0.08429573755425751,0.06057736603985427,1.0988622251144777,-0.11336622817402005,-1.3894703932104158,0.022215869241482906,0.18689215726719985,0.015177814163310875,0.1484375
0.011344410974209615,-0.1453259872308839,-0.15076717062425482,0.278060562685826,0.003292567571917017,0.07184947155607822,0.1628114685792208,0.11697109163584232,2.124842014455367,-0.21955064535132843,-2.6865848757195803,0.04257249847303757,0.3615234097197909,0.029002183578623046,0.15625
-0.0012580398717237646,0.01461539861570474,0.01593683968038172,-0.028750016221824274,-0.0009085913019438044,-0.007947169553940953,-0.016526203485844077,-0.01177823904509509,-0.2179544531356686,0.02293548944745134,0.27547435208020293,-0.003899807596217104,-0.03723646046223596,-0.002573422455321788,0.1640625
-0.012185541112892623,0.15327607517369293,0.16047066581883765,-0.2947320544522879,-0.004551249046653367,-0.07712053177401333,-0.17199477711921513,-0.12341026938128785,-2.249274781154135,0.23317265140166274,2.843549373111656,-0.04419733056915441,-0.3829707154975382,-0.02994760182291736,0.171875
-0.004278380227628117,0.052913833488803366,0.055871898433826166,-0.10221293888014171,-0.0019152882635805302,-0.02704548810270019,-0.05945354334532397,-0.04262508122047513,-0.7792575835433921,0.08102116012320908,0.9848648239619834,-0.01504107579871867,-0.13277633354555574,-0.010134655730002768,0.1796875
0.008490054196267336,-0.109118932740102,-0.11302511920631649,0.20860476321345053,0.00234106126391802,0.053793484518293744,0.12223976849417122,0.08781518232186124,1.5944179502577225,-0.16464385021437075,-2.016121027902014,0.03204254956624263,0.27120336044813487,0.02185488356375768,0.1875
0.00910587879390742,-0.11692227526651286,-0.12117661169410143,0.22358184836944478,0.002546347442774813,0.057687449122283706,0.13100224479955402,0.09410092953308892,1.7089200116470182,-0.1764805987037631,-2.1608119390356224,0.03431357162476685,0.2906805675784992,0.023399033934810597,0.1953125
0.0020548588773581207,-0.027443419264264152,-0.02791220361471613,0.05195370938589926,0.00019604065280721142,0.013051561069321241,0.030677488173024056,0.02207073481564748,0.39819152760602194,-0.04082283965547052,-0.5037806387376702,0.00831195491031936,0.06761000699712102,0.005736832764132916,0.203125
-0.00297986853679329,0.036442489433018775,0.03869645946158832,-0.07059540507349832,-0.0014822729791013085,-0.018816957816820728,-0.04096638512662201,-0.0293551336770712,-0.5377643993204283,0.05602956939833676,0.6793737655557961,-0.010255255864055783,-0.09167446747349328,-0.006877778169587038,0.2109375
-0.004280020619659273,0.052945088010503516,0.05591258742108924,-0.10227019608205559,-0.001915905327578205,-0.027055032789369028,-0.05948996884753946,-0.0426345382232061,-0.7796080967364297,0.08104166282903548,0.9851523657448958,-0.015048604003001164,-0.13283745212284517,-0.010141432366280045,0.21875
-0.0016186429656626102,0.019179473759552354,0.020712698031760172,-0.03750954081399352,-0.0010287923132649794,-0.010217283746380715,-0.02164102282028254,-0.015449530759397062,-0.28499580708049793,0.02984404344091826,0.3599907032258233,-0.005230519187183657,-0.048651362477677866,-0.0034782387907421612,0.2265625
0.002397168400629889,-0.03177931343063224,-0.03241711890560702,0.060254281576836564,0.00031002170511543463,0.015208225842891948,0.035500514059128706,0.025572736336285543,0.4616037143824228,-0.04741849938347225,-0.5837742475878166,0.009579570616079358,0.07843547911546978,0.00658480329312061,0.234375
0.0008649308686349593,-0.012334764782507945,-0.012154201337184907,0.022966043923662534,-0.00020087072069679564,0.005514949356773275,0.013701478510423554,0.009916716483457948,0.17689449385176947,-0.01793554257713459,-0.22374881842016547,0.003926121007978214,0.02998459164822219,0.0027496079618547645,0.2421875
-0.004478249478645474,0.05547102008833224,0.05852389547408237,-0.10710533861240432,-0.001982250113047845,-0.028315808366114595,-0.06233196701373424,-0.04467350030199332,-0.816408756093092,0.08487517207732617,1.032079237117298,-0.01577812066362212,-0.13908581179183785,-0.010636550717671786,0.25
-0.004194891706853669,0.05187092600115548,0.05476412265024764,-0.10019703434171796,-0.0018874983615515923,-0.026528371321224757,-0.058294823544148826,-0.04178060521522278,-0.7637702840909195,0.07941792727637566,0.9654954543708052,-0.014728442932785885,-0.13013833330632812,-0.009926782006393778,0.2578125
-0.00043795781794746404,0.004188892374666343,0.0050485257939950874,-0.00871972312473212,-0.000634539665519661,-0.002737089753248078,-0.004812449008038847,-0.0033955214124919897,-0.06521893891980053,0.0071142987962895515,0.0823027119285215,-0.0008720677027563839,-0.0112550744016397,-0.0005124556973237595,0.265625
-0.0026990523669775932,0.032880440860294013,0.03495219340099502,-0.06376286588715221,-0.0013882290699767498,-0.017039540164865925,-0.0369634930711353,-0.026488579297723455,-0.48537325886601584,0.05061163081202466,0.6135166920893603,-0.00921463426871645,-0.08278029064862816,-0.006176213141995757,0.2734375
-0.005251468928521891,0.0652693798841722,0.06872832500484294,-0.12591319360381253,-0.0022395406507087897,-0.033196917151195035,-0.07328246660657611,-0.05256333970355581,-0.959913713916817,0.0997365809624644,1.213491534237217,-0.018631211790837817,-0.16354942711127027,-0.01257196256140644,0.28125
0.0032695113765797037,-0.04286841699407669,-0.043970816669807955,0.08152146777498812,0.000600625918347513,0.02074189036669572,0.047946608434628155,0.034479535440269174,0.6238968416585868,-0.06419446599219868,-0.7889191573822089,0.012790957603768773,0.1060415883930579,0.00877617223176598,0.2890625
0.012904113917133066,-0.16513568262705167,-0.1714103886343735,0.316079257231332,0.0038122815430886824,0.08173435618690526,0.18502450771679213,0.13289760467510595,2.414811728474045,-0.24956789084304917,-3.053212270727835,0.04831864638890724,0.41088022220908077,0.03291611691879788,0.296875
0.006091795207828174,-0.07868034219679136,-0.0812987200997226,0.1502372958154271,0.0015413729972756586,0.03860654981234896,0.08809237400557698,0.06330336723754669,1.1484385526527963,-0.11850166007743414,-1.4522824791986304,0.02319425097213178,0.19532867553803965,0.015848815519748215,0.3046875
-0.007961627498038954,0.09966910652990513,0.10459679588345616,-0.19190095569132584,-0.003143180098917358,-0.05036611454332124,-0.11186404171459384,-0.08025482541893925,-1.463984054971267,0.15189196690488582,1.8503848708308759,-0.0286274980129852,-0.24933757210087995,-0.01936272604213938,0.3125
-0.004867104144309683,0.060403114550853204,0.06366542300967752,-0.11658400384913863,-0.0021112228091858423,-0.03077667599652773,-0.06782847491789207,-0.048630640120207895,-0.8886536724135558,0.09235389408428671,1.1229267345203406,-0.017208474731085697,-0.15141405755198714,-0.011611956911378719,0.3203125
0.012766860058831002,-0.1633774181002489,-0.1695865548898471,0.31269792751921177,0.0037671861887885387,0.08086483308767861,0.1830726106751212,0.13151718717367566,2.389500381861251,-0.2469322663767056,-3.0214023841537827,0.0478230857328936,0.4065624082334318,0.032567130086959155,0.328125
0.015401118928694302,-0.19681227678333,-0.2044298665131214,0.3768406268533402,0.004644915007397944,0.09754559413178406,0.2205410617200504,0.15842182388569917,2.8791896381851534,-0.29761898957721106,-3.640210902704223,0.057534716836395904,0.48993094738680343,0.039167237002693825,0.3359375
-0.008290337763309214,0.10383026984733373,0.10894131611080292,-0.19987592191941517,-0.003253023750533289,-0.052442599634521955,-0.11655742071507326,-0.08361309913881758,-1.5250553016540143,0.15821244023144906,1.9280122859248294,-0.02983300150396334,-0.2596757351505984,-0.02018665666440009,0.34375
-0.030975273593482237,0.3917035935804238,0.408993358506332,-0.7520941019697978,-0.010814986514511918,-0.19606139905050485,-0.43932011440307195,-0.31536151144087987,-5.742173439180076,0.5946787452172447,7.259348018330384,-0.11348613187663012,-0.9774470024598264,-0.07701775556034965,0.3515625
-0.022252601418495013,0.28102150525230873,0.29361930184857304,-0.539776052421674,-0.007907087325333137,-0.14084581614308245,-0.3152111397596344,-0.22625280628023833,-4.120686938139571,0.42685564698416867,5.209280199787482,-0.08132158796149122,-0.7014919171099189,-0.05516562525015334,0.359375
0.009564879644820426,-0.12272427526021351,-0.12721808164555887,0.23470936263219058,0.002699250445802462,0.06057447769890763,0.13747282956467477,0.09878874330755681,1.7940063535149713,-0.18531391397162505,-2.2681045476283437,0.03600566568370998,0.30517166348799124,0.02454094184352097,0.3671875
0.027605322937729805,-0.3516470814098016,-0.36583202840003665,0.6738433141961879,0.008713064346892195,0.17477864659348824,0.3941388665102729,0.2830880880689857,5.147616030824389,-0.532415746555703,-6.507686690317885,0.10253220195336338,0.8759546833995439,0.06973368942557609,0.375
0.015132933924952557,-0.19339155578972012,-0.20087849934879556,0.37028015813848175,0.004555728419611258,0.09583095363557471,0.2167125005633094,0.15567701694913183,2.8291947742470374,-0.29245931162278904,-3.5769587571482497,0.056542526846656734,0.4813629894687605,0.03849260364825035,0.3828125
-0.005124990308475048,0.06364939250104538,0.06704593497583725,-0.12278397192439637,-0.0021970514362630866,-0.03239323274324931,-0.0714617251012498,-0.05127066657620675,-0.9364178436451869,0.09729141897459577,1.1832483800198448,-0.01816216359824782,-0.15955233456660467,-0.012249237030365259,0.390625
-0.007334275742707998,0.09168289913183342,0.09626664614684528,-0.1765675539964894,-0.002933877234710107,-0.04637133397201862,-0.10288832417371216,-0.07384417341437854,-1.3470777037079864,0.13980350988982657,1.702583240120556,-0.026316370112949523,-0.22944913767376823,-0.017782561475571116,0.3984375
0.0019270404490491987,-0.0258191231348906,-0.026215269046397635,0.048826311058227066,0.00015298352729455913,0.012247881370043146,0.028837604023872504,0.02076139545433981,0.3743793318252306,-0.038373822329769394,-0.47326659541864763,0.007833198805669187,0.0635652345401604,0.005413292556786362,0.40625
0.0016388934594683212,-0.022164532327397162,-0.022405098630427875,0.04182498433725865,5.723229574072827e-05,0.010420993377483919,0.024729916552620072,0.017821987188996562,0.32081232742592086,-0.032842227109765344,-0.4056278981350803,0.006777326151476999,0.05446829794178881,0.004690230314138298,0.4140625
-0.0074586853210402634,0.0932492849749939,0.09790820903671889,-0.17956303076071944,-0.0029748518038513394,-0.04715755400963269,-0.10466086279003951,-0.07510512817985363,-1.3701336277613503,0.14217411504051955,1.7315591559454586,-0.0267640043216008,-0.2333379462513854,-0.018095490139265865,0.421875
-0.009187327213204824,0.115182582280925,0.12077466661690396,-0.22165003116767637,-0.0035512344916141868,-0.05810078457375309,-0.12925028550747375,-0.0927642643011162,-1.6914448945215919,0.17544785700720963,2.1376923143451703,-0.033136996609225984,-0.2880260015827362,-0.022426301441217364,0.4296875
-0.0026751912052884806,0.03259603110489382,0.034671653943639365,-0.06324398720211197,-0.0013811625966110217,-0.01690686064897258,-0.036681233093168064,-0.0262525581529636,-0.48125092085556104,0.050199984305441744,0.6083132746554811,-0.00912051083007267,-0.0820176821608461,-0.0061234512099125685,0.4375
0.0001544642021481113,-0.003271804606110583,-0.0027349875242314273,0.005560267865827194,-0.0004381202513565652,0.0009783892714280956,0.0035118770235169476,0.0026450231793683433,0.04444428151627381,-0.004223002710741589,-0.05595936382345464,0.0013187742121970774,0.007475211028241624,0.0009565760924510745,0.4453125
-0.00029444696561779034,0.0023998232418306,0.0031888760786505555,-0.005307888915853301,-0.0005872280428059517,-0.0018537956649142047,-0.002830191192011679,-0.0019343430396462837,-0.03890939337299937,0.0043893414680425714,0.04902468756332598,-0.00033950719431089465,-0.006750663168279056,-0.0001621937457275809,0.453125
0.004651168851164666,-0.06040918639563135,-0.062244207013167505,0.11518328858253295,0.0010617251611610035,0.02948326409027817,0.06762065755282408,0.04859795855546653,0.8806854750519324,-0.09078947845378885,-1.1139796504627373,0.01788533484798022,0.1497170711289011,0.012239859390356291,0.4609375
0.01019265509954436,-0.13074242225851013,-0.13553505060148036,0.2501020826272597,0.002908671255733127,0.06457643487045615,0.14647917950928263,0.10520973602845414,1.9108447086210623,-0.19740737245909729,-2.4161861579674624,0.038311146869887375,0.32506125376389106,0.02612612713905615,0.46875
0.006260361612239918,-0.08082107245746396,-0.0835093456639045,0.15433800172652004,0.0015975437807982116,0.039678200046644935,0.09049183195374376,0.06503899769325253,1.1797993026091491,-0.12174500275417478,-1.4916193507161617,0.023813442707296902,0.20067278529867677,0.016269441334484713,0.4765625
-0.0010289339661506281,0.011695376990618844,0.012905774567540905,-0.023142228538616163,-0.0008322447317267574,-0.006473444256067044,-0.01323592871592161,-0.009424165901510512,-0.17520321790895924,0.01850207063666604,0.22143850318659253,-0.003060406845768397,-0.029959911275380207,-0.0019965509169369445,0.484375
-0.000680190403674283,0.007271256668409863,0.00828626712503602,-0.01466719597621561,-0.0007159048555785096,-0.004270966521821333,-0.008263932059868282,-0.0058655000544066875,-0.11036608855982548,0.011802483093336634,0.13930851944990782,-0.0017744889956230114,-0.01896087016848964,-0.00112257612610176,0.4921875
0.001564422232188604,-0.02121466146801811,-0.021409091467386964,0.039981882795985864,3.2235996850015015e-05,0.009936244024534009,0.023670279344301735,0.01705616535834378,0.3068365057762991,-0.031378320455933376,-0.3881035156885116,0.006500841183804567,0.052054793515003986,0.00450282715944173,0.5
-0.0038773663855476118,0.04783959813480854,0.050556221110979224,-0.09245945215518755,-0.0017817071321568779,-0.024507402759796567,-0.05376554438397483,-0.03853741358630091,-0.70468141664311,0.07329962670703256,0.8908066966268839,-0.013561891145065959,-0.12007049359132596,-0.009129220688438255,0.5078125
-0.009983126265674588,0.12532035063101074,0.13130060523526293,-0.24107628416020116,-0.003816769432769015,-0.06315366975530913,-0.14063426856817374,-0.10090731790408623,-1.8395003627725437,0.19074917601589111,2.3254030861726864,-0.03606969625807099,-0.31322255484512895,-0.024426240232241332,0.515625
-0.007115734771620596,0.08893350667428852,0.0933722927692744,-0.1712879079504786,-0.002860808821783284,-0.04500362126710227,-0.0998251430823379,-0.07161300803494274,-1.3064276484570212,0.13558639337381803,1.6512833406468126,-0.025495038817772955,-0.22252686424101295,-0.01724311719432328,0.5234375
-0.0014180145205392627,0.016625094342651817,0.018021144416669358,-0.03259050073742363,-0.0009615596720995419,-0.008933969911754852,-0.018749074687212867,-0.013406323484543022,-0.24740240699469587,0.025977514582896776,0.3123861886835641,-0.004492244543521879,-0.042274105852770374,-0.0029670772616811635,0.53125
-0.0007872201318712733,0.008610959194513372,0.009684318293302893,-0.017212334517390494,-0.0007512510537702153,-0.0049311071093844925,-0.009765612530139745,-0.006956406355661162,-0.13017144117913523,0.01383509488363126,0.1642788496732518,-0.0021718342517740366,-0.02228542789534552,-0.0013847545517908357,0.5390625
-5.3953996827959955e-05,-0.0006940324841871352,-1.4076243903328788e-05,0.0006335473048413976,-0.0005067254876027376,-0.0002894959460486512,0.0006673017958088438,0.0005399528055444544,0.006248949044533206,-0.00027345043149217506,-0.008154419549067723,0.000538113699472992,0.0009340669765837836,0.0004498440893971855,0.546875
0.005285903768099083,-0.06844290051185477,-0.07063116282747492,0.13057591693552018,0.0012731458953509393,0.03349299706506259,0.0766218455675654,0.05508654588624208,0.9988041543389509,-0.10298238269949991,-1.2630798044825908,0.020238430792796275,0.16983953820643963,0.01382207431375607,0.5546875
0.008629835475590784,-0.1108682192779624,-0.1148379268589417,0.2119555064854926,0.002387510049853984,0.05464474654713892,0.12417378343891103,0.08923989011218804,1.6200866381159555,-0.16729917424169877,-2.048634319586426,0.03256701214343113,0.27558133064046153,0.022197928865593144,0.5625
0.005745013351113191,-0.07426581515922291,-0.07667353504689119,0.14175884613992887,0.001425697830865315,0.03639089015550408,0.08312590140256962,0.059767873190085086,1.0836572676565843,-0.11181463372446034,-1.3704003318079478,0.02191773221936078,0.18430035821253868,0.014974203362733255,0.5703125
0.002072219665586203,-0.027664443013391125,-0.02811155263380979,0.05236983876961809,0.00020139796331862536,0.013155291039986496,0.03088476289057261,0.022247449846086655,0.40109990217017294,-0.04116602941800197,-0.5072319077459582,0.00836941347121583,0.06812960707830899,0.005775433633898101,0.578125
0.0012560888709965952,-0.01730453082877581,-0.017337936159675216,0.032485330011550406,-7.061033672624905e-05,0.007989842916227034,0.019282790642134864,0.013905527615781196,0.24959993904388142,-0.025445235040094372,-0.315471216273555,0.005364724594850556,0.04234407268105511,0.0037306492853005713,0.5859375
0.00022347319980259075,-0.004200281013072718,-0.003690928016170141,0.007352416189675281,-0.0004146775885947396,0.0014537423214467202,0.004595234472587523,0.003355209935974822,0.05768227470918109,-0.005572783227405119,-0.07287957622863907,0.001560838008669386,0.009702266494775772,0.0011450384724044573,0.59375
-0.003360411311924254,0.041269589249507674,0.04370158987024073,-0.0798478438701375,-0.0016090752436877809,-0.021219591838073922,-0.04638410681645717,-0.03324974751757482,-0.6084437585044916,0.06334040608350289,0.7690590634569716,-0.011654616430102464,-0.1036676336980641,-0.007830512825637837,0.6015625
-0.008267753069716428,0.10353832803019272,0.10860070867729642,-0.19928894459093766,-0.003244821052476247,-0.052275992217908934,-0.11619588141462095,-0.08337628193985099,-1.5204770139782053,0.15772615606180612,1.9220022052632846,-0.02974892943403391,-0.2589348694278198,-0.0201246050730429,0.609375
-0.011110715745374186,0.13962273953680465,0.1462188748606114,-0.268526207690086,-0.004192740933834188,-0.07028700514387401,-0.1566575929421892,-0.11242218105072033,-2.0490071371207392,0.21244925160515143,2.59018871404445,-0.040231412605646805,-0.34891946214291975,-0.02725032095520425,0.6171875
-0.006614855475337292,0.08257661698040593,0.08679020546503516,-0.15911335465596116,-0.002694266780260309,-0.04184648914684568,-0.09271286772994511,-0.0664957947548795,-1.2136414776976494,0.1259876713038751,1.5339421847137618,-0.023656657833800932,-0.2067211348809618,-0.015989887020335006,0.625
0.005168264991576855,-0.06695591313595596,-0.06904583909670056,0.12772477820218722,0.0012337201674951866,0.032744034446596695,0.07493716304332072,0.05388295265677493,0.9765410547257556,-0.10071742410920197,-1.235117424734178,0.019790843903809172,0.1660647509823535,0.013529303645608365,0.6328125
0.012229949936056717,-0.1565732233371934,-0.16247285637778722,0.299632725250941,0.003587930136339883,0.07745825566207112,0.17543223491736748,0.12602635234238574,2.2894872637539714,-0.23659833881259412,-2.8948303633430457,0.04583434607409891,0.38950472244219153,0.031221291974546664,0.640625
0.00454065928697558,-0.05898850525941165,-0.0607914586252208,0.11244078977933175,0.0010246748623064302,0.028781035199087875,0.06603194618195544,0.047466771848963085,0.8603087460491812,-0.08864976994452477,-1.087703647120706,0.017483620148127633,0.1462418270334982,0.011958173758581055,0.6484375
-0.0076473974347554905,0.09569021917938654,0.10043035735604325,-0.18426625225700355,-0.0030384388591291394,-0.04838724599176752,-0.10741043695471976,-0.07705215349907271,-1.405564108015142,0.14586129305691567,1.7769247803810155,-0.02746212552055294,-0.23938084598445758,-0.0185767260903864,0.65625
-0.006348208005503476,0.07920675673745022,0.08326580205362921,-0.15263918623376269,-0.0026054374694853104,-0.040163603714732994,-0.08894731607512245,-0.06377726101045542,-1.1642530681058738,0.1208537669017131,1.47165588548288,-0.022673968637530042,-0.19827799101822702,-0.015323224555878045,0.6640625
0.006095175620633229,-0.07870575149838137,-0.08133232433263939,0.1502826614308834,0.0015427731553620168,0.03862624318555901,0.0881184844256009,0.063351470511773,1.1491102928396424,-0.11858191087337434,-1.4530424428319766,0.023213238348200885,0.19544747115217692,0.015851126613053466,0.671875
0.010896526147369854,-0.13964039131084424,-0.14485874525886308,0.26717352339502404,0.0031435068042629088,0.06903254200629887,0.15646144080269483,0.1124049714834088,2.041918797230557,-0.210966532284516,-2.5816863159086143,0.0409203073930114,0.3473833362353997,0.027881620755392692,0.6796875
0.0030046937153387875,-0.0394941693352375,-0.0404658048219722,0.07506346023340853,0.0005126019842233913,0.019063844766649744,0.04416878788271906,0.031777582576783196,0.5747171873309483,-0.05911062633362649,-0.7268105574488497,0.011816170302907653,0.09767499122816312,0.008110910076829646,0.6875
-0.0036971866784900904,0.04554988034311918,0.048194290873572,-0.08807898685497371,-0.0017218051605287846,-0.023371789822675935,-0.05120366815541029,-0.03669470296248099,-0.671384023633816,0.06984794132248813,0.8484646710718518,-0.012900789630449827,-0.11439117825869985,-0.008678883239233456,0.6953125
-0.0021220728334260942,0.025552621607747922,0.027344615364067036,-0.04971430360786808,-0.0011966892010641637,-0.013389518868907133,-0.028773354163976608,-0.020602084286762197,-0.37841753174630394,0.039534606246931225,0.4780535220230493,-0.007090681092480885,-0.06453305801395937,-0.0047295392260292115,0.703125
-0.0011625243161857886,0.013368217869963062,0.014626287708558793,-0.026330498239061927,-0.0008763769142156308,-0.0073013053331655794,-0.015088126341364253,-0.010790984365693394,-0.19968223111541702,0.02105584713551939,0.2521335450811825,-0.0035459220445199554,-0.03413220129883915,-0.0023226816001368313,0.7109375
-0.005276006397649577,0.06557215061926029,0.06903694986805711,-0.12647162578902268,-0.0022473948314688462,-0.033348538550336926,-0.07362333550962023,-0.052809987782859794,-0.9643262103596395,0.1001978418322205,1.2189515598045544,-0.018710437703251183,-0.16428004454583556,-0.01263064877858157,0.71875
-0.006065131549904371,0.0755953878874191,0.07949316425479822,-0.14570669244212892,-0.0025106912825384204,-0.038358990129363175,-0.08488343536277992,-0.06087813291217984,-1.1112535751915784,0.11539162095491097,1.40486457075993,-0.021623322566491614,-0.18928339790236307,-0.01461145970727223,0.7265625
-0.00045110710425659973,0.004352757334512488,0.005242702855370076,-0.009046936372640316,-0.0006394523459533473,-0.002821079616843121,-0.0050090766958740115,-0.0035332237292638262,-0.0677661099138657,0.007381917042513236,0.08561161200441537,-0.0009286300759097423,-0.011691475488015385,-0.0005455525099603784,0.734375
0.002536620957925876,-0.03356817359661749,-0.0342707521750818,0.06368744877519582,0.00035656149770755267,0.016094865059874806,0.037517471662055366,0.02699043031330619,0.48757046340965116,-0.05009946725738641,-0.6167615277589613,0.010083878704161333,0.08281245278685898,0.006941225024449011,0.7421875
-0.0004946342141060311,0.004904633543351389,0.005844494927360461,-0.01013487665611391,-0.0006540115010853876,-0.0031030240226442626,-0.005621444405440543,-0.0039720957726922836,-0.07609646500232589,0.00823904189548192,0.09565028363109285,-0.0010941132832008589,-0.013118214201995878,-0.000656949390082877,0.75
-0.0016915616169373062,0.02011001119642065,0.021688833877440326,-0.039309843542346797,-0.0010533341656696756,-0.010685584974610985,-0.022675263071086294,-0.01620063577867665,-0.2986924496740139,0.03128348962126538,0.3771879964011592,-0.005506300742632064,-0.050984531130716645,-0.0036593896498226214,0.7578125
0.0011470748711340786,-0.015908031628445857,-0.015874485295395965,0.029805378368668013,-0.00010712157848743399,0.0072942868219160115,0.017716007676537263,0.012795726447751093,0.2291447228829213,-0.0233439426919381,-0.2899295630724873,0.004962727289919522,0.038862658022934204,0.0034552121611088693,0.765625
0.001287021620930428,-0.017690555521315567,-0.017747721018932575,0.033245776478901694,-6.0144057349005555e-05,0.00818641513870824,0.019717239466268435,0.014224931994232944,0.2553278582428199,-0.026060074251770392,-0.32291773027054216,0.005482372790741658,0.04331707380407458,0.003808574211340487,0.7734375
-0.000674211159227389,0.00720289289651041,0.008190347570714436,-0.014509776051683118,-0.0007137011989205084,-0.004240033445271238,-0.00820866566176493,-0.005812428378402123,-0.10923374014582722,0.011669080811420061,0.13817751396462352,-0.0017435874982461115,-0.01872973268308112,-0.0011097249164548767,0.78125
0.0026958488274385077,-0.03555162089686282,-0.03638145649498696,0.06750163631103906,0.0004096810340031203,0.017089598065996095,0.03971953853083285,0.028614929520939792,0.5172973891216303,-0.0531694253362986,-0.653751447202972,0.010687402330656813,0.08791108941524339,0.007328692509358804,0.7890625
0.008189555143466089,-0.10527967069357738,-0.10904909479327698,0.20126903002445715,0.0022410348236039115,0.05188789213246869,0.11791551068990382,0.08474658943764916,1.5387019304047311,-0.15888289831411215,-1.9453459775593953,0.03094256593157735,0.2617556659959967,0.021097292527762785,0.796875
0.005574184211757742,-0.07212314776508556,-0.07445874130094565,0.1376647049628709,0.0013693074515289023,0.03535331036958792,0.08076170212656812,0.0580404727609491,1.0525621521401862,-0.10857412784775967,-1.3312761549031107,0.021291897952053357,0.17901244913405562,0.014554118962847981,0.8046875
-0.00251741187061851,0.030546092109665777,0.032564493074204844,-0.05930131233181209,-0.001328046347341533,-0.015872849579043065,-0.034344881196748896,-0.02462275276807904,-0.4517081988960128,0.047123009431156215,0.5704161706222541,-0.008548364124733622,-0.07702332207797657,-0.005715534544172272,0.8125
-0.004582136547540516,0.05676102168412658,0.05986839819402125,-0.10959763700489024,-0.0020164292435646916,-0.028958248554307776,-0.06374058427920498,-0.04572666145217725,-0.8355708385452554,0.0868679370723693,1.0560748491253777,-0.016160605745378774,-0.1423726807075862,-0.010891666273582191,0.8203125
-0.000967434830010905,0.010900589461419707,0.012068002528014278,-0.02161891298102855,-0.0008115890770405549,-0.006082644532000691,-0.012332162902842047,-0.008804203562178725,-0.1637017096702758,0.017326090625310733,0.20674410763197534,-0.0028335721461468207,-0.02802342744684706,-0.0018374911228480992,0.828125
-0.0010574901809307102,0.012042220618259915,0.01328961698774016,-0.023807051938784022,-0.0008418163657702629,-0.0066584696287589375,-0.013631804775778852,-0.009722898469983086,-0.1807091485579734,0.01906420391037045,0.22793191015835823,-0.0031709587191701377,-0.0308964739618027,-0.0020631682388308945,0.8359375
-0.004656776440541523,0.057724419814906405,0.060906139556641946,-0.11143712091883057,-0.0020417395572557605,-0.02945381153271064,-0.06486273198386953,-0.04649618523641177,-0.8499460518437277,0.08832159819534774,1.0739630740944035,-0.016441672700850337,-0.14478409982071022,-0.011082487691491323,0.84375
-0.004479547621091901,0.05548971274202365,0.058533539766087155,-0.10713881938568175,-0.001982367406487963,-0.028333461173420754,-0.062346343576280126,-0.04468922620504398,-0.8167507379296379,0.08489852792855751,1.0323803407755787,-0.015779385177483063,-0.13915002392286221,-0.010641451982694335,0.8515625
-0.0012867253337412801,0.014975148308135353,0.016283820055830386,-0.029414491558154465,-0.000917660456070009,-0.00811432468041867,-0.01690970731303791,-0.012067367938494224,-0.22293430930295285,0.023448006682678834,0.2819090156314246,-0.004002455574513536,-0.03810849846166595,-0.0026438641141266657,0.859375
-0.0008632786747416113,0.009596418197713856,0.010697738941096244,-0.019105013254528035,-0.0007765277348927203,-0.00543644183360367,-0.010888481797461415,-0.007739287085690742,-0.14427794157391435,0.015305698691308654,0.18238243825024464,-0.002444720458058165,-0.024730324093163496,-0.001583143526321722,0.8671875
-0.0024650786110027695,0.029925511334804387,0.031884609007113957,-0.05809990413600984,-0.0013106853238507023,-0.015583058509909025,-0.0336849133866663,-0.024110081425956578,-0.4421248111680462,0.04613613902047035,0.558871465340317,-0.008350594535303086,-0.07542762449481843,-0.005594721772193901,0.875
-0.0018675178439448692,0.022342389790285872,0.023945721947266886,-0.043535624168456875,-0.001111453578451437,-0.011783899613411308,-0.025153039553454267,-0.01800661925215438,-0.3307989776055241,0.034622438354953634,0.41821292240775665,-0.006142548249440521,-0.056483333533258094,-0.0040933178650134185,0.8828125
0.0014229731282927804,-0.019428820544496656,-0.019587178996426115,0.03658864683679321,-1.4615648531950129e-05,0.009074324849212414,0.021706129412795323,0.015620346534826881,0.28102146601032185,-0.02870268507085702,-0.3553150410278917,0.005986514627483397,0.047672225996082264,0.004154333432431516,0.890625
0.0061263132426836306,-0.0791270109272186,-0.08175132337412677,0.15106902244968762,0.0015528014587504575,0.03884644418415262,0.08861501273499527,0.06367517415968359,1.1549584636137689,-0.11916668952300709,-1.460389040230497,0.023319712805102578,0.19646143650387676,0.0159356675039322,0.8984375
0.009548443458322398,-0.12254698511696296,-0.12697206240251116,0.2343360655052734,0.0026932534516062694,0.06047950250681405,0.1372546904382975,0.09862740420315269,1.7906625268641143,-0.18496837724685436,-2.2642391847140177,0.03593881099605343,0.3046724989000215,0.024503256427053834,0.90625
0.006238048923540767,-0.08052596609251582,-0.08319234956963192,0.15374227195019793,0.0015899835322896094,0.03950987665624209,0.09013836277631931,0.06480500681524023,1.175325290844042,-0.1212798692525061,-1.4863850876782636,0.023739524001551247,0.19991675329977798,0.016207839538813433,0.9140625
-0.0026088896221000374,0.031740012161662425,0.033800993009163505,-0.06159267457197151,-0.00135875147540277,-0.01647918745712887,-0.03570999309660681,-0.025566337421712028,-0.4689778349991447,0.04890326785206298,0.5923884761035731,-0.008883014882763074,-0.07995239842536757,-0.005953250991160832,0.921875
-0.005107595974069953,0.06344096102483149,0.06684318345639259,-0.12239879291608795,-0.0021915410445829315,-0.032285152191586126,-0.07125176914194258,-0.05108848185064048,-0.9333778251235257,0.09696150645906514,1.1796131969766799,-0.018100349966006186,-0.1589704890101622,-0.012212037600057074,0.9296875
0.0022552302547473205,-0.029992071671953963,-0.030549723224795083,0.05683139902528939,0.0002629895476380058,0.014318511827175522,0.0334928361790203,0.024124666132733518,0.4353414278742219,-0.04470267719774084,-0.5506134632279728,0.009054628399868496,0.07397939754942712,0.006231270286823977,0.9375
0.004389708986171026,-0.05707094770078767,-0.058792380239641034,0.10877998351328841,0.0009746271349493035,0.027824170893316673,0.06386485823935949,0.04592736785742592,0.8322354311696432,-0.0857727819998131,-1.0523895507681136,0.016930392165596095,0.14147466309031262,0.011577875615803592,0.9453125
-0.006616129228483499,0.08259981031733435,0.08678372758746011,-0.15914509835889662,-0.0026943933265750576,-0.04184967054108747,-0.09271573059972618,-0.06650840550367841,-1.2136867881085942,0.1259910255464645,1.5340603780314772,-0.023659243022953802,-0.20677525437620772,-0.015992027213080733,0.953125
-0.013251567761914315,0.16680912008462756,0.1745588984677643,-0.320677012254981,-0.004906601102110045,-0.08386113433617967,-0.18714094824004684,-0.13430217785134282,-2.4473156184579485,0.25367668840484264,3.0938018171222845,-0.04813179048495552,-0.4167040170313595,-0.03261442072791238,0.9609375
-0.0015613752697553336,0.018462142310165196,0.019922235526968188,-0.036093970164732425,-0.0010094862014646178,-0.009856974159136628,-0.020829073936772795,-0.014880253885593686,-0.2741031020580831,0.028750387576883706,0.3466255743672943,-0.0050159392181325,-0.04678362466514311,-0.0033291962873176002,0.96875
0.011255201418992503,-0.14418936671862786,-0.149624654191184,0.2759217394814575,0.003263258448246301,0.07129515143833802,0.16155322408858314,0.11605993817720137,2.1087330880949775,-0.21786976104274777,-2.6657931286736014,0.04225114378006587,0.3587518021256006,0.02878054260853797,0.9765625
0.00386984060249816,-0.050484335038423145,-0.05193926245940979,0.09615655400139485,0.0008011149765409383,0.02455705445967828,0.056513433933093264,0.04061698199004155,0.7358859512387149,-0.07577727204710451,-0.9303949343775415,0.015006581298012174,0.1250544369932306,0.010283543883528489,0.984375
-0.012465444162499378,0.1568026605547317,0.16415468685848544,-0.3014950505122906,-0.004644872085349306,-0.07886242774121806,-0.17591526180069827,-0.1262698604592708,-2.3011539184076875,0.23854818560134144,2.90894334239097,-0.04524377455565428,-0.39182277823984096,-0.030637933410105744,0.9921875
-0.012347638625449108,0.15530972760385242,0.16262458800075125,-0.2986406380648876,-0.004605781232872994,-0.07813372203259338,-0.17427833698318473,-0.1250700585189762,-2.279634877367114,0.23630227056180775,2.8816076328052964,-0.04480749391242112,-0.38809636858975083,-0.030347218672524212,1.0
0.0026873024347879265,-0.03548180680339838,-0.03623909043969568,0.06734868995198504,0.0004065817233633617,0.017045739574852448,0.03963625794361064,0.028537075872550503,0.515347829256095,-0.05298936792220778,-0.6520462575046789,0.010645597595910305,0.08761868512626472,0.0073140993353962265,1.0078125
0.010509137873312898,-0.1347421604968916,-0.13971890003282655,0.25776337447881015,0.00301452299453218,0.06657297060920782,0.15095838939108566,0.10845424901807017,1.969699785289081,-0.2035052406112906,-2.4907269817684985,0.0394943802990281,0.33510294715892835,0.02691107073745195,1.015625
0.006336608779693349,-0.08178800385029987,-0.08454691198365008,0.15618997869977536,0.0016236831271568097,0.04015774658286003,0.09160142916729211,0.06582147679279435,1.194154533089636,-0.12321972103769241,-1.510103693146,0.024106865231123334,0.20308161405875028,0.016460903675545552,1.0234375
0.004723182353734289,-0.06129879943386305,-0.06319809403056158,0.11687758951618986,0.0010854852322843115,0.02993145816540793,0.06861398152395247,0.04932840678700111,0.8940539768599771,-0.09215561027037493,-1.1305258850407591,0.01815674502083635,0.15202012291028766,0.012415387429628687,1.03125
0.008114708277917828,-0.10432374767171164,-0.1080352932687637,0.19939161103815936,0.0022156703550304164,0.05139349840378201,0.11683657306847148,0.08397600995929493,1.5243679451869507,-0.15739960422903962,-1.9273275850946754,0.030663889519791203,0.25930306920779345,0.020905062864777817,1.0390625
0.00377988247475486,-0.04931536921900859,-0.05069388211670693,0.09387245185031617,0.0007705947907288461,0.02395429075710084,0.055160031534879896,0.0396951073589107,0.7186002376308808,-0.07400524696409028,-0.9086297436265053,0.014676915422708338,0.12214743365353396,0.010045136712542048,1.046875
-0.00747412941172087,0.09348687779586376,0.09814524988993704,-0.1800312505846108,-0.0029807207789959173,-0.04727988141952039,-0.10494154369759588,-0.0752761287834624,-1.3732987383991324,0.14250769079839112,1.7360534175440732,-0.026827433726011186,-0.2338876414795859,-0.018141892094356023,1.0546875
-0.010023617559198209,0.12583320884966165,0.1318511461229473,-0.24205786395993734,-0.0038303153079912097,-0.06340843783489869,-0.14119787898481254,-0.10131972246652024,-1.8470806085572606,0.1915441239296188,2.33500567503088,-0.03622966283637605,-0.31450873471716334,-0.024524658022662345,1.0625
-0.0034434967044223793,0.04233574049236528,0.0448099682000189,-0.08188844785864052,-0.001636579482120967,-0.021748465604082987,-0.047573946606334225,-0.034091402211258705,-0.6237427892826203,0.06493077843148129,0.7883726010582208,-0.011958952224143282,-0.10630143781827267,-0.008041858664024265,1.0703125
-0.0023415453607109698,0.02835719088082691,0.03023081757759639,-0.05507718445519979,-0.0012692007413767944,-0.014777324979976341,-0.0319081614676145,-0.022835505031619237,-0.41888051284368455,0.04372894318682486,0.5294173348181028,-0.007890342463361547,-0.07143984558965899,-0.005283149402826258,1.078125
-0.005069761235974223,0.06297283526159647,0.06632250271934279,-0.12148098299626316,-0.0021790350008260204,-0.03205314209369564,-0.07073634784041352,-0.05071702194590516,-0.9262420115871554,0.09623045224832677,1.1709101428352104,-0.01795651839098823,-0.1577780317972458,-0.01211661786059835,1.0859375
0.0020503596158431394,-0.02739367399190534,-0.027831186455914567,0.05184547610826362,0.00019394525670887416,0.013020462111599533,0.030575052618992307,0.02201875502623743,0.39706840903595314,-0.040744780717474026,-0.5021548144638245,0.008288949922312508,0.06744849172012288,0.005721532873572084,1.09375
0.011075800560531418,-0.14193136544230878,-0.14718811442862026,0.2715328480043663,0.0032025396355717466,0.07015091552332543,0.15900277569953467,0.11423005746520833,2.074745922463951,-0.21437620467797858,-2.6233588948273208,0.04157048643218608,0.3529568459082208,0.02833058002303339,1.1015625
0.0035768762692238044,-0.04676540240709304,-0.04800764274597074,0.08898674723729162,0.0007032148602843196,0.022669730516599578,0.052311015404298236,0.03762567623591635,0.6808592865209624,-0.07008887573535534,-0.8612467704956855,0.01392682109867879,0.11570841306797143,0.009543888110957929,1.109375
-0.009998051681301214,0.12549960487865547,0.13151321113668935,-0.24142699703057574,-0.003821569821574857,-0.06326134966003914,-0.14082875746999826,-0.1010585528479385,-1.8424241357701616,0.19107251132685338,2.328952746170107,-0.03612611499250924,-0.3137198309369962,-0.024461381149043213,1.1171875
-0.00643289045498223,0.08024557946144167,0.08432694926381515,-0.1546022579086502,-0.0026329345612181513,-0.040673168515924826,-0.09008025285045762,-0.06463757028300554,-1.1794880550059512,0.12244574314151967,1.4910455911762848,-0.022980015294279357,-0.20087281403656232,-0.015527254959046595,1.125
0.005754175372837247,-0.07441195456248688,-0.07686864041909783,0.14204767159174975,0.0014295356511581788,0.03648054395477922,0.083332092895083,0.05986669621687575,1.0859916040248254,-0.11202991446205829,-1.3731092350333598,0.021959325698479273,0.1846812724471289,0.015003245284736176,1.1328125
0.004435961830259825,-0.0576633120094707,-0.059398403828733085,0.1098876982551063,0.000989580522271617,0.028115418525299727,0.06454895756888074,0.04639449535102944,0.8406178088112867,-0.08661961186750365,-1.063128470348664,0.01709440777119255,0.14289941704112105,0.011697625487817869,1.140625
-0.001971433606959094,0.023670978714456354,0.02538276030914208,-0.04613987702295908,-0.0011468839732086216,-0.01245725490823416,-0.026653349781499535,-0.01906830836992845,-0.350711408426531,0.03668744499256379,0.4429011110713814,-0.006540102263011965,-0.05984721477541406,-0.004356842179976129,1.1484375
0.0038465408750026045,-0.0501596393760422,-0.05157749326100225,0.09550467247453837,0.0007927552469407322,0.0243904367703471,0.056127216258631055,0.04037672650962056,0.7310849235213949,-0.07528353933165548,-0.9246055003009122,0.014914836008865014,0.1242853806170245,0.010218384689109997,1.15625
0.00828265038701579,-0.10647092844496947,-0.11027767539870346,0.20354723639326858,0.002272224685612437,0.05248885792278526,0.11926382286336724,0.08570862389239396,1.5561181238032813,-0.16068295625353152,-1.967495507250464,0.0312821183587886,0.2646999666946943,0.021332717747044046,1.1640625
-0.004040901852012243,0.049910417792492716,0.05272786710893215,-0.09642629829521074,-0.0018358174164591161,-0.02553515236875773,-0.05609099553960534,-0.04019087707151686,-0.7349048644827021,0.0764175726738055,0.9288833581535156,-0.01416040139042578,-0.12521609267121486,-0.009541458622496817,1.171875
-0.013387345255217446,0.16852590264620623,0.1763751523540924,-0.3239734048624013,-0.004952040804531472,-0.08471901015820296,-0.18910410482145826,-0.13568596256550924,-2.472796430091858,0.25626902370757876,3.1259392652110263,-0.048633429605771356,-0.4209729622421494,-0.03295890544017125,1.1796875
-0.0018338528716173293,0.021914491951708408,0.023556287351063777,-0.04274508300755355,-0.001100724033993778,-0.011580879712382756,-0.024719075971474738,-0.017659302804335295,-0.3250870844784749,0.03399323555570293,0.41082289623113766,-0.006027956448511622,-0.05543219244099297,-0.004015494576322262,1.1875
0.009520212009920422,-0.12217496251863667,-0.12664827563205402,0.2336615656032309,0.002684674580334619,0.06030077956590633,0.1368525885073507,0.09833768163720105,1.7859156735680835,-0.18446148675961233,-2.257833895335309,0.03585129755614703,0.30382715874476274,0.024431474357052015,1.1953125
0.0002970296131141948,-0.005135665396325361,-0.00466550772000142,0.009161024781797127,-0.00038974132457461353,0.0019138870577148639,0.005638152203965076,0.00411434084888837,0.07150774867879679,-0.007013400389221003,-0.09043751724450007,0.0018406106188789298,0.012002023179082956,0.0013282155823790413,1.203125
-0.011252587400282081,0.1414290374717927,0.14810449352731409,-0.2719878649679514,-0.004240018278365365,-0.07119840439128276,-0.15868409302965092,-0.1138781206434383,-2.0756022479689995,0.21518965345883928,2.623860284383117,-0.04076003265187531,-0.35346178830062214,-0.027605353018002095,1.2109375
-0.004603838825923982,0.057053475830332503,0.060159710826609265,-0.11014222270531007,-0.002023550831000661,-0.029104242510055292,-0.06407230582439945,-0.04595324694459407,-0.8396228456883496,0.08726148456146218,1.0612465904245603,-0.01624522839656187,-0.14311546806967132,-0.010949276012277234,1.21875
0.007343841119455276,-0.09456530939544304,-0.09787360277808672,0.18069734929729045,0.001959357985921843,0.046528835727554216,0.10592408145957553,0.07610528663117345,1.3814302458463115,-0.14259455575703722,-1.7465977380366453,0.027820107565044567,0.2349299028011283,0.018982299794439727,1.2265625
0.007442815818145525,-0.09582406056167198,-0.099172218826665,0.18311565846731606,0.0019920250633298792,0.047156347904679444,0.10732328590417423,0.0771154731369781,1.3996970668440902,-0.1444792127863482,-1.769711762232362,0.028187195475650063,0.23810704440406877,0.019231553882425794,1.234375
0.0037624340724932447,-0.04912769415789649,-0.05048209045554363,0.09354449062492948,0.0007647741081710169,0.02386996055934564,0.05495733757563955,0.03951685961736788,0.7153859152757449,-0.0736765322749381,-0.9047728125853387,0.014608099395988533,0.12169215083929216,0.010013468653075659,1.2421875
0.006888353563185127,-0.08879773325014494,-0.09182501899508574,0.16963723458956156,0.001806768395836139,0.043663030587127755,0.09943749193299378,0.07145021346973257,1.2964445098372928,-0.1338273660055187,-1.6395061931460122,0.026128658386609334,0.2205738847383916,0.017845402764112166,1.25
0.007611738445746062,-0.09796110381283786,-0.10138463385514097,0.18720194236413382,0.0020479756147452183,0.04822334760667169,0.10972031972163193,0.07883620854240485,1.4308922449039383,-0.14772000478082328,-1.8094643133540866,0.028797104091341726,0.24339363377058523,0.019655444029548975,1.2578125
-0.0034371680602038523,0.04226731018670261,0.04476205481926786,-0.08179827263472934,-0.0016350917107173398,-0.02173893084754729,-0.04749632941276547,-0.034037355589276785,-0.6229815419629517,0.0648785621078262,0.7871722657373046,-0.011939630232025262,-0.10621986995809506,-0.00802823289924203,1.265625
-0.01555627353337962,0.1960513779239365,0.20504380980946038,-0.3767868300292399,-0.0056746725687625765,-0.09844722778916862,-0.21992340119994705,-0.15783388822338573,-2.8756070289604057,0.29801328981188707,3.6350922920079682,-0.056622287077217136,-0.4896042290956919,-0.03839129116279144,1.2734375
-0.014027175851638206,0.17662548036151662,0.18480685969119906,-0.33951520555908776,-0.005164735821497435,-0.0887480586375458,-0.19816387045074615,-0.1422055353316122,-2.5912449256989625,0.26855026127916526,3.275708469084199,-0.05098362543595601,-0.44116247521962654,-0.03456019666504181,1.28125
-0.0034732225019125772,0.042692328160010264,0.045225332539099106,-0.0826016893024571,-0.0016468236202640241,-0.0219418632492672,-0.04801417969386899,-0.034395382960503124,-0.6295831214158114,0.06550669279193717,0.7957624285677077,-0.012072177238370714,-0.10726925574819347,-0.00811916051692079,1.2890625
0.00035141068527780165,-0.005826563087102105,-0.005358221549680021,0.010471323174833166,-0.00037199890566618025,0.0022533760999768914,0.00639869285820437,0.0046656013118001,0.08124103984783747,-0.008046601070081417,-0.10291306468756385,0.0020296553149459677,0.013685513684608177,0.0014633515923425614,1.296875
-0.0031171805548072117,0.03819898900454479,0.04048895371218284,-0.07396073048626933,-0.0015277727320398625,-0.019701460872207237,-0.04293536392026517,-0.03076885249839106,-0.5632295696452763,0.05867197341939553,0.7119323141736896,-0.010754016300505936,-0.09603968883615072,-0.007225327043604443,1.3046875
0.001211103202963219,-0.01673057705365238,-0.016780371931152012,0.03142200826416477,-8.459561942778824e-05,0.007712347626268775,0.01865533799274024,0.013453602538792218,0.24164266643438934,-0.024639177157800275,-0.3054330227636522,0.00520948139581652,0.04094676482475753,0.003617860748847611,1.3125
0.015189762641588512,-0.1941202320391887,-0.20164395108509744,0.3716855478221439,0.004574730204504614,0.09620113665953088,0.21752463095612531,0.15625670023855648,2.839912096547005,-0.2935733070495261,-3.5902824960589346,0.05675044007398424,0.48319683432255756,0.03863589122671163,1.3203125
0.019207896677643232,-0.24510445097212266,-0.254756207222881,0.4694642452657368,0.0059135173857861965,0.1216244631746747,0.27467727026518096,0.1973018190821552,3.5864819272525335,-0.3708388472071053,-4.534388749760457,0.0715654519820266,0.6102806833635448,0.048700943442654326,1.328125
0.004510539006910147,-0.05859516864234877,-0.060363674397684426,0.11169061760552408,0.0010140663473860426,0.028582972931506054,0.06557203930800196,0.04715701487636069,0.8544193551444181,-0.08805434171979132,-1.0805647855042173,0.017373623606119982,0.1452789521235311,0.011881602118177176,1.3359375
-0.009374385469342645,0.11759732904932214,0.12326904054474773,-0.22628312785912805,-0.00361423182036815,-0.059304827339235325,-0.13196370179015113,-0.09468678570132591,-1.7264432018114464,0.17907121392791742,2.182360465375397,-0.033828451613323506,-0.29399874213998517,-0.02290126021120694,1.34375
-0.006637249065719252,0.08285997213929959,0.08706867352626124,-0.15964936774923588,-0.002701753308923265,-0.04197428547100206,-0.09301305996766697,-0.06672581726936558,-1.2176748547951777,0.12640716149401146,1.5392482743865317,-0.023744314920549615,-0.207407908054576,-0.01604282569719333,1.3515625
-2.4684485373369672e-08,-0.0013665327970849468,-0.0007112271462179458,0.0019159969773432071,-0.0004892520003423404,3.959701998101649e-05,0.0014184293650315583,0.001078521307915906,0.015964619208428288,-0.001283401192174894,-0.02045437878333946,0.0007287783875658826,0.0025815235358064795,0.0005851758680479955,1.359375
-0.003977291869055425,0.04909754385168899,0.051888682756847736,-0.09488209086961896,-0.0018149001659889627,-0.025137600014179126,-0.055171153018282786,-0.039548685706956764,-0.7233537885309402,0.07522935227325209,0.9140826113734629,-0.013928749861395754,-0.12322385288449565,-0.009379222698356024,1.3671875
-0.00919243689657334,0.11526904511749263,0.12086457410210465,-0.2218183993297924,-0.003553233551129674,-0.05815176559049767,-0.12937168003367144,-0.09282335457536521,-1.6927217331005908,0.17555816868609608,2.139575892265104,-0.033156483156238356,-0.28821639072183236,-0.022445445906672513,1.375
-0.0038478609284877297,0.04745095455470108,0.05018495418659307,-0.09174039394404261,-0.0017718220305186533,-0.024321920829953596,-0.05333014634104067,-0.03822756501771186,-0.699260119346561,0.07274610037504256,0.8837239121554655,-0.013456492454398537,-0.11915576242086125,-0.009056701556965085,1.3828125
0.0038894120947689558,-0.050725605278231375,-0.052150624894184094,0.09658363290795402,0.0008071138074618397,0.024661427264984104,0.0567588092175219,0.040812237286663215,0.7390020570960747,-0.07609949183802248,-0.9344511264022028,0.01506991412806457,0.12563690379086936,0.010328506857350355,1.390625
0.003419508507173114,-0.044767458306449334,-0.04595342815963486,0.0851708437896654,0.0006505876360092897,0.021697027207541703,0.05008312641613243,0.03601492375431094,0.6517813873431092,-0.06707250943066367,-0.8241988235392254,0.013344242774631202,0.11081617952109594,0.009154008762632046,1.3984375
-0.00018108411105560192,0.0009141511499828012,0.0016543289397791226,-0.00244291927025172,-0.0005492047234819553,-0.0010961170923759005,-0.0011407632808263213,-0.0007654281795179432,-0.01741257774876804,0.002176319284433056,0.02171089013206204,7.471364586158599e-05,-0.0030881771563987612,0.00013403865270646402,1.40625
0.0006189104791006111,-0.00922975053487041,-0.008924657693727559,0.017016914309549873,-0.0002822020901547307,0.003954392386957198,0.010232389880488826,0.007403489294686665,0.13128438595882944,-0.013220426787790708,-0.1662858539788737,0.003023142660707258,0.022172297318064943,0.0021355734247052397,1.4140625
0.002885700688818617,-0.037978689133873485,-0.03889881246194641,0.07216413699967134,0.0004734090914177325,0.018295342079919005,0.04246995117580208,0.030556534987214223,0.552614276290668,-0.056829026035523644,-0.6988868338967181,0.01137807604630248,0.09385301364244701,0.007812110458998089,1.421875
0.002142011154778439,-0.028539409483139603,-0.029058195555651013,0.05405924053662761,0.00022527700688025306,0.013591569383125446,0.031878979779150635,0.022960139814936446,0.4143557683419048,-0.04252676162288399,-0.5241249305794915,0.008636924049633418,0.07033852125002422,0.005948411748096555,1.4296875
-3.34298799969515e-05,-0.0009360494388720807,-0.00027697811845703535,0.001103685409380581,-0.0005002324233767924,-0.00017614583603846445,0.0009155093744812223,0.0007375632384205483,0.009921004887464436,-0.0006719945712067806,-0.01278204342335335,0.00061634578179542,0.001530245707861445,0.0004972722028640774,1.4375
-0.0011303770650125773,0.01299411857164329,0.014239184991055157,-0.02562596953028217,-0.0008661435418994228,-0.007121276903832473,-0.014701818079524226,-0.010468887022638249,-0.19400073854429176,0.020445670620990425,0.24529435199518224,-0.0034307832623430273,-0.03317265185997364,-0.0022527677119555337,1.4453125
-0.001006088491805335,0.011420422839545653,0.012590053524759523,-0.022606670546243064,-0.0008245487964179031,-0.0063308100416905435,-0.01292194628219443,-0.009194730762802604,-0.17081501720700762,0.01805425477629424,0.21609125580840277,-0.0029724234458726293,-0.029231050070533292,-0.001941095018043664,1.453125
-0.00033787253919080856,0.0029210783751216773,0.003745127245465838,-0.006305521446127526,-0.0006014803263577179,-0.0020956812482357283,-0.0033881673810403482,-0.0023617883973325892,-0.04662100275303885,0.005188121416313608,0.05871771079880936,-0.0005052022650971666,-0.008087562176118624,-0.0002646976717692945,1.4609375
-0.00031500204623274,0.0026178410847017344,0.0034539582002519973,-0.005741951636417053,-0.0005941128197932999,-0.0019559905036793967,-0.0030605568395199022,-0.0021314976234528427,-0.04261534396230578,0.004767602831341879,0.05334796799691492,-0.00042186808447424985,-0.007385457100061591,-0.00020680959372958976,1.46875
-0.000992888226204267,0.011235434022459427,0.01243515446298957,-0.02228302016385591,-0.000820750423431286,-0.006254690866644901,-0.012730075945389689,-0.009067549279144401,-0.16879791014181952,0.017849254368714332,0.2131246169786525,-0.002926393238318869,-0.028831649849751104,-0.0019060148364518368,1.4765625
-0.0003359186381137149,0.0029075962456651316,0.0037372533960490124,-0.006289428231082357,-0.0006017604416868018,-0.002090029415577312,-0.0033836830116338932,-0.0023581031664506873,-0.046514400000864146,0.005211321942546047,0.05880957864130541,-0.000504808220910519,-0.008003033892338224,-0.0002579277761748888,1.484375
0.001171361611056632,-0.016241842708838706,-0.01621970710022829,0.030466307985200117,-9.856555528011524e-05,0.007463029130119447,0.018100971777762435,0.013047944185732458,0.23390231572318565,-0.02382431265070524,-0.29600044900983585,0.005054255040022862,0.03969708914898687,0.003523453726878855,1.4921875
1.043382376905512e-05,-0.0015273545407524273,-0.0008687244962416049,0.002237164099279876,-0.00048515371263301005,0.00011353174313931512,0.0016091197098009793,0.001190378435001659,0.018103936004359923,-0.0015055810255165964,-0.02356799056216428,0.0007697057685905509,0.0029173292148345483,0.0006170734782944614,1.5
-0.002492877606280279,0.03025499686129959,0.03224835040103836,-0.05873895568207323,-0.0013198993345024453,-0.015741433311312458,-0.03403030286133693,-0.02438941439836095,-0.44729344209398797,0.04666742184755322,0.5649937138142261,-0.008463850453206969,-0.07630997414833741,-0.0056578398707829505,1.5078125
-0.0007614605918488512,0.0083012528067836,0.009343439241812097,-0.01661763222127682,-0.0007428886023031481,-0.004782687426274956,-0.009427671999403406,-0.006704304137120786,-0.12538803035454205,0.013352389651805139,0.1584231131722412,-0.002072992476494812,-0.02149241146667122,-0.0013237608206673962,1.515625
0.0037009595066802296,-0.04833384647822707,-0.04968782372895862,0.09203241352196202,0.0007448622628864871,0.02346817181894612,0.0540628448425946,0.03888649705257636,0.7041477500922518,-0.07251900208462979,-0.8903437215728526,0.014389954288228637,0.11971326086788382,0.009855960069844747,1.5234375
0.0034658866767410777,-0.045360065158659396,-0.04657630827925015,0.08632056224010595,0.0006665558308153593,0.02197854929770231,0.05073101165214398,0.036487034890149095,0.6604065781111595,-0.06799676062026787,-0.8352613141350584,0.013522875500447623,0.11224438671881815,0.009267627738660805,1.53125
-0.000936178377312578,0.010511568696111199,0.011654853903650557,-0.02086407219277208,-0.0008010120411365902,-0.005887906553077932,-0.011904858946163952,-0.008482378196305575,-0.15780589433463055,0.016701946226656873,0.1992756134739239,-0.002713477501405682,-0.02703989882867177,-0.001763139111825873,1.5390625
-0.002100574296857084,0.02529898553939299,0.02706202759995329,-0.04923130247725087,-0.0011892182706852654,-0.013254534667979581,-0.028483253221411233,-0.020373016407331346,-0.3741635299308257,0.03910129493918386,0.47305318236376026,-0.00700869420369664,-0.06384936731029049,-0.004682886664448706,1.546875
-0.00035501053489124876,0.003146817195726556,0.003988351951206156,-0.006746865208576674,-0.0006074838330192527,-0.002207133752625224,-0.003650155551010869,-0.00253952375078254,-0.049888368869563104,0.005532084408449175,0.06302607351496516,-0.0005747072898833617,-0.008631324729595522,-0.00030905486249924765,1.5546875
-0.0020927828808017064,0.025196866167597934,0.02698625179660262,-0.04905602190383873,-0.0011870629097359923,-0.013218847053998799,-0.028375582152825502,-0.020299100073232868,-0.37320884457014086,0.038996236867635495,0.47156403443655215,-0.006985935946002095,-0.06365876688738344,-0.004660694730329969,1.5625
-0.005299628886588453,0.06589231622180673,0.06939254437642203,-0.1271107186263995,-0.0022560036647855395,-0.033521614795876786,-0.07400661808736318,-0.05306369729832727,-0.9692348323188085,0.10069036554068889,1.2250975320613773,-0.018807570778654074,-0.16510846431942022,-0.012695032878218085,1.5703125
-0.0026282187434967515,0.03198625851710177,0.03403867271224879,-0.06205085816684321,-0.0013650599427173457,-0.016600061172197072,-0.035993622480495875,-0.025767593519138803,-0.47235881015799114,0.0492582225621615,0.597029720717286,-0.00894979556201887,-0.08052889612112209,-0.006003249141477797,1.578125
0.0036665439144813673,-0.04790290651308091,-0.049222300197026794,0.09119657241650792,0.0007334330147382369,0.02325327414095148,0.05358636730326068,0.03854282384897797,0.6977460956239184,-0.0718536011700237,-0.8824261727794657,0.014262393314444623,0.11862938510555987,0.00976910983057794,1.5859375
0.004997409579939408,-0.06479066389694345,-0.0668202238456904,0.1235829009530339,0.0011768637052440869,0.031672522703086896,0.07253845554110694,0.052134470058197206,0.9449494498804293,-0.09743117976764987,-1.1952167009488326,0.019166614850153314,0.1606806950106127,0.013106897588909988,1.59375
0.0011254233879881498,-0.015647642528383646,-0.01561984758748046,0.02932388910088441,-0.00011383833073663256,0.007161688444027698,0.01744621306279351,0.012574946180276485,0.22531948276595143,-0.022941018682588393,-0.28532901990616877,0.0048903280700799655,0.03817781565611954,0.003406651770446077,1.6015625
-0.001479576981708732,0.017413196464348274,0.018823398647591687,-0.034085179893071665,-0.000982053678214267,-0.009320670015624252,-0.019635298868760972,-0.014036077214617165,-0.25866272586605565,0.02714875777859909,0.32696340429175524,-0.004714136214926965,-0.04417974282605303,-0.0031229341157666354,1.609375
-0.0010055321259161332,0.011396118513373847,0.012572335047277713,-0.022561140528177984,-0.000824293171782967,-0.006321672237497188,-0.012906072361058262,-0.009194175263661395,-0.17068669107481213,0.01804160552374225,0.21587972542517572,-0.0029725145021624023,-0.029174956560107247,-0.0019374187566196153,1.6171875
0.0003387972113072549,-0.0056674606848290095,-0.005182989125835863,0.010149624747395183,-0.00037653992621712704,0.0021785367865875785,0.006224205566082309,0.004536068315821925,0.07886310175652606,-0.007786891689122985,-0.0999797466335792,0.001978379538037135,0.013299045324957823,0.0014318504621166574,1.625
0.0017200534249281003,-0.023202709185094737,-0.02346103372218972,0.0437997326730218,8.410539157908106e-05,0.010927007345235594,0.025893592026497155,0.01865033382747809,0.33568120260112716,-0.03438017227959077,-0.42496721649689434,0.007074934571903203,0.05698679000598194,0.004894357256766796,1.6328125
0.0015045601660389658,-0.02047112055368876,-0.020634192532149556,0.03858603312678139,1.2732871539345626e-05,0.009577062293126156,0.022833700763683296,0.016456660437642937,0.2959556657709945,-0.03028127362477316,-0.3745156510474779,0.00628565110952643,0.05021968543612134,0.004354630346786976,1.640625
-0.0016437471310627113,0.019489796062488254,0.021015115050633637,-0.038075803223105886,-0.0010368415105480016,-0.010357600541369682,-0.0219737025528221,-0.01570634240345939,-0.28930221571928577,0.030307050306918035,0.3657572097405888,-0.005325995426595065,-0.04937935078341104,-0.0035337775005576835,1.6484375
-0.002753530809866624,0.03358343978259457,0.035720157880071574,-0.06514141495792172,-0.0014072321887859042,-0.017402657241695905,-0.03777344768588738,-0.027051070959969555,-0.4959334639241553,0.05171965253169262,0.6269064736613805,-0.009422802519795739,-0.08455003327230762,-0.006314661514702209,1.65625
0.0026529017202878043,-0.0350273752130031,-0.035790581905224134,0.06646447757218958,0.00039497236701595815,0.016819193427288274,0.03915643998942949,0.028177709624881975,0.5090106184527342,-0.05229417605331457,-0.6438803525254467,0.01051567704403853,0.08647624702118889,0.007229478337741299,1.6640625
0.006862805859156879,-0.08846118170172977,-0.09149699457283313,0.16898699469598336,0.0017986746966992255,0.043482804213848765,0.0990567595796073,0.0711882894576075,1.2918358266177339,-0.1333439276944337,-1.6334777137963612,0.02604512716523751,0.21971612596539675,0.017775309472017685,1.671875
0.00022704257254930728,-0.004254236924604866,-0.0037296356494498153,0.007471735492796282,-0.0004132847970882803,0.0014770330290211143,0.0046291245217607475,0.0033994241890574687,0.05836314331084078,-0.005690104830716325,-0.07376216181066386,0.00157639783888875,0.00979937431521502,0.0011504270068005012,1.6796875
-0.0103766748947726,0.13031212784027196,0.13653722093868548,-0.2506677083361981,-0.003948163622534341,-0.0656574773464233,-0.1462395911324788,-0.10492559438212862,-1.9129081655616165,0.19835395217165433,2.41833271127777,-0.03752706113789868,-0.32571103909232324,-0.02541288537453645,1.6875
-0.010605170763353185,0.1332114524021316,0.13954882422141077,-0.2562315812244608,-0.004024148947703101,-0.06709877223291312,-0.14946220538881264,-0.10725644726913325,-1.9552684178676476,0.20275439226018593,2.4715158574536265,-0.038367940049552546,-0.33295016052571874,-0.025982645484025207,1.6953125
-0.0014533422200053005,0.017073815773039243,0.01847222621363412,-0.033436830772024285,-0.0009730492241386686,-0.009152719896619128,-0.019235409464023922,-0.013763385448929674,-0.2537367529049237,0.026643860722958025,0.3202983806701564,-0.004616084771798096,-0.043371463339313764,-0.0030549867562882885,1.703125
0.004258553585382066,-0.055403886592788144,-0.057073479661260605,0.1055959105944474,0.0009309065880809538,0.026999942606927577,0.062009732504426464,0.044582941501590256,0.8080055614439412,-0.08325561207788588,-1.0217452796132418,0.016446612415911735,0.13734675534121035,0.01125157831837071,1.7109375
0.0028129664866575377,-0.03705574003916472,-0.037918626007546134,0.07037903688744374,0.00044858763438932706,0.017837321294996752,0.04141922754561783,0.02981575435240445,0.5389407344482124,-0.055415303346378675,-0.6815364059056227,0.011111112478958879,0.09157645511265675,0.00762744552238126,1.71875
0.0014309298289692368,-0.019524971063836865,-0.01962528924147534,0.03673550820870842,-1.225939388944427e-05,0.009095048348168338,0.021766068600745227,0.015704819274399574,0.2819135694767835,-0.028819270405320577,-0.3568249952064195,0.006011697054738423,0.04784977746763795,0.004165746963874689,1.7265625
0.003982577228725603,-0.051910555877745124,-0.05339228480857879,0.09886629350854971,0.0008384394967864616,0.02525998002847148,0.05808501290454427,0.04177199869125786,0.7563874593712543,-0.07792478951232898,-0.9567100553997999,0.01542139761666627,0.12861826825120123,0.010560383670670505,1.734375
0.006708993842471059,-0.08650126019461185,-0.0894608636059151,0.16522828417713892,0.0017471591472538281,0.04251448783595058,0.09686488401091956,0.0696144071192563,1.2632175376485477,-0.13036885047448796,-1.5971899122883264,0.025474399864169044,0.21488552510361952,0.017391752198599484,1.7421875
0.005175242459659102,-0.06703147759553979,-0.0691623376135514,0.12787686964039593,0.0012356632387922734,0.03279539783049489,0.0750288039052639,0.053941938987240215,0.9779848348730602,-0.10084075631815427,-1.2364078123385562,0.019816555678121222,0.16633159412123605,0.013549303783029478,1.75
-0.00040758421919988487,0.0038061665896586758,0.004679942001750006,-0.008006012234079216,-0.0006251672731066475,-0.002542408931094638,-0.004393792250823481,-0.003083550688672924,-0.05976521292390012,0.006557262387318285,0.07545935278275193,-0.0007687477309032227,-0.010301643132142138,-0.00043674234816163933,1.7578125
-0.00507377619402963,0.06300724557661759,0.06638253278697923,-0.12155662584402498,-0.0021802120619400815,-0.03207421709257525,-0.07076632194289066,-0.0507472404322707,-0.9270091105110144,0.09630850007603523,1.1717346968852203,-0.01797155975164949,-0.15790720865044217,-0.012125692789797768,1.765625
-0.0046758541981968904,0.05795602121152332,0.061114635162663224,-0.11186460222330503,-0.002047483444531694,-0.02955826071975413,-0.06509906756005822,-0.04668545917916506,-0.853019482994541,0.08865672274700714,1.0781772036569965,-0.016504327073039126,-0.14532385903696743,-0.011127915666674553,1.7734375
-0.0022078518394632964,0.026644614801272844,0.02847919098959393,-0.05181356558763272,-0.0012249699114510394,-0.013939713384581208,-0.029987601826710012,-0.021475687848431724,-0.3942868966874733,0.0411885670557328,0.4982175375496915,-0.007406963878149319,-0.06727598556713943,-0.004945385893162419,1.78125
-0.003014888163081242,0.03689185581625021,0.03915544578410734,-0.07147743939383508,-0.0014940471716503485,-0.01904826531771248,-0.0414768726180455,-0.029719718375473516,-0.5442614769166728,0.05671324574176852,0.6878082408163454,-0.010383627296098938,-0.09282085483849614,-0.006969039155168062,1.7890625
-0.004760602523925902,0.05904560055128946,0.062241118627432895,-0.11396634175016866,-0.0020759163734815514,-0.03010029137500253,-0.06632451407159674,-0.047555497375516294,-0.8687405826623059,0.09029334502919573,1.0981035087301496,-0.01681857602704012,-0.14803258291124452,-0.01134379387467088,1.796875
-0.001836614546152407,0.021938362077327918,0.023567158228461726,-0.0427755986918823,-0.0011012393338209175,-0.011592661283808387,-0.02472538587906368,-0.017686862433440767,-0.325271710329762,0.034038721224438885,0.41108555471790303,-0.006034771370998173,-0.05550845054542067,-0.004017945177365425,1.8046875
0.0030448525081489403,-0.04000584912346157,-0.04099094962938655,0.07604681559631217,0.0005258793487463343,0.01931052167677599,0.044730934246446696,0.032184561471551375,0.5820490006602128,-0.05987954492558169,-0.7361101303208045,0.01196558134721466,0.09892251861330038,0.008211390243220961,1.8125
0.0034911252213819235,-0.045660816399994884,-0.04688012663516229,0.08688037942600096,0.0006744611614512694,0.022135373366018167,0.051071976953356024,0.03674792715299006,0.6648964354298164,-0.06846577762103787,-0.8410223006668657,0.013610231245938147,0.11301556608746889,0.009326652081964492,1.8203125
0.0011716211833213443,-0.016220404353044178,-0.01619064476001211,0.030397475508228758,-9.890568028599425e-05,0.007446693985609182,0.01805625749413861,0.013050999036336181,0.23363309710544036,-0.02383116766903003,-0.2957827816672562,0.005055724885512173,0.03961246291096459,0.0035135526314074334,1.828125
0.0012912550749208435,-0.01774632522781415,-0.017788990287038276,0.033338569497528676,-5.88031532277469e-05,0.008206217503916915,0.01977346390589111,0.014270419907189497,0.2560251153999804,-0.02613653178713946,-0.3239502114350157,0.00549772420792553,0.043415820831679754,0.0038164725850820948,1.8359375
0.0025620944176014617,-0.033886339820660694,-0.03463418362755861,0.06432098558836852,0.00036541111329606215,0.016264150514306012,0.037894040720175715,0.02725482714375027,0.49262897371872294,-0.0506080858834221,-0.6230322392591565,0.010187551490852263,0.08366931558879903,0.007005641839158944,1.84375
0.0016151231706714943,-0.021870168676535254,-0.0221189447390478,0.04126595356166238,4.995160721154075e-05,0.010275524612237165,0.024430359741581465,0.01758418710316614,0.31671216546815195,-0.0323903378838456,-0.40064314203252505,0.006697294577542391,0.053739247814213756,0.004633372917214717,1.8515625
0.00012193626498218933,-0.002914962274537621,-0.0023405889219101947,0.004879851287595292,-0.00044821512261054906,0.0008160026756143263,0.003153207049936624,0.002331211172345902,0.0388640337768425,-0.0036360228300085164,-0.049275264645288704,0.0011892532727776346,0.006502282426077092,0.0008883929038093298,1.859375
0.00024522514096030453,-0.004482444930040308,-0.003954466551688008,0.007885061337391568,-0.0004074162896215948,0.0015930208812808785,0.004886605418353428,0.0035899616411774935,0.06159221458406403,-0.005999625690390966,-0.07788719745993793,0.00164308924808865,0.010411977989138562,0.001196762623711855,1.8671875
8.488501432069899e-05,-0.002456018715916284,-0.001851532760560313,0.0040208536838331034,-0.0004606875067506657,0.0005837197518164885,0.002622405308893201,0.0019495520389691441,0.03191814589743642,-0.0029334361597838335,-0.04041824874245733,0.001052748872679707,0.005344949045362487,0.0007989952816760671,1.875
-0.002079327113194164,0.02501005602413995,0.026766317498802813,-0.04866467174478704,-0.0011821193201419545,-0.01311636769523178,-0.02815445015303362,-0.020162814317203806,-0.3703384076598253,0.03870447792158794,0.4679747643136487,-0.006930522274373257,-0.06316058356814368,-0.004621866515790865,1.8828125
-0.004753999286673976,0.05895947362881548,0.06216988701193386,-0.1138122602538637,-0.0020741561067051744,-0.03005701073110178,-0.06622299996048246,-0.0474873766096661,-0.8677577434831486,0.09018637670040015,1.0967203822661498,-0.016798873256097975,-0.14783772756545968,-0.011325970935956916,1.890625
-0.005694856017771037,0.07089879422368073,0.07463368175029599,-0.13671811788606766,-0.002387989767662638,-0.036019005550218475,-0.07962668789280147,-0.05709817536416334,-1.0427778075035332,0.10828841870161918,1.3179245112041988,-0.02026983991924218,-0.17763067569908736,-0.013684728206130065,1.8984375
-0.0036631916948965484,0.045115180237358485,0.047748438653820904,-0.08723744531047598,-0.0017103998281987772,-0.02315827227200247,-0.05072022487448909,-0.036345516363094584,-0.6649613422611625,0.06917766606799086,0.8402623739587075,-0.012775763257894614,-0.11334950280272078,-0.008593596257509219,1.90625
0.0011257017690635724,-0.01564755975683452,-0.015608964799861496,0.02932207149144869,-0.00011373606038751603,0.007156388052862138,0.017421781258935867,0.012574235209771084,0.2253788204969347,-0.022961190360862034,-0.2852381339625749,0.0048847322707603925,0.03816431558471236,0.003403206675391742,1.9140625
0.006335175671418711,-0.08174471446886847,-0.08451370182825026,0.15609289540315036,0.0016227779765344173,0.04013548044317671,0.09154513730229745,0.06579647977511895,1.193753773996445,-0.12317368907622613,-1.5093839006992555,0.024096170595827214,0.20298652619579552,0.016451818477879538,1.921875
0.008835322957815674,-0.11347082230729108,-0.117584589927958,0.2169522216634933,0.0024561662992577476,0.055967619528193395,0.12712128454891447,0.09134195794691577,1.6585235715947988,-0.17127898118576743,-2.0970056907271486,0.033319116045172674,0.28210257688563234,0.022715672842060913,1.9296875
0.006744498435521904,-0.08694782612786942,-0.08993795708657594,0.1660965131397577,0.0017593649416602227,0.04273408970415018,0.09737388818598994,0.06998126591112441,1.2699265486749225,-0.13107214332634173,-1.6057948308636725,0.02561143910524757,0.21596849337159552,0.017480088173652132,1.9375
0.00026795357630599324,-0.004773739088881952,-0.0042739124600524765,0.008472249385364033,-0.0003994575544398182,0.0017339976751479724,0.005222306193614166,0.003817553149833588,0.06599215422142644,-0.0064719791224408735,-0.08363369997912672,0.0017281361429726107,0.011081073424250912,0.0012552136041007191,1.9453125
-0.007110124151249731,0.08884514906921172,0.09331903860969713,-0.17112171029896933,-0.0028589614657207317,-0.044966879482370596,-0.09974765524215685,-0.07154908020317205,-1.3055326783246457,0.1354872456716048,1.650417883906574,-0.02547908361634968,-0.22231233528707187,-0.01722895611714071,1.953125
-0.010123406442323936,0.1270885750619086,0.13317218018778013,-0.24448123740802552,-0.0038635416427913066,-0.06403449139455855,-0.1426090341516519,-0.10232867370090899,-1.8656122377245863,0.19346933306456426,2.3584274904608815,-0.03659006898202293,-0.31762313947977944,-0.024776289926548626,1.9609375
-0.007410663909773075,0.09267839002308449,0.09729101466673251,-0.1784717071649179,-0.0029594509023576506,-0.04686722471655543,-0.10401712515500937,-0.07462394475784881,-1.361383763757342,0.1412892838348734,1.720894300378171,-0.026588899674520602,-0.23182530714058833,-0.017979731804997894,1.96875
-0.0020414967200765985,0.02454792741235528,0.02628673962155602,-0.047797485754760505,-0.0011698720635720831,-0.012893916822332818,-0.027646301734978986,-0.019783341688653467,-0.3635380258114342,0.03800322436192615,0.4594610734077117,-0.006793403333058364,-0.062011322192493744,-0.004532029442321577,1.9765625
0.004348388729103929,-0.05655084164714437,-0.05822220740714352,0.10775455991784225,0.0009601913267378444,0.02755183911986009,0.06326247358062893,0.0454948859163424,0.824151614538423,-0.0849389645821931,-1.0420749096156876,0.016769115733192896,0.14012849462666419,0.011473881115474947,1.984375
0.010509830909004538,-0.13474724841491562,-0.13972870037516372,0.25776568982920367,0.003014362702880733,0.06656863877377928,0.1509509935649263,0.10844563445673923,1.9696964429638588,-0.20350367660863652,-2.4905459026625074,0.039490873532048304,0.3350827042964689,0.026912938464019744,1.9921875
0.01060677659219791,-0.13597312048384033,-0.1410258965676081,0.2601337301391875,0.0030468602617692866,0.06719572293249348,0.1523581709746134,0.10944072811933041,1.9879834940010404,-0.20537947093959114,-2.513767717328928,0.039847614225167825,0.3381724531451235,0.027160122979229578,2.0
0.0015095379163214792,-0.020525591977854536,-0.02069830161839726,0.038672595206347034,1.4211537573469561e-05,0.009607585835230989,0.022924310093287402,0.016506866038640166,0.2969032479585378,-0.030342638445134205,-0.37563280036783064,0.0063001844832202706,0.0503623312023536,0.004369138630629801,2.0078125
-0.008623365301277343,0.10805927652206286,0.11333862464227014,-0.2079920209757863,-0.003363716596158834,-0.05454519970279682,-0.12127008591224438,-0.08700961750176361,-1.5868708794898894,0.164619269083577,2.0060802403745224,-0.03106397506425927,-0.27021484468814533,-0.021019206825335483,2.015625
-0.010859592617896251,0.1364396393281413,0.1429236041605251,-0.26242081337615675,-0.00410911864047047,-0.06870702370539165,-0.15310976540182447,-0.1098571055862833,-2.0026255976271354,0.20763955229871833,2.531580129679921,-0.03930806332202493,-0.34095129091161624,-0.026622708969662824,2.0234375
-0.007349389631882647,0.09190082228006774,0.0964955540721527,-0.1769736926969028,-0.0029389372026442074,-0.04648723431416327,-0.10317162953704974,-0.0739986045597397,-1.3500886803383814,0.14010080837519234,1.7064393688726662,-0.02636249537184835,-0.22989421184734937,-0.01782856985688741,2.03125
-0.002067934596606383,0.024879455499209297,0.02663862824446403,-0.04842176406003703,-0.0011784676652651328,-0.013056366155746355,-0.028023996672722346,-0.0200444375757311,-0.3683916340754514,0.03849318406723347,0.46534205845596666,-0.006884883332086821,-0.06282506080094274,-0.004598343884009707,2.0390625
0.0070257674480010005,-0.09052033105884362,-0.0936459463869245,0.17293108781947594,0.0018528739651134496,0.044504083934926955,0.10136038028658119,0.072850854870606,1.3219715925775326,-0.1364623602990113,-1.6715438663428912,0.026649854156077717,0.22484983750224308,0.018181997272642168,2.046875
0.015666190674741634,-0.20016504233439966,-0.20794109786842513,0.38326814381791596,0.004733389560091735,0.09920131768686517,0.22429995025243957,0.1611158028740431,2.928302933979499,-0.30271141285788394,-3.702192352092243,0.058509716792561485,0.49821457116740814,0.039829246383436774,2.0546875
0.011150297096194525,-0.14286244606310175,-0.14821251039330244,0.27336331919122325,0.0032281964396768956,0.07062447182328777,0.1600597270135546,0.11498785626775879,2.089035006908746,-0.21584441783819372,-2.641119871233104,0.041852769164752376,0.35536320958874085,0.028518243771248206,2.0625
-0.005595921199422074,0.06963820940651695,0.07330375566956167,-0.13427625133615592,-0.002354442897194053,-0.03537977462743546,-0.07820639300197003,-0.056079825153130404,-1.0240740703445839,0.10634620242507979,1.2944862043882448,-0.0199029178856971,-0.17445756030807114,-0.013435502184300188,2.0703125
-0.015077282817542533,0.18996186251353828,0.19872978492447194,-0.36511282812102946,-0.005515516119324969,-0.09541109959636342,-0.21312528973338823,-0.15294314196415817,-2.786880854646472,0.2887895114057324,3.523002300387169,-0.05486681313718427,-0.47446723375007427,-0.03719186044572092,2.078125
-0.00743617632077576,0.09301351279494909,0.09765060771206462,-0.1791482752922671,-0.002968327201466164,-0.04705032212903464,-0.10440663368967314,-0.07489378448912261,-1.3664202998735626,0.14180383901636634,1.72730657287162,-0.026688441097301722,-0.23273101333004437,-0.01804940641643887,2.0859375
0.003344706631894863,-0.043794851830205664,-0.044979725682748765,0.08330192980160352,0.0006259908150797993,0.021206945740335673,0.04901816496246079,0.03524195742676653,0.638021682563442,-0.06562284484245597,-0.8066721937238635,0.013070689446240923,0.1083996667271745,0.008963883641017998,2.09375
0.003142635784630726,-0.041251792910567305,-0.04232228444689335,0.07843861844429006,0.0005589653802592285,0.01994670014640335,0.04616751056274999,0.03318858536128953,0.6006001954186001,-0.06176896192104553,-0.7595266624914664,0.012329344219586494,0.1020585197285251,0.008461228006625658,2.1015625
-0.0022654347405577932,0.0273618161712643,0.029226982663742875,-0.05318274937755117,-0.0012440110548037721,-0.014284994525720997,-0.030792526873356867,-0.022054611225562796,-0.4049342656169085,0.04226401950596331,0.5114771215095,-0.00761470233723699,-0.06903837030133035,-0.005088650493412484,2.109375
-0.001155909145356853,0.013287098446986449,0.014575435826938038,-0.026193488992921767,-0.0008745589987607151,-0.007271367193541122,-0.015025327870130476,-0.010725223282498279,-0.19885137451304388,0.0209409445812758,0.2510101158334858,-0.0035288134243419062,-0.03395950193323029,-0.002310776387906079,2.1171875
0.0043502016330140445,-0.056580158730357266,-0.05824622447333054,0.10782818474138382,0.0009607548140767906,0.027578862245368062,0.0633177362666877,0.04552070235277047,0.8247299536779938,-0.08496650327884973,-1.042863575366748,0.01677353580579839,0.14024197468139904,0.011484790512854304,2.125
0.004338393722863985,-0.056434973078292996,-0.058097510462791005,0.10755696007305279,0.0009570676025034381,0.027505273760052296,0.06314815935951211,0.04540214701933261,0.8225472336805683,-0.08474925927504427,-1.0401871704979795,0.01673535893449767,0.13989552662767366,0.011455547524835208,2.1328125
-0.0011254411109390414,0.012904072092302984,0.014159000433680926,-0.025442904490120138,-0.0008639278472822854,-0.007084393356876343,-0.014611201228783949,-0.010415293288238921,-0.19317202886429355,0.02033901529476048,0.2438242485946552,-0.003406395281563993,-0.03295377546705633,-0.0022364257197911826,2.140625
-0.002938042607968191,0.035923165986201405,0.0381238431179987,-0.06959308474533864,-0.0014680836541843497,-0.018563221079596362,-0.04041141388834505,-0.02893606794869008,-0.5300184135050894,0.05520112101382252,0.6699226919347051,-0.010089714997869547,-0.09032652755019484,-0.006780500003671802,2.1484375
0.0006736885037192599,-0.00990001961502075,-0.009641137230242012,0.01830203766415003,-0.0002644105766957173,0.00429824853121812,0.010987119358071475,0.007960182740366766,0.14148280087449883,-0.01426783651551299,-0.17877890361680818,0.0032237101129508,0.023888791953602783,0.0022688934447500763,2.15625
0.0018268953336407798,-0.024544176839391432,-0.024869964182137508,0.046376576825642044,0.0001197471308398606,0.01159776798952927,0.027401735228458464,0.01974544563566219,0.3557140129939861,-0.03643658503436475,-0.449859717254399,0.007470238301292869,0.060339799655520276,0.005159514015967731,2.1640625
-0.0017386029652645852,0.02069289119537032,0.022305455748329265,-0.04041242240452503,-0.0010687903076418816,-0.010974454970297242,-0.023336244810642257,-0.016676604410101867,-0.30730928965097615,0.03216394881684773,0.387987808675115,-0.005679654884473941,-0.05245669100281778,-0.0037740877776342345,2.171875
-0.003190588332157091,0.039129742185168855,0.04149888246877185,-0.0757761103587669,-0.0015527790333850966,-0.020166976005674405,-0.0440005398310378,-0.03151405844691003,-0.5772033256706892,0.06010074630838978,0.7292732120602027,-0.0110308893749666,-0.09837296886537042,-0.007412871458298702,2.1796875
-0.0009388509321073805,0.010571570122640345,0.011696886446388641,-0.020982914263438828,-0.0008022867215793085,-0.0059126447240380065,-0.011958267242291876,-0.008516885161597055,-0.15843794204888956,0.016785024173161026,0.20018595530996017,-0.0027244968480206557,-0.027134359834878743,-0.0017704948737389521,2.1875
-0.0008264158065596295,0.009139070357770637,0.010205992196534208,-0.018227388668334055,-0.0007647398062846443,-0.005197947511419422,-0.01035020067657769,-0.007367811425722071,-0.13745600332150915,0.014615094254400622,0.17371697503771946,-0.002311758441809946,-0.023583907822699826,-0.0014865702601389004,2.1953125
-0.002285746564483725,0.02763209075339077,0.02951008098268703,-0.053699953331673454,-0.0012508269441959263,-0.014426816316467786,-0.031099234799973438,-0.02226817719709111,-0.40873706635290963,0.0426666860567847,0.5164859948703379,-0.007696708540539062,-0.06973107037380055,-0.005140902408857298,2.203125
0.000768072010670867,-0.011139553189167485,-0.010888617137088826,0.020671183446155338,-0.00023263542367888153,0.0049154688011779826,0.012369322513442452,0.008935602665423056,0.15900438185051832,-0.016104146108552857,-0.20137630534441295,0.003565737167026368,0.026919195028619773,0.002510570088634275,2.2109375
0.006082220768282483,-0.07857375480118198,-0.08118510287612135,0.15002196532262693,0.0015386078335158841,0.03855652605217414,0.0879845951642512,0.06322198108511064,1.1469228172964039,-0.11833497714924102,-1.4503012870781993,0.02316786834747785,0.19505564868611294,0.015823837115322596,2.21875
0.007108637486897672,-0.09158816994773501,-0.09476153978069853,0.1749871686260886,0.0018805520194747046,0.04504501220714249,0.10257306797025936,0.07370031448170515,1.3376662152991377,-0.13806245466968853,-1.6913859148103512,0.026957162667702577,0.22752711736104048,0.01839462416358301,2.2265625
0.00543856822963099,-0.07038855982539538,-0.07266840242695928,0.1343270994106495,0.0013238992437556213,0.034465902752417295,0.07879237202080806,0.05663427363007409,1.0270873886273864,-0.10592407806399211,-1.2986722040483556,0.02079789344432331,0.17470066326012443,0.014210011175126377,2.234375
0.0031863786973713596,-0.04180242305466865,-0.042869187864553564,0.07948785285399902,0.00057308839160198,0.02020681557339457,0.046740412317971866,0.03362646244733973,0.6083197080780212,-0.06258950295258252,-0.7692166836418988,0.012487758923108763,0.10343602491953982,0.008566456537137043,2.2421875
-0.005026803389315068,0.062433599470386326,0.06578405368931393,-0.12048013922430066,-0.0021651001400939175,-0.03179032396794799,-0.07012027114587802,-0.05027568897923328,-0.9185197305296567,0.09544408345858298,1.1610300028618459,-0.017804650183901795,-0.15646572515293886,-0.012011784919002124,2.25
-0.01683228721533378,0.21225367368410678,0.22194243275296627,-0.40787584271344657,-0.006100581239112654,-0.10652983891918971,-0.2380967743613505,-0.1708770541319648,-3.1130771514393363,0.32258555158029,3.9355020214861662,-0.061339006531765876,-0.530002172082361,-0.04158859672924102,2.2578125
-0.016762418003015776,0.21136297945932023,0.22100145880042177,-0.4061420066527773,-0.006076908616639425,-0.10608472799414523,-0.23710645100591915,-0.1701627380812658,-3.0999733390746886,0.32121688987267816,3.9190888646911617,-0.06107589926750205,-0.5277567222440683,-0.041412110089967535,2.265625
-0.0015166071696892255,0.017878107560615683,0.019324624444114227,-0.034967397453238645,-0.0009942316046021534,-0.009560138444571173,-0.020173817339447626,-0.014412102982785328,-0.26571155319953665,0.027852985892949895,0.3358896705388575,-0.004852193791462196,-0.045361996924862744,-0.003215159614153415,2.2734375
0.010546325746617933,-0.13521526707326426,-0.1402290597031642,0.2586922825316696,0.0030270615366924914,0.06681273253265119,0.15148570838282896,0.10882539228146113,1.9767753117293947,-0.20424579978707372,-2.49949402407006,0.039626321409137306,0.33627560888501007,0.02700661226509981,2.28125
0.008287226777904012,-0.10654920107527094,-0.11032955023970356,0.20367769611079026,0.002273754893750571,0.05251014082527864,0.11935464296880373,0.08575027275974988,1.5567198154953048,-0.1607589978045949,-1.968741723265934,0.031290544472831534,0.26476779557320324,0.021346457829133143,2.2890625
0.0027777487284518735,-0.03662278468623814,-0.037447327103548096,0.06953561495087458,0.00043686561984014225,0.017624528093901786,0.0409439001815092,0.029463504558724186,0.5323771265818321,-0.054735852287835216,-0.6736171525713812,0.010977438133770043,0.0904622968517984,0.007541860596994464,2.296875
0.003463189196467445,-0.045309525207670585,-0.046520407306509796,0.08620871280980086,0.0006651645439658958,0.021957376597147103,0.05066757751093962,0.03645825506512104,0.6597486335326112,-0.06792000188644981,-0.8343451620814517,0.013512083969565351,0.11217348317125828,0.009256820265845291,2.3046875
0.004365887554215913,-0.056764382592452874,-0.058470123716018695,0.10818527328683412,0.0009660636781047047,0.027673046601172216,0.06351399996590641,0.04567597485012161,0.8276650458485888,-0.08528812188364375,-1.046537183314155,0.016841165809020307,0.1407381913075091,0.011518991415603079,2.3125
0.0016026570568305532,-0.02170670026375035,-0.02192841851570722,0.040937569541877245,4.50975122230627e-05,0.01018886914985616,0.02422878375840345,0.01745116531291993,0.3141303570265584,-0.03212123169244219,-0.3973880807144676,0.006647725397010491,0.053316195130303674,0.004601009883211869,2.3203125
0.0005563469064692045,-0.008432690421643631,-0.00809427142598332,0.015487743243873406,-0.000303482027371006,0.0035724239317090085,0.009358186806843038,0.006768623112884741,0.11968439042272462,-0.011997144748355795,-0.15154283334712848,0.0027896777116894014,0.020230141374983412,0.001983261860916334,2.328125
0.0012103571784489767,-0.016725752428983883,-0.016742680091796858,0.03140463718884333,-8.540459109740416e-05,0.007708210402429931,0.01864659821517094,0.013449929881656273,0.24126511695226627,-0.024592235166896306,-0.30508794125955635,0.005203503105949358,0.04091792601558577,0.003619189830943333,2.3359375
-0.00220530068189089,0.02662928103607298,0.028447881616539505,-0.05177757740418903,-0.00122418175742764,-0.013929371392076817,-0.029979517538052943,-0.021451250099391955,-0.39375683936318634,0.041131878480038846,0.49783742310014095,-0.007394433094332774,-0.06719292411812247,-0.004943751993222638,2.34375
-0.006988526543686847,0.08733183031623593,0.09172744347790729,-0.16824616602148024,-0.002818900912420642,-0.044220630032746726,-0.09804880239479241,-0.07032222031451428,-1.283133414999019,0.1331836741004616,1.6221420919637286,-0.025036588706859556,-0.21856155069414093,-0.016929753321830426,2.3515625
-0.006167180512013614,0.07690151574125785,0.08086793621949255,-0.14824179727902712,-0.00254513957612883,-0.03901926923266073,-0.0863596769427307,-0.06192936566988193,-1.1306401442111775,0.11738476777045317,1.4291750625328128,-0.022006960857062347,-0.19256345768451405,-0.01487083902020085,2.359375
-0.0025591147028847763,0.03110514696440357,0.033143774863722913,-0.0603758260501497,-0.0013422318083409516,-0.016169892981242266,-0.03501420846582795,-0.025063009323589992,-0.45987300114059065,0.04794414820076817,0.5810660168751627,-0.0087004700149228,-0.07838736689445362,-0.005829888596525771,2.3671875
-0.0022754346727644416,0.027501186189194744,0.029387393207005168,-0.053452363575348515,-0.0012475521973108166,-0.014366788328209529,-0.030964109059146035,-0.022161731396034206,-0.40691600282496715,0.04247180007537748,0.5141433827944366,-0.007657088090872806,-0.06940938097018955,-0.005117645886027851,2.375
-0.002077415110782341,0.024985918796615558,0.02675384637495988,-0.048628757740586954,-0.0011815066228775385,-0.013104597999012426,-0.0281277287713811,-0.020139608498971118,-0.36995439955318316,0.038662098601493,0.4674397174804831,-0.006928719520717467,-0.06313158393881055,-0.004618777964464947,2.3828125
0.0024461660311218773,-0.032423860928799016,-0.033099136152242074,0.061503818081659514,0.0003265428468758361,0.015542091479706754,0.03624927949697763,0.02607274051635971,0.4709908597612408,-0.04838195809016973,-0.5957735274180043,0.009755889311641458,0.08001824161867878,0.006716639863538976,2.390625
0.006307908353769632,-0.08142772341781915,-0.0841795790098748,0.1555160082995711,0.0016138926673449898,0.0399875057504338,0.09118981471574229,0.06552301572003605,1.18883988534229,-0.12269089731891274,-1.5033472327246313,0.023998664526362238,0.2021924350928061,0.01639085506577417,2.3984375
0.004763220714368532,-0.06181148285963518,-0.06372096498084737,0.11787719155974576,0.0010986548561698608,0.030191482656551444,0.06918809412170884,0.04973759825010775,0.9015206210040749,-0.09294021576238169,-1.1400617288579193,0.018298029976677937,0.1532707729632097,0.012518096594048496,2.40625
0.0018793066667509189,-0.02520767939391684,-0.025552053411377892,0.0476382008292025,0.00013699495757428002,0.011923468916403841,0.028140306175721035,0.020274022088122262,0.36521366307357567,-0.03741251821018196,-0.46200257648685467,0.007660311127397319,0.06201652770862099,0.00529139724751332,2.4140625
0.0006951449397899185,-0.010193612906170414,-0.009906005299517273,0.018837211507542792,-0.00025741032201702276,0.004439945996766435,0.011305386748155033,0.008185780204601263,0.14522515717204484,-0.014649473305465878,-0.18390247835566378,0.003300904026535623,0.024616216729313446,0.0023252022904661986,2.421875
-0.0019706721132121095,0.023627311163128762,0.025317061843549156,-0.04601587313359849,-0.0011454383934225484,-0.012419404099648248,-0.026605167065335694,-0.01903907203816519,-0.34990989292810226,0.03658474070458425,0.4420965825960264,-0.006518821465306672,-0.059673198522849774,-0.004353154101770196,2.4296875
-0.005396156814263133,0.06711403987880721,0.07062347948757433,-0.1294292268913738,-0.0022874249662516257,-0.03411420478041305,-0.07535494203583004,-0.054039790352815614,-0.9866103101670741,0.10249974329052469,1.247155927755457,-0.019149340346617038,-0.16808293863852003,-0.012936358198777859,2.4375
-0.0039265279702980355,0.048482858603214975,0.051223945284578666,-0.0937115310711229,-0.0017982483225518736,-0.024835006148091185,-0.05447833812004529,-0.039038771453654406,-0.7138443957897003,0.07428906414847394,0.9023835363278057,-0.013737495715208492,-0.12164530023639111,-0.009256370588374621,2.4453125
0.0013749071319699596,-0.01880046309428013,-0.01887454924307392,0.03535205348354224,-3.1181999229033505e-05,0.008723295593796043,0.020938530465170656,0.015120842630110326,0.2714052107368484,-0.027707166212650406,-0.34326867668452593,0.005806461013777777,0.04607839733451369,0.004024759856360932,2.453125
0.0039364671815898125,-0.05132242364212343,-0.05277890016065467,0.09776579132116055,0.00082331157762895,0.024958743866648193,0.057405400714041294,0.04129884540817136,0.7478488920710513,-0.07706228548109198,-0.9456739379030568,0.015252079736318225,0.12714044813815678,0.010443629845018983,2.4609375
0.0032969826039143044,-0.04320427931069566,-0.04434601809659248,0.08220226246840316,0.0006103733526309975,0.020918223344850533,0.048330146791336084,0.03476466450064375,0.6291830260747193,-0.06478012949316005,-0.7956068249569038,0.01289258959518582,0.1068868829955597,0.008843751256010637,2.46875
0.0026525676373351636,-0.03501962139747508,-0.03581021412447947,0.06647076666700316,0.0003950265789196809,0.016827029257489193,0.039164639200975286,0.02817214365926618,0.5091505187437834,-0.05232149973719417,-0.6438102634077405,0.010511728124384718,0.08646160442581956,0.007230361455136457,2.4765625
0.0003424863191342454,-0.005714864903238118,-0.005232213371897948,0.010236548182184233,-0.000375338290804192,0.0021985844019809216,0.0062887249561201985,0.004573591167622939,0.07949605787586922,-0.007849709676981294,-0.10074199314312961,0.001991039133659128,0.013382518853230323,0.0014421761193545682,2.484375
-0.004247378187659796,0.05251866277391376,0.05547092937536761,-0.10144850039205386,-0.001904945176114475,-0.026846395520918522,-0.05902162488867614,-0.04230704554612629,-0.7735706527059756,0.08040858738019406,0.9775475991621554,-0.014930581196108371,-0.13178862587391776,-0.010057713331186754,2.4921875
-0.005140976942636739,0.06386335516123856,0.06727175621334255,-0.1231934737495968,-0.002202542172440679,-0.03249919633770463,-0.07173710599933136,-0.051436256149820385,-0.9395235388521455,0.097580736041928,1.187330109119551,-0.018220594329446456,-0.16003731905043875,-0.01229605276585129,2.5
-0.0004797912285255206,0.004720056673772357,0.00562538303979999,-0.009766481655834028,-0.0006491351140000622,-0.003002442892463367,-0.005414241106800318,-0.003825248793378134,-0.0731999024186205,0.007956233761772985,0.09221394874123012,-0.0010316803598933166,-0.012584769239569802,-0.0006174804652503962,2.5078125
0.0022913053504456677,-0.030450954852464074,-0.031007592958129566,0.05767418986677723,0.0002742526008888739,0.014534269259122098,0.03402094075568692,0.024485339246435187,0.4417794827588068,-0.04532253475126013,-0.5588142283994126,0.009183653263778922,0.07505848657524565,0.006325255033415019,2.515625
-0.00029192288684423007,0.0023248336595109204,0.003153022625824841,-0.005180186431700228,-0.0005865657046202732,-0.00181033171365793,-0.0027285487543526232,-0.001898446777851511,-0.03823419711828672,0.004339615564059266,0.0480181534781463,-0.00034229265445640396,-0.00666544826701516,-0.00014634135525554463,2.5234375
-0.0021274159303361862,0.02562434153445057,0.027395521970150893,-0.04983715161033328,-0.0011979236527303004,-0.013421770681913888,-0.028846275956809084,-0.02065223154651043,-0.379115162094554,0.0396103238826377,0.47917206567761356,-0.007104535192050855,-0.06468848000593455,-0.004744441943692457,2.53125
-0.00039110244892371726,0.0035982647762843522,0.00440740887863365,-0.00757407726175254,-0.0006189995920957356,-0.002429161989588224,-0.004141728855511248,-0.002919370178715912,-0.05620198347949191,0.006205854005248661,0.07119485121401113,-0.0006954518944098741,-0.009707106033108839,-0.0003946727958888284,2.5390625
-8.780339338201145e-05,-0.00025147558115966805,0.0004099334905549826,-0.00020107221629912035,-0.0005180921153597654,-0.0005074202123314604,0.00017915659288969513,0.0001839115777888631,0.00010537040696538326,0.0003794025086358945,-0.00010384556223934322,0.0004205086562371808,-0.0001198594049684815,0.0003643974633953273,2.546875
-0.002407479663694472,0.02918578920493795,0.031123199983054396,-0.05667798706898601,-0.0012916317003686332,-0.015191632913059958,-0.03283134231506866,-0.0235079219474432,-0.43132281010368984,0.045004314978991954,0.5449630695368182,-0.008143177609761286,-0.07356452982275727,-0.005447763662317554,2.5546875
-0.0017916554728703556,0.021378593589436737,0.022997955634439196,-0.041704915603784726,-0.0010865286322273363,-0.011303080563263243,-0.024093081171700836,-0.017220991262054657,-0.3170890350705649,0.033164799483208426,0.4004496998639159,-0.005877185719799706,-0.054115539010190804,-0.003906259323277916,2.5625
0.0031757382885806117,-0.04165507048778082,-0.04270232865376232,0.0792030934524127,0.0005695093989318761,0.02013248759847044,0.046569874111414986,0.0335242332801649,0.6062450693311121,-0.06239085061545589,-0.7667763435381499,0.012446338669571724,0.10305588225636353,0.008536323759230073,2.5703125
0.006834882244664688,-0.08809929446478496,-0.0911084445493054,0.16828777674807974,0.001789655308782308,0.04330255241619517,0.09865193433851929,0.07091661440853297,1.286591169887658,-0.13280010179462276,-1.627045670927801,0.02594651900536,0.21884408797552865,0.017703393655504954,2.578125
0.0053898718393357884,-0.06977132984566815,-0.07200771002067025,0.13312777821539326,0.0013079143237137087,0.03416697523697224,0.0781183580844699,0.05615638766294728,1.018066462068383,-0.10500728190308042,-1.2876704835921728,0.0206152234576726,0.1731215834958347,0.014086707068528024,2.5859375
0.0009256794146284729,-0.01311653789948464,-0.012972981876303604,0.024450952314823714,-0.00018074512122351528,0.005900705107598258,0.0145947201238935,0.010530751875172545,0.18812622191845002,-0.019092866782373374,-0.2380045310502351,0.0041471956355157895,0.03186751063569498,0.002905207670575361,2.59375
-0.003084547861300089,0.03778305811614221,0.04006825113779091,-0.07318317272366039,-0.001517725644433364,-0.019503922163101116,-0.0424921866665833,-0.030451780662931173,-0.5574043996843707,0.05808511142706793,0.7049789394391262,-0.010639301340698288,-0.09501577821530433,-0.007143999133891124,2.6015625
-0.0046834858184339,0.05807330023088876,0.061230737583630915,-0.11209944554880333,-0.0020503163522623035,-0.029628233342200893,-0.06525071597119114,-0.046774149855159514,-0.8545660226191882,0.08882804333063421,1.080441322007139,-0.01653176027096884,-0.1456038010512639,-0.011153023995173041,2.609375
-0.002997895439381257,0.036674724320652066,0.03894642569729647,-0.07104792798173555,-0.001488237000147142,-0.01894238880412885,-0.04125049396220551,-0.029539753757844962,-0.5411789192099479,0.056371518886648056,0.6838149975206126,-0.010319872098869741,-0.09226855694033248,-0.0069283717827328785,2.6171875
0.0006189884834758437,-0.009226043354065837,-0.008903552793699426,0.01700401099282472,-0.00028283921715715175,0.003960875635583472,0.010222984500307855,0.007402509129600408,0.1311469629897419,-0.013207962444477733,-0.16605207800290153,0.003013484109951597,0.02217572899955409,0.0021366465519072424,2.625
0.0019436021485089603,-0.026033028519067306,-0.026440147347701663,0.04924555889654457,0.0001586976646345913,0.012338127927777009,0.02906781711466609,0.020925002614823374,0.37739479785377816,-0.03868146670805849,-0.4771514948543489,0.007903592823511382,0.06408588194156756,0.005454851237340559,2.6328125
-0.0015436514547717613,0.018213950526402487,0.019691538393553983,-0.035639495421542794,-0.0010034480731064116,-0.009738209255167102,-0.020543571864136533,-0.014689058129568644,-0.27084235907091486,0.028396936592270217,0.3420024465127344,-0.004951172329285804,-0.04626101105772086,-0.0032838615055208096,2.640625
-0.005752411162406998,0.07161222824325435,0.07538275734670978,-0.1380886728852395,-0.002406547125639155,-0.03636725128744169,-0.08041165230372868,-0.05767046455913477,-1.0533112970359175,0.10936292781523092,1.3307771667523096,-0.020479137038417593,-0.17942822875031544,-0.013826943165537247,2.6484375
-0.004179121239515396,0.0516502291084631,0.05457692607328304,-0.0998036331215227,-0.0018825704236013255,-0.026399689780155375,-0.058025070118175766,-0.0416022147484317,-0.7609209229276107,0.07911234209341354,0.9613443345164989,-0.014685266516458413,-0.12963326145393136,-0.009883366450089947,2.65625
0.0023990514214974738,-0.0318122939327639,-0.032456155369775565,0.06031565297838477,0.00031035246255079596,0.015236445388826974,0.03555995995049843,0.025588595080873387,0.46207373349894576,-0.047440125839878874,-0.5842947107985379,0.00957976172815598,0.07852444843813622,0.006595941974288519,2.6640625
0.006057856824816429,-0.07823780882351726,-0.08087686051527034,0.1493965225793643,0.0015306567076907862,0.03839446341129412,0.08761799462963252,0.06296678288112187,1.142512369672607,-0.11785640584136617,-1.4443650159895924,0.023083982928758715,0.19431531923738055,0.015761114010444895,2.671875
0.003178276149338851,-0.04170049192881196,-0.04279501758457331,0.07931742009494122,0.0005709814757616161,0.020169234024515915,0.04665054880575547,0.03355232000752954,0.6073274665931299,-0.06247086810055652,-0.7677795141209315,0.012466201726080319,0.10322522783185181,0.008547722493874118,2.6796875
-0.0009581680669613775,0.010797611110299523,0.011930789993571502,-0.021399535095131955,-0.0008082986706067751,-0.006021695502899341,-0.01222245539371004,-0.008710258859803421,-0.1618042503928772,0.017128028217227382,0.20467681405467758,-0.0027922551037352855,-0.02766710338926942,-0.00181672281267843,2.6875
-0.0013378021247420486,0.01562999573536976,0.016976497158789208,-0.030691058832928872,-0.0009352573555320864,-0.008440818231370687,-0.01765567821765764,-0.012593177867711827,-0.2326937839316464,0.024454543919814026,0.2942396722687252,-0.004193656498407646,-0.039735764153201354,-0.0027727521195134624,2.6953125
0.00034905637916740785,-0.005777541895047378,-0.005316403506596045,0.010360315237292956,-0.0003730562030419855,0.0022313097355009665,0.006339725940280955,0.0046417629244993805,0.08071001191358088,-0.007994468586693459,-0.10227869839241702,0.002025122646166597,0.013589048390287965,0.0014517524249148598,2.703125
0.0009568825538971382,-0.01350731922518024,-0.013360602650446042,0.025197811953689035,-0.00017029114706676167,0.006085877772920937,0.015013342961058818,0.010852674952851518,0.19379916850715426,-0.019695715756638272,-0.2454306680830181,0.004263376301601142,0.0328237778606078,0.0029791590233217767,2.7109375
0.0006220329325538024,-0.009264167027307611,-0.008949733191589898,0.017084759001342785,-0.0002814704774751685,0.003969332926963298,0.010270515075490701,0.0074323460435329666,0.1317838961087825,-0.013267036399573252,-0.16700532554533268,0.0030303116121892064,0.022245719704987236,0.0021437582984723163,2.71875
0.0002928866776586654,-0.00508024579174605,-0.004594459760747157,0.009070205567661877,-0.00039077168029431235,0.0018814819387632923,0.005586352877133988,0.004077167474605557,0.07068327452292254,-0.006950647262926533,-0.08980269630641041,0.0018198277957372497,0.011815724975051425,0.0013167254247944404,2.7265625
-0.000271294693930197,0.0020773625232885346,0.0028915989676830023,-0.004679107262857604,-0.0005790698884522385,-0.001689604924685159,-0.0024503543107634866,-0.0016795551719770532,-0.034359494166867045,0.003905699212195272,0.04292581736866241,-0.0002646517605460117,-0.006051173302343904,-9.937148631404503e-05,2.734375
-0.0014246767805277305,0.01669951310277946,0.018155023971810264,-0.03275137381211096,-0.000964313986935014,-0.008982402188569591,-0.0188631382139413,-0.01346923959560103,-0.24898141656214476,0.026123655444752928,0.3143784800824788,-0.004524089729867806,-0.042507575215333805,-0.0029860014749995994,2.7421875
-0.002936785810003761,0.035880604283723874,0.03813231356553189,-0.06954453016484058,-0.0014687846973987656,-0.01854297892603246,-0.04036827752453486,-0.028927634094003278,-0.5300789879599216,0.0552349236875947,0.6699112803499391,-0.010099449871700288,-0.0902836579742509,-0.006768841137032388,2.75
-0.0031265732950933613,0.038294603234469,0.04061946681631109,-0.07416125917161842,-0.0015317383921546446,-0.01973335301475648,-0.04305141093249453,-0.030863318610854458,-0.5651446593213368,0.05886959686043263,0.7142325814533642,-0.01079637068456524,-0.09625734072816408,-0.007242698290274953,2.7578125
0.00015757300561863462,-0.0033727308495340134,-0.0028204796251388464,0.005768304589805266,-0.0004365293565425545,0.001057749995310492,0.0036825156713275967,0.002695600732217742,0.04555384381277428,-0.004338172857535136,-0.05782196363722242,0.001314007050814116,0.007631795989956427,0.0009816001410631553,2.765625
0.0044271834585147135,-0.057547343417719804,-0.059288659896740564,0.10968111904085556,0.0009867906823333515,0.028070682651687513,0.06441388831981176,0.04630822423154741,0.8392403374804877,-0.08647415759259854,-1.0610348287830123,0.017061206259030213,0.1426880008597449,0.011673925153289405,2.7734375
0.0035125035599879767,-0.04593557100087762,-0.04719417884328524,0.08741138290549622,0.0006817761289409737,0.022265956072904772,0.05138276569046866,0.0369543125299712,0.6691117086509781,-0.06885942972982703,-0.8458472304206878,0.013694531191072922,0.11373391133547416,0.009381898651468752,2.78125
-0.0017109854453756918,0.020347834252982856,0.021891322375707505,-0.0397219627883694,-0.001059301466594302,-0.010794359463790067,-0.02292610282093275,-0.016402270750924448,-0.3018574236879797,0.03162113859628644,0.38150124510103195,-0.005566756503946735,-0.05153237995512423,-0.0037016300370201396,2.7890625
-0.0028743195340626567,0.03510523707138397,0.037282255790577506,-0.0680266731918324,-0.0014467782691819037,-0.01814764836666331,-0.039463947888888205,-0.028274679666317998,-0.5179885913844113,0.053974677309786646,0.654537376514625,-0.009860206936532424,-0.088337288648776,-0.006615617823454733,2.796875
0.0007728103241519629,-0.011171450256492327,-0.010948580459731379,0.020731836910981634,-0.00023100924650704325,0.004929792096496908,0.012405438174639542,0.008980918664714213,0.15993106890684547,-0.016187147639188822,-0.20247060854208743,0.003590965718475859,0.02704591173795526,0.0025172768094910976,2.8046875
0.0007088540048128232,-0.010348625242836447,-0.010092026535744043,0.019143156690563524,-0.0002526854387167961,0.0045066648992740386,0.011463328542575929,0.00831683589136409,0.14781007561695036,-0.01492679302540131,-0.1870380189618677,0.003358770822370019,0.02499852542172117,0.0023536360233620754,2.8125
-0.0035005568798001704,0.04306699027943555,0.04559623803565908,-0.08332276008296868,-0.001656170562562748,-0.022139320711163982,-0.04842214912628501,-0.03468542772979818,-0.634825284686785,0.06606856844413907,0.802323548062625,-0.012169786454786965,-0.10821000708418241,-0.00819031981031334,2.8203125
-0.0034155987456878207,0.04197680714557265,0.04447941731629341,-0.0812317486417306,-0.0016278949291092684,-0.021589164429100326,-0.0471900704133819,-0.03381172792805524,-0.6190107184320408,0.06442448958371635,0.7822130140073169,-0.011865831779623111,-0.10552448251777355,-0.007974418773285913,2.828125
0.0002013720022520331,-0.003926261985984075,-0.0033661706417766977,0.006824270717435405,-0.0004221973952939159,0.001311171265623189,0.004269641432980956,0.0031366332689003657,0.053386611051908534,-0.00516486475902631,-0.0677833561357894,0.0014733335694749599,0.008949376484586222,0.0010875494394611894,2.8359375
0.00019328253604754335,-0.0038212478760501433,-0.003274153754982896,0.006634933551840865,-0.0004248198884315273,0.0012628957986001654,0.004152325724207933,0.003052888483382122,0.051942515836222135,-0.005010456386149985,-0.06585873769644787,0.0014506707986064189,0.008737224381398227,0.0010684508260612304,2.84375
0.0009343524916826279,-0.013229215477967233,-0.013086570833782578,0.024689515676199984,-0.0001774541436104821,0.0059647315623556,0.014728295028719677,0.010632094377271362,0.18986088777436871,-0.019281601550427806,-0.2403697354737293,0.004182382368475057,0.03218061953857292,0.0029282254880872455,2.8515625
0.008577308544187031,-0.11021798910714413,-0.11417224254482723,0.21072523904294638,0.002370507393132236,0.05434857896349711,0.12349186473129997,0.0887150488403521,1.610702183503976,-0.1663291461188323,-2.036829849959488,0.03235984225309856,0.27395314133765597,0.022075236700135316,2.859375
0.011651485983803786,-0.14921598794756624,-0.15482453234521465,0.28552031184893,0.00339495304853861,0.07379667069544533,0.16719692942022615,0.12011018848159928,2.18205051729096,-0.22545700218044876,-2.7589585935351644,0.043697179955116267,0.3712142142607405,0.029771704551225367,2.8671875
-0.0008269325676611943,0.009138332258710483,0.010215930080600443,-0.018227076239314365,-0.0007650408282156866,-0.005198756637975492,-0.010376761112031549,-0.007374511807536308,-0.13765765464925267,0.014622934761699286,0.1740412877726453,-0.002310100021987175,-0.02352880278846252,-0.0014906029555140491,2.875
-0.01441396861614838,0.18153621250850235,0.18991367210121027,-0.348907198351053,-0.005294050537617008,-0.09119844420259242,-0.20366752859846546,-0.14617110031641073,-2.6632924633455377,0.27601260587820586,3.366977571499239,-0.05241101354290491,-0.45337466596398135,-0.03552324556006204,2.8828125
-0.010948911416724135,0.13754792380887604,0.14408837367000035,-0.2645382716250538,-0.004138695066911225,-0.06926447169566874,-0.15433891261113622,-0.1107678417491623,-2.0191702626741015,0.2093487068754361,2.5523371346102723,-0.03963812577587112,-0.34379505607666005,-0.026839660014885507,2.890625
0.0008934335793884368,-0.01271892130173947,-0.012532987731245268,0.02368264156633523,-0.00019118695953875,0.005686413738999943,0.01413018726362373,0.010205422327145936,0.18210782296020891,-0.018473026134824034,-0.23055283612422314,0.004030465382274919,0.03083103199145667,0.0028223565054877214,2.8984375
0.003611872402425583,-0.047198431372279,-0.04849870984106978,0.08982242309119325,0.0007149328405492884,0.022893353681699372,0.05278189718315834,0.037972766215118116,0.68751609323379,-0.07078247234757457,-0.8691973623423954,0.01406057870751129,0.11686182025731226,0.009627869248480601,2.90625
7.882868783779895e-05,-0.0023670991177833613,-0.001786850264377785,0.003843237954673026,-0.0004625366746465681,0.0005439467556200687,0.0025352080583948867,0.00188657921304737,0.03097624737524193,-0.0028346293024205656,-0.03922508392756785,0.001033546290239251,0.005117926330603513,0.0007801518877462739,2.9140625
0.0009512355576689186,-0.01344492080184833,-0.013316010275365123,0.025091333275178897,-0.00017169737298102026,0.006073961893334655,0.014973254131544898,0.010804971564314661,0.19314515179750602,-0.019614591389194004,-0.24456230124011974,0.004243169625318733,0.032701262724289554,0.002969886829957991,2.921875
0.0037872383175831083,-0.04942529830747475,-0.05080164751768437,0.09409551292962204,0.0007733117461523312,0.024015975740714325,0.05530611922027544,0.03977415476314406,0.720109496048172,-0.07415114220369534,-0.9107551998350661,0.014696560965643755,0.12239293460610613,0.010072193770197007,2.9296875
0.003387187742441407,-0.04433613450271361,-0.04550714361152061,0.08433688104216994,0.0006398504420772729,0.021470255078904106,0.0495838604023412,0.03568160452032577,0.6456310429051225,-0.06645218644249123,-0.8163679477987671,0.013226761873869765,0.10972660510355585,0.009065185587944802,2.9375
0.0024029805415620455,-0.031842582054253894,-0.03249704835155189,0.06038308119253957,0.00031195804190487837,0.015233871816231042,0.035574258193305446,0.025624274493330976,0.4626658303685261,-0.047529273216717724,-0.5851450591144268,0.009602048446007655,0.0785763897190708,0.006598403654062828,2.9453125
0.0008931331764279263,-0.012682730534307797,-0.012515920532512471,0.023623391967423208,-0.00019153177744170126,0.005675722475277944,0.014094699714034566,0.010198925980852187,0.18188984969848565,-0.018468682306947336,-0.2303749289698765,0.004029749023692265,0.030795164332707504,0.0028169235262470796,2.953125
-0.0042897660980609105,0.05308277398661602,0.05604725812809436,-0.10254048681070786,-0.0019196439290384657,-0.027126836519536256,-0.05964743845174736,-0.042747430689093265,-0.7816224695467584,0.08126816239270303,0.9879055504254132,-0.015086966469500734,-0.1331439985593785,-0.010166095050517672,2.9609375
-0.007473803861197436,0.09347216894703887,0.09814374030984345,-0.18000516372471917,-0.0029808413054294197,-0.04727074848313552,-0.10493297895072835,-0.07527088235764004,-1.3733117875354421,0.14251697925783516,1.736161634578602,-0.026824751336956845,-0.23381773484211973,-0.018139509409355374,2.96875
-0.002079901268663096,0.025010663813268108,0.026776378203129236,-0.048662025774380446,-0.0011821758207361953,-0.013119269419149617,-0.028158737701254672,-0.020165236849322914,-0.37041349680419966,0.03871372355654678,0.4680702615429432,-0.006931916223381198,-0.06316602130987493,-0.004622574515201603,2.9765625
0.004223415128740811,-0.054974829348879865,-0.05659717704132969,0.1047694455249667,0.0009192022038068885,0.026781093732410367,0.06153611461121934,0.044227184894069155,0.8013256603910771,-0.08256844935897381,-1.0134955095910068,0.016307547773213305,0.13620773241842668,0.011169183803108048,2.984375
0.0020602415318929073,-0.027519333036195002,-0.027981641389981004,0.052097907033185474,0.00019794014653550792,0.013089347013790291,0.030750680900005087,0.022130523313143132,0.39920579417605445,-0.040951102715206175,-0.5049371309869264,0.008330174900454288,0.06777228919849572,0.005747927761011367,2.9921875
-0.002093648220576399,0.025184789859326148,0.026951965489217484,-0.048999330273386675,-0.0011866223660312728,-0.01319812246436184,-0.028351657355620896,-0.020297167474230705,-0.3728230528178661,0.0389563688369642,0.4712403685628013,-0.0069794318859287795,-0.06358951104411904,-0.004658991347833502,3.0
0.0007751392394971667,-0.011223702555887071,-0.010994973361980636,0.020835859744288313,-0.0002301492380127391,0.004962570396156702,0.012466113506499125,0.009011833361518768,0.1604956659498715,-0.016240121383049297,-0.20319604903200225,0.0036030317949422583,0.0271829872945269,0.0025279891912172664,3.0078125
0.004847299663481283,-0.06288053211173181,-0.06484256038036293,0.11991286717764961,0.0011269258538511063,0.030727358964008113,0.07038221224189391,0.05060027228700824,0.9172591157217425,-0.09456705264335108,-1.159998508517173,0.018612997222707876,0.15595929347362758,0.0127268375634525,3.015625
0.0017928486326862815,-0.024101484249264882,-0.0244361470334746,0.04552816713727445,0.00010832628399897009,0.011379757795616792,0.026896287283507004,0.019384663111583104,0.3493087600560451,-0.03578958037602119,-0.4417590988572132,0.007346998692150618,0.05929116193621014,0.005071578001082889,3.0234375
-0.0038051444294556116,0.04692799620902817,0.049599422084034894,-0.09070808713493425,-0.001757485987585286,-0.024055069427365187,-0.052742024195783506,-0.03779754721182414,-0.6912110323092687,0.07190300385396592,0.8736634353245096,-0.013289340072913622,-0.11779047175762082,-0.008951436273183812,3.03125
-0.004399534940518015,0.054453950260338786,0.05746974145128622,-0.10515401148233404,-0.001955343050003479,-0.027811968486819657,-0.06116690998202691,-0.043856483355544616,-0.8016757526226491,0.08334814028794882,1.0129792479819772,-0.015481278607975595,-0.13659252085311044,-0.010437085976324914,3.0390625
-0.0015832762975172862,0.018722794722595092,0.020252432762741024,-0.03664846627967903,-0.0010171955040575956,-0.009990843361108743,-0.021100418513652106,-0.015089464454538841,-0.27844752170875997,0.029211943964102195,0.35153092306333406,-0.00510958981141981,-0.047550295937589866,-0.00338190835582596,3.046875
0.00039667707453615016,-0.00638365085511548,-0.005915467677786601,0.011498681051827348,-0.00035808346426836364,0.0025310153000047803,0.007028996756653344,0.005121032793736464,0.08933293730983179,-0.008851416483473942,-0.11299070035523485,0.0021829640895413144,0.015055602997485743,0.0015750724208836748,3.0546875
0.0015813260716225441,-0.021417968023203855,-0.021601527807126753,0.04036741005606962,3.698944248370003e-05,0.010031518950739206,0.02386315060089817,0.01721914085002619,0.30966648664887725,-0.03167411819867489,-0.39139312326656506,0.006560419747297144,0.05258665801070527,0.004541856118454305,3.0625
0.0023442656721280207,-0.03111484302727865,-0.03172666662315743,0.05900054822222116,0.00029236602770537544,0.01487238619167681,0.034739136876533995,0.02502438480098246,0.4518309577784517,-0.04640290880606603,-0.5713153267484408,0.009387242027299137,0.0767972226446833,0.006454749258557349,3.0703125
0.0018118595327877253,-0.024358752494358486,-0.024707429902370515,0.04604610090839774,0.00011559125632010956,0.011506326772724187,0.027186931333075183,0.019591352038597947,0.35306417796714623,-0.03617939615423304,-0.4464336524422567,0.007426548928234834,0.05996055510544503,0.005121214257127781,3.078125
0.0008563540873877067,-0.01222438320045064,-0.012079245401576174,0.022767016665225747,-0.00020287186268545658,0.005457735708140881,0.013597418684974884,0.009826897905755524,0.17550362653938853,-0.017803392553652663,-0.22182265935493153,0.0038992735603545444,0.029697864438518486,0.0027269810190720524,3.0859375
9.977354925597342e-05,-0.002633709962538004,-0.0020743709101907234,0.0043751625835543925,-0.0004551259762960801,0.0006784525230608571,0.002845978558941008,0.002101369479731871,0.03491633738402317,-0.00326650328314622,-0.0443726614850775,0.0011085438232179485,0.005760620887202166,0.0008341793788518181,3.09375
