AF3,AF4,F3,F4,F7,F8,FC5,FC6,O1,O2,P7,P8,T7,T8,time
-0.00304529076560397,0.037281142229069926,0.03954043931673835,-0.07218615305695229,-0.0015037972232149314,-0.01924448171401246,-0.04190883562367976,-0.03003420157521884,-0.5497957644641577,0.05727977030983729,0.6949506286532859,-0.010491434968839483,-0.09377219347354031,-0.007042957283876858,0.0
0.001668573918895795,-0.02255021646542057,-0.02280778334489402,0.04257181479121842,6.751446814961839e-05,0.010605643137647934,0.025184958492824126,0.01812761312186748,0.32646496777189205,-0.03340164923945631,-0.4129886595494852,0.006889898689003808,0.055384262730062965,0.0047696783461980054,0.0078125
0.01270614083807918,-0.16261547656656386,-0.16877827212097263,0.31123789486925874,0.003746718286124576,0.0804711718047133,0.1822208255966806,0.13088553049559445,2.3780738144854676,-0.24574820052208238,-3.0069666893132396,0.04758858377520986,0.4045539295963912,0.032420393067286966,0.015625
0.011072383877285756,-0.1418742010129563,-0.14715491418986884,0.27144649907979557,0.0032018652021286605,0.0701235732478367,0.15895104300473065,0.11419211214182487,2.0742315874275716,-0.21432723564296738,-2.6229068079134312,0.04155963300346717,0.3528211068434448,0.028323315184484634,0.0234375
0.002784384924155064,-0.03670333278071665,-0.03754357846545022,0.06970209939995119,0.0004389545310021937,0.017669434353886154,0.04102405230914816,0.029523861732019804,0.5336262022827313,-0.05489489139502609,-0.6750341280989808,0.010996243260473677,0.09063676811948673,0.007557746699990218,0.03125
-0.0001763063394728945,0.0008580792664476958,0.0016075761446112055,-0.0023574880826713277,-0.0005481058763322947,-0.0010613701514916665,-0.001092298018115491,-0.000719295930377445,-0.01668962077790886,0.0020741445784676306,0.020889722518107647,8.078722154726077e-05,-0.00296645180683375,0.00014149432914911414,0.0390625
-0.0029015377080817144,0.0354474356800436,0.03766528876380836,-0.06871557449369319,-0.0014567796532975498,-0.018320516311340573,-0.03987084303329672,-0.02856053951926074,-0.5233590921879163,0.05454552030224737,0.6615537818560517,-0.00996702084075242,-0.08917303087232993,-0.0066849356080946444,0.046875
-0.008425164974497544,0.10555740885080361,0.11072932236989821,-0.20319792836006922,-0.0032980666846001544,-0.053298516624143366,-0.11847099526759153,-0.08499186246447116,-1.5501462361960157,0.16083450090350312,1.9597522213595266,-0.030334116546866106,-0.2639474650146997,-0.02052369577641408,0.0546875
-0.009635210685449737,0.1209115537227547,0.1267220633171822,-0.23264389196745552,-0.0037011523575512574,-0.06095709753832773,-0.13568755865189372,-0.09735355933492104,-1.7750290382376959,0.18409772286266143,2.244008094473789,-0.034793136353635894,-0.30221540797742724,-0.023556117425844247,0.0625
-0.008556503142835634,0.10720711683796671,0.11245709703560253,-0.20636296448837532,-0.0033414835544055884,-0.05412486455257371,-0.1203370486272028,-0.08633046664317713,-1.5746507085262953,0.16333891708738363,1.9903867432352567,-0.03081335282177882,-0.2680631784396825,-0.02085375722552821,0.0703125
-0.009828461230185348,0.12334253700128875,0.1292973498344252,-0.23732042309136722,-0.003765567018218304,-0.06218040932294686,-0.13843278924430194,-0.09932014145057677,-1.811218159037696,0.18782195370180235,2.2892509133180576,-0.035503715053391414,-0.30832047655997574,-0.02404005868705045,0.078125
-0.003449222538251732,0.042397768628709254,0.04490849042697431,-0.0820330183151859,-0.0016387308798950335,-0.02179686197280599,-0.0476554951230544,-0.034147771781195345,-0.6250721198915217,0.06507005870201289,0.789884738293066,-0.011978150882434223,-0.10651640470333146,-0.008058457615771694,0.0859375
0.012305213441312206,-0.15752114076184226,-0.1635089674833132,0.3014777299155295,0.0036135028290690155,0.07794224953640783,0.17651877143362732,0.12679445808179754,2.3039609367072442,-0.23807337690816224,-2.9127698347715647,0.046120169740446006,0.39192436092621497,0.031410925726745254,0.09375
0.014558113158691917,-0.18611235404553328,-0.19331674407312507,0.3563172653788402,0.004364372426140632,0.09220395825706139,0.2085768309216078,0.14980195268490518,2.7226920662150516,-0.2814112784335368,-3.442168352416367,0.05442589383595283,0.4631875648810542,0.03705720469831543,0.1015625
-0.004137938085041459,0.05114117534479299,0.05400277206362835,-0.09880632437271013,-0.0018685967601759451,-0.02615924622730022,-0.05744661728329228,-0.04119857874751915,-0.7531526413419525,0.07833143618651611,0.9518346334536975,-0.014524184477505529,-0.12836470669247116,-0.009778991228574323,0.109375
-0.014088958524359686,0.17742630445838972,0.18565122400299938,-0.3410490731676059,-0.005185999751510024,-0.0891615269858723,-0.19905266084242274,-0.14285483598538554,-2.6031389458373364,0.26979261320728315,3.290596584466039,-0.051223692139532075,-0.4432208248752351,-0.03471059728948345,0.1171875
0.0017204360262834755,-0.02318421337207769,-0.0234579632825247,0.04378719619126483,8.44855482919642e-05,0.010913534593472314,0.02586181122294388,0.018652645957370758,0.33585700362868,-0.03440260887239205,-0.4247343456832657,0.0070781425535999766,0.056975585546804326,0.004890649980206162,0.125
0.0171223394053234,-0.21862387463343802,-0.22719863793179995,0.41870693810370546,0.005219247678433823,0.10841330830706275,0.24499571903092215,0.17599523779878867,3.199209815460549,-0.3307542835227886,-4.044519992689668,0.06388201163206053,0.5442905164405812,0.04347407632441012,0.1328125
0.009922585843206419,-0.1272612037187901,-0.13199248641795405,0.24346317369462092,0.002819425335448206,0.06284920560192425,0.1425844752105716,0.10244871866476743,1.8610566333254297,-0.19224373266582956,-2.352924500611248,0.03733724015139085,0.3165356933887022,0.02544096040753813,0.140625
-0.003684253494371628,0.04538650173467561,0.047985533134752914,-0.08773468457524626,-0.001716750050152837,-0.023266752205500358,-0.05098489022535241,-0.03654789911251277,-0.668424127892735,0.06955263123306299,0.8447018052791107,-0.012844059287513178,-0.11391719529088769,-0.008643368083260458,0.1484375
-0.00462086872689581,0.057244995677535986,0.06041475124312189,-0.11053385250452849,-0.0020298484456388443,-0.029192266953897598,-0.06432216592733275,-0.04611669541937674,-0.8430756707865048,0.08760823875632064,1.0654434649756412,-0.01631080046553626,-0.1435367211038186,-0.010991285514902544,0.15625
0.00013171534453902597,-0.0030708686340970813,-0.002410617476344052,0.005130299159526452,-0.0004462567008531149,0.0008782278011028996,0.003269134858281851,0.0024261207120848463,0.03991419150489706,-0.003788801387789096,-0.05082807600195944,0.0012069723375790354,0.006787772974249754,0.0009119762130584058,0.1640625
-2.3961923300856828e-05,-0.0010794621817969718,-0.00036934844550217186,0.0013300505680079947,-0.0004978300489940579,-0.0001156860056332205,0.001060318233324859,0.0008330595051757191,0.01118801411439389,-0.0007985232546216784,-0.014575277000294855,0.0006404186492507044,0.0018243683202629978,0.0005226388269659396,0.171875
-0.0026478894895483377,0.03223404227863989,0.03429270451596875,-0.0625367517071619,-0.001371700078957187,-0.016722856903986297,-0.03624885798935501,-0.025968359539804316,-0.4760548893889033,0.04964853440380102,0.6013447831659104,-0.009021815339062286,-0.08119395856785279,-0.006049594949314255,0.1796875
-0.0049724228074174105,0.06173815939002913,0.06503233756828353,-0.11913438575640456,-0.0021464573199706572,-0.03144345055653747,-0.06933127862119363,-0.049717948634291194,-0.9081292931781814,0.09436951035065855,1.147747708888334,-0.017591584254094936,-0.15474573917526502,-0.011875126376155318,0.1875
-0.007068101443995492,0.08833464131248205,0.09277409126680139,-0.17017028354212863,-0.0028455244838408683,-0.04472216094352353,-0.09917046963455475,-0.07113659198355574,-1.297989877284868,0.13472258587221922,1.6409265999874578,-0.02532925395676739,-0.22107951215590177,-0.017126131025219756,0.1953125
-0.005448905587474412,0.06778816430659287,0.07135238417111398,-0.13074162929537694,-0.0023057500789967684,-0.034467175032799585,-0.07611407928428424,-0.05459646733590855,-0.9969021820580843,0.10357508685489594,1.2603923645923634,-0.019363336422717103,-0.16984558147461754,-0.013065079801314938,0.203125
-0.0007467334435801895,0.008111723921437218,0.009127801186100097,-0.016237600119616124,-0.0007376588972810203,-0.004680279695137225,-0.009173708540509003,-0.006548631695001917,-0.12240027511479845,0.013069373348907459,0.15466784471866982,-0.0020173378367963173,-0.021016443383212517,-0.0012809880290652435,0.2109375
0.0008514425642098871,-0.012178901582044625,-0.012017009322778988,0.022685221012857762,-0.00020455313466825182,0.005446437592325737,0.013564516958613949,0.009788780829376379,0.17480779495936039,-0.017711359226375976,-0.22120799134977245,0.0038830320706052324,0.029593941644220162,0.002720050234821665,0.21875
0.0019540165110920773,-0.02617049329277144,-0.026578493476275816,0.049507768566415304,0.00016277936642608118,0.01241794112920021,0.029219958562769602,0.021052339694663746,0.37956016742122917,-0.03892364437121885,-0.4800387482884325,0.007947881375050545,0.06446230628970163,0.005477220816643751,0.2265625
0.008826929849017328,-0.11337510908349907,-0.11746616053426717,0.2167868436726057,0.0024535045412404964,0.055915013337062065,0.12698876904509304,0.09125724623604127,1.6569865749710089,-0.17113618087565635,-2.094990025763737,0.03328710979751934,0.28186612270521505,0.022694904344311376,0.234375
0.012363240427125355,-0.15824304410328985,-0.16423036222853188,0.3028595433294861,0.003632039002346887,0.0782959958120224,0.1773015595043061,0.1273777302935393,2.3142199379277457,-0.239153502199576,-2.926017802699904,0.046324346436223636,0.39372614722856475,0.03155619293348811,0.2421875
0.0017086362197731666,-0.02304588732264703,-0.023301407172849647,0.043511321970214276,8.020105999029164e-05,0.010849028936383997,0.025709431115354037,0.018532710874342627,0.3335254930588831,-0.03415798932282634,-0.42209106244321615,0.007035587247655617,0.056643075338683735,0.0048642054090764116,0.25
-0.010331130953088755,0.12972525470470192,0.13592858853193848,-0.24954303273309916,-0.003932997094088235,-0.06536084507874035,-0.14558178963891547,-0.10445976151729638,-1.9044200550614878,0.19746465936999671,2.407265262697037,-0.03735771789351674,-0.3242454809675971,-0.025298646724801074,0.2578125
-0.006371224328986909,0.07947647133669657,0.08352935513326196,-0.15314362210816979,-0.0026125924686737894,-0.04028828748274821,-0.08922856803149254,-0.06400497300485872,-1.1680513652142344,0.12125912123439567,1.4765367111306449,-0.022752229309436777,-0.19894866159966454,-0.015378038941069495,0.265625
0.004079598551350108,-0.05313297609265091,-0.05468856524849954,0.10122771409215957,0.0008710859972784831,0.02586408411519001,0.059455191286117946,0.042758495589288736,0.7745996120379965,-0.07980212340720551,-0.9793795350426604,0.015782960487696,0.1316646680163406,0.010802273317915119,0.2734375
0.003382206089701732,-0.04428267552802911,-0.04542794051648627,0.08422517266987327,0.0006382225148997542,0.021441605781879123,0.04951304216552796,0.035637419812680364,0.6446414033810213,-0.06636513991086558,-0.8153217425292504,0.013205775725884744,0.10955504703530014,0.009052572287847878,0.28125
-0.002305451899602962,0.027885311633281968,0.029805693817531217,-0.05421807869003379,-0.0012577585242004223,-0.014561307653385267,-0.03140698567077053,-0.02246370133320488,-0.4127096867693165,0.0430633974673355,0.5212274333146995,-0.007768224667213936,-0.0703896273107837,-0.005196150362591447,0.2890625
-9.757611342610083e-05,-0.00013242132497079788,0.0005711532122562775,-0.0004522513764224516,-0.0005215072658683909,-0.000579070566337672,2.5171942358960275e-05,8.54116226949063e-05,-0.002074483997585898,0.0005812929605965362,0.0022944654624729123,0.00037714421047007745,-0.0004911303435820406,0.0003386401801119647,0.296875
0.002388892420484927,-0.031679257104830424,-0.03233519434234599,0.0600765008590372,0.00030727419121658604,0.015159302534020213,0.03540960651471736,0.02547605674167287,0.4602101691323563,-0.04723757713122172,-0.5818013668470802,0.009546910414624342,0.07819887720342356,0.006571619784660054,0.3046875
-0.00486479039423699,0.0603661189937911,0.06361487798307197,-0.11649798351755739,-0.002111014971712681,-0.030761216723535198,-0.06779106537532054,-0.048627827873538906,-0.8882852822203352,0.09233962508217533,1.12296321286829,-0.017204106707712427,-0.15131578537277457,-0.011598262563599067,0.3125
-0.011097572536735418,0.1394494059862669,0.14606143968002328,-0.2682101184166031,-0.004188730746326731,-0.07021057064556718,-0.15646084304629967,-0.11229354800928533,-2.046916274402388,0.21224085495359316,2.587405238137093,-0.04018996898357667,-0.34853276194304944,-0.027213045580013227,0.3203125
-0.00415053260312727,0.05129303031636207,0.05417831983658465,-0.09910580566297805,-0.0018728820651060909,-0.026228495565846912,-0.05762816415733277,-0.041320715554791866,-0.7554825325457002,0.07855521420906324,0.9546899600088145,-0.014573797732439712,-0.12873758543250352,-0.009813098470894115,0.328125
0.007299851743125751,-0.09399846851480308,-0.09726630965473182,0.17960165889090662,0.0019440405124574467,0.046251480746245514,0.10526045377325638,0.07565080123716805,1.3730281267594344,-0.1417487234336313,-1.735918800838001,0.027649883166978816,0.2335492583629337,0.0188680515706414,0.3359375
0.0095540325412104,-0.12259744279565858,-0.12708980042296453,0.23447078233213436,0.0026956683215178297,0.060517704698973454,0.13733515589528517,0.09867843607705865,1.7921541060910755,-0.1851101740827071,-2.265648584738796,0.03596631305126991,0.30488245802032093,0.024515955445388937,0.34375
0.003796518091812213,-0.04954232911113107,-0.05095983731025134,0.09434812487751176,0.0007768726544403034,0.024076858058915997,0.05545231479218055,0.0398657645670999,0.7220933010535118,-0.0743470436571197,-0.9130972490182416,0.01474081902579994,0.1227311884501826,0.010096960244232884,0.3515625
-0.0019037699874133508,0.02278563021147082,0.024434385248433728,-0.04439248566149512,-0.001123193671529928,-0.012003013284065847,-0.025641519486227636,-0.01836240120006688,-0.33752763991028983,0.03530899146967238,0.4262698208819912,-0.0062783620427046185,-0.057618945982498906,-0.004182586857946599,0.359375
-0.004340101432485768,0.05370366611976604,0.05668545323214379,-0.10371517419106314,-0.0019356454332430128,-0.027431294686079986,-0.06033766899733575,-0.04324915559453501,-0.7906405979137423,0.08218507961123746,0.9991708197672645,-0.015264196577840897,-0.13470259769858225,-0.010290872944447024,0.3671875
-0.002471841268539005,0.030002301836596364,0.03198913034244142,-0.05825635061284251,-0.001312961936022283,-0.01561301916926562,-0.0337803240926489,-0.024162989632502564,-0.4434522210695964,0.04625216772081929,0.560400838261173,-0.008372869212490851,-0.07558985771805841,-0.0056137438805077995,0.375
0.003247554395366017,-0.04257201442501081,-0.04367142376725389,0.08097070934071629,0.0005938143180791252,0.020589722548662964,0.047601823681443424,0.0342625720164151,0.6198329587088255,-0.06378474580975069,-0.7838085588101028,0.012720942106333292,0.10536025150407217,0.008716051120561731,0.3828125
0.007057277165709086,-0.09091758334789074,-0.09407050630139004,0.17371743818529253,0.0018638322538998132,0.04470828202740878,0.10181609821169268,0.07317811155808285,1.328080600075122,-0.1370883101130789,-1.679244800136885,0.02676759705750555,0.22588005452804671,0.01826211610480559,0.390625
0.0043320252727875146,-0.056337386823377876,-0.05801839161028351,0.10737617481574245,0.0009551439536255048,0.027459446294155795,0.06304197121518294,0.045336231490735186,0.8214121864851176,-0.08465389415161115,-1.038721791868724,0.016712762992218383,0.1396461269737511,0.011435128292328345,0.3984375
-0.0008845853982963575,0.00985924356299248,0.010987218057492124,-0.019615850101254693,-0.0007840643092604145,-0.005563241078318921,-0.011176566971281002,-0.007957186949716775,-0.14839639371985625,0.015727932353397502,0.18736644225829613,-0.002528392820668205,-0.025409001902207937,-0.0016322956084237753,0.40625
-0.003502816783352761,0.043084460908655156,0.045625012165271234,-0.0833540978057249,-0.0016571141998586076,-0.022141986009265823,-0.048428726435281455,-0.03470997815794804,-0.6352129389849009,0.06612104498750043,0.8028875148849166,-0.012188237068508818,-0.10826697111163677,-0.00818969293604089,0.4140625
-0.005943099016459507,0.07404856622966231,0.07791017363672248,-0.1427531180705163,-0.0024707859005965727,-0.037591256153796444,-0.08315416524110772,-0.05964214660421158,-1.088928298353613,0.11307455078635074,1.3765278809626842,-0.021191296644458877,-0.18548728495345773,-0.014302838522466391,0.421875
-0.010747322947254964,0.13500635931026664,0.14144607084152994,-0.25968572008149143,-0.004072133783548154,-0.06799437575195734,-0.1514957940054147,-0.10871578552406737,-1.981898171630943,0.20549418030881744,2.505355534592298,-0.03890593362749914,-0.33746267008424075,-0.026337717512285693,0.4296875
-0.012607864452995086,0.15861223261507343,0.16603257649055678,-0.3049642946651889,-0.004692028284463202,-0.0797622275236295,-0.17794241777925246,-0.12771821354709717,-2.327582055001951,0.24128434664718193,2.942236223158499,-0.04576125746436615,-0.39629113139894134,-0.03099661001914785,0.4375
-0.0060310152187094965,0.07515674908534324,0.07903793922029473,-0.1448766808518891,-0.0024996434359804164,-0.03813101519522749,-0.0843726364206578,-0.060533533119817934,-1.1050202677968655,0.11475009995937789,1.3966053574991415,-0.02150510304103942,-0.1882016514387534,-0.014521533547191668,0.4453125
0.005660458551052423,-0.07320176459850236,-0.07558713048597987,0.13970267685596371,0.0013975498458577745,0.03587341491312908,0.08194085801525133,0.05890364802571475,1.0682184536048154,-0.11020095585195078,-1.350810970011839,0.021610522074705065,0.18169285815547973,0.014761790332410086,0.453125
0.014704170433330228,-0.18796516584041797,-0.1952076920024433,0.35984244244878044,0.004412567017314484,0.09312502161006343,0.2106105138111252,0.15130045124037808,2.749481261648834,-0.28421668335117073,-3.4762817720541563,0.05496562604795508,0.46783553734906186,0.03741461622399047,0.4609375
0.016439471904999156,-0.2099823217004567,-0.21818103810040623,0.40208798435171794,0.004991585910508859,0.10411015383218311,0.23532661243348577,0.16903134767353614,3.072267343547663,-0.3175965764703195,-3.884318574982623,0.06136987310285802,0.5227494915218734,0.041765204751640896,0.46875
0.010175390166670623,-0.13048047580731809,-0.13533330680332994,0.24960352976252148,0.0029035373602319973,0.06444549242298754,0.14620069752080384,0.10502991218799688,1.9078225349089188,-0.19705955424351854,-2.412094317591702,0.03826979315047388,0.32454524845271066,0.02607543715996488,0.4765625
-0.0005794549872888053,0.0060031778223649645,0.006928218386265285,-0.012192805239949613,-0.0006819093202501456,-0.0036404549837868476,-0.0068473399374891514,-0.00484530583473633,-0.09147298819258846,0.009845034255646423,0.11554305957253302,-0.0013923258167996154,-0.015736196817518686,-0.0008696678072712225,0.484375
-0.00782837847131463,0.09798333145237764,0.1028062870061715,-0.18863037813714076,-0.0030983868303872714,-0.04951541082904998,-0.1099838199644931,-0.07889131141586661,-1.4388427438249491,0.14927912985937367,1.8189248617241989,-0.028123414556555475,-0.24506165760084112,-0.019030724735693026,0.4921875
-0.006358938505913122,0.07932893543841461,0.083369459228621,-0.1528474820013905,-0.002608353422707359,-0.04020773718376422,-0.08905150808355546,-0.06387283613843614,-1.165612724015873,0.12101613531420148,1.4735241112366622,-0.02270672014622176,-0.19856312197762052,-0.015345991564405607,0.5
-0.0013109964934672502,0.015274917154364328,0.016627953538323616,-0.029980748598353438,-0.000925773597162639,-0.008269780740564602,-0.017238489221677502,-0.012309746041244497,-0.2275492122127975,0.02393594915550928,0.2876428088239361,-0.00409942718947804,-0.03889890167293543,-0.0026985190967815324,0.5078125
-0.0012264807942539025,0.014203163247306066,0.015538188418384795,-0.02793972580730514,-0.0008981125093081678,-0.007745531209400055,-0.01606653848159052,-0.011453506747339668,-0.2121959590996592,0.022318285706351592,0.2681467332597395,-0.003794875229170586,-0.03627178817232586,-0.002490398451504728,0.515625
-0.0052864893661943605,0.0657100058241505,0.06923359024357181,-0.1267656582346496,-0.0022518960948284417,-0.03342770557161725,-0.07382061761800358,-0.052926311941416816,-0.966932812172232,0.10040949617090456,1.2220684864139588,-0.018769275736375685,-0.1647112003033348,-0.012662462148221759,0.5234375
-0.006132057982076917,0.07642548253303838,0.08040246155247605,-0.14733733804085203,-0.002533886980466341,-0.03875787678195554,-0.08580963230815564,-0.061558283736703495,-1.1240190497461922,0.11668399219751803,1.4204391604129178,-0.021889226678746883,-0.19141867757455971,-0.01477573281137934,0.53125
-0.0029025167250950686,0.03544400459582231,0.03768991974607586,-0.06872337727553633,-0.0014573263304871393,-0.018317227377957313,-0.03985237960853515,-0.028568037895802874,-0.5237368750217779,0.0545799966322155,0.6614957012270841,-0.00998029647385146,-0.08922172129531128,-0.006681718282192532,0.5390625
-0.0008497387016553151,0.009405276551022815,0.010533636129347674,-0.018759168829416986,-0.0007728340465554991,-0.005337378061736916,-0.01066860871805627,-0.00760380986739138,-0.14209730628994174,0.01508679951449237,0.1791950582386819,-0.002403206473140397,-0.024276805081922835,-0.0015416328927066755,0.546875
-0.0001499372381515993,0.0005343976562932856,0.00124645052979402,-0.0017267306913677676,-0.0005391338816669087,-0.0009106827095144201,-0.0007177264011141792,-0.00045712405395833666,-0.011694940795814322,0.0015964373485140523,0.014638056176500689,0.00018895476398417656,-0.0021300468557221134,0.000208611241673211,0.5546875
0.0029785303893608795,-0.03915761142544582,-0.04014654424070924,0.07441847160197895,0.0005040595368960529,0.01889349062032213,0.043797475917712624,0.031505013715649254,0.5700271619558023,-0.05860166257817111,-0.7206667277958261,0.01173003626629713,0.09685263886452826,0.008045611858108823,0.5625
0.005956455967457766,-0.07694234349881283,-0.07950923070265299,0.14689582313689936,0.0014968570700897702,0.03773522642353031,0.08614947612450803,0.06193036933256313,1.1234008574288985,-0.11588812992347285,-1.4204444554906812,0.022708501469111336,0.19105280085146203,0.01550374007083977,0.5703125
0.0032973617023821598,-0.043201838388989465,-0.044324141573522206,0.0821717484868117,0.000610593027631244,0.020895435670661718,0.04829998989717043,0.03476789774950129,0.6289874126835387,-0.06474210677085902,-0.7955343905404184,0.012902466507928938,0.10690854863879796,0.008838379911882108,0.578125
-0.0015327825733568463,0.018086316601541766,0.01953653352999072,-0.03538439324174534,-0.0009994033124932835,-0.00967309560086079,-0.020406996318799813,-0.01457660991623694,-0.26864862942015444,0.02816425168073238,0.3395258367608511,-0.00490582584555307,-0.04590114422526479,-0.0032613195643453295,0.5859375
-0.0005325064725487222,0.005392794058082638,0.006285384969257564,-0.01102162960359631,-0.0006661429525329441,-0.003329170514524763,-0.006151268260473297,-0.004360531268400122,-0.08250477786976519,0.008921214813239353,0.10448176624306782,-0.0012182148481669926,-0.014239644188108046,-0.0007499317288850868,0.59375
0.004642200214766182,-0.06027150732311821,-0.06214191293979792,0.11493873635782759,0.0010585460029460174,0.029430500254752925,0.06747544905457584,0.048503591816064034,0.8792843878987564,-0.09062251295400942,-1.1116360061445447,0.017858288344992753,0.14947215636566888,0.01221640331864123,0.6015625
0.005452777601719179,-0.07055807276296121,-0.07283834556707741,0.13465631590893623,0.0013287073819747096,0.0345559377217554,0.07899705014081769,0.056786969750276146,1.0297361957729472,-0.10621689316147812,-1.3022830107333296,0.02084311084110372,0.17508632049312958,0.01424420255161532,0.609375
0.0010018838990898257,-0.014075641998924504,-0.01395936491067468,0.026296101412037982,-0.00015506958124433484,0.006375609535482758,0.0156611479124137,0.011316005117742505,0.2022609900261115,-0.020582930425614508,-0.2562343926727064,0.004427106960556826,0.03424121386451256,0.003091326098523928,0.6171875
-0.0022403367895870913,0.027067690332223997,0.02892905932110453,-0.05263203670969662,-0.0012362866718694692,-0.014146331321203834,-0.030473625550270354,-0.021810127189884124,-0.40052212060281095,0.0418160315262888,0.5060560153560127,-0.00753261786407901,-0.06832308464000528,-0.0050293322462445994,0.625
-0.0025062085773942537,0.030429266302112675,0.0324495680895867,-0.0590865679990265,-0.0013251598398929868,-0.015819801124475678,-0.03424755610645668,-0.024523129444166403,-0.45002897767033057,0.04694584670083345,0.568652216450149,-0.00851349775591977,-0.07668344920334898,-0.005692853434756134,0.6328125
-0.003305572411572513,0.040556429367163,0.04301555092338814,-0.07851988550276388,-0.0015912489333690307,-0.020872815131069863,-0.04560181597959377,-0.03268014907508584,-0.5985457673317788,0.0623129287810181,0.7562563895710067,-0.011457108327274569,-0.10193820720781721,-0.007695761210349109,0.640625
-0.00459447236313664,0.0569151301114814,0.06005460926380081,-0.10989524571590904,-0.002020543844095846,-0.029036822162494775,-0.06394158391784946,-0.045846824771298714,-0.8379696252671955,0.08709874195920293,1.0591164216347149,-0.01620774151461275,-0.14272809612153373,-0.01092635008748165,0.6484375
-0.0034505408726072675,0.042419379831646724,0.04492169564573762,-0.08207423990336571,-0.00163943039181709,-0.021804171412451622,-0.047689402593843015,-0.03417089063808432,-0.625252079642309,0.0650995903629477,0.7905693916160659,-0.011989958932919688,-0.10655383756659678,-0.00806066153995504,0.65625
-0.0014101794929996944,0.01653797764860653,0.01792503664617595,-0.03241935029487324,-0.0009594537124765578,-0.008885587664527295,-0.01866123224294309,-0.013331549255159125,-0.24596190836969342,0.02584927959932769,0.3110354891160869,-0.004463483472673203,-0.041988406874629354,-0.00294795598542174,0.6640625
-0.002240544173026914,0.027068932544506756,0.02889435204403067,-0.05262274704975936,-0.00123587907852721,-0.014135251418744657,-0.030447649004664925,-0.021807869633225514,-0.4003022366750093,0.04181155574417662,0.50574657410687,-0.007522148267811605,-0.06825980892365822,-0.005027383296945907,0.671875
-0.003945482339390155,0.04870340241882051,0.05145272905855263,-0.09412370937168202,-0.0018039095228127126,-0.024936856252459047,-0.05469854707086192,-0.039222795665606165,-0.7173059306180376,0.07461181669855761,0.9063440920202576,-0.013811896248032569,-0.12225183428610811,-0.009298833934228744,0.6796875
-0.0012801442869906697,0.014889851213855516,0.01622214925306042,-0.02925584511219207,-0.0009156360722524078,-0.008083994565360554,-0.016807718209319866,-0.012002093737495655,-0.22198534534630632,0.023350323014693267,0.2803924508179438,-0.003986575507839203,-0.03797200899371795,-0.00262311814153686,0.6875
0.004197749067278348,-0.05462534336271202,-0.05623047220504169,0.10409475167132805,0.0009102487528491201,0.02658833515859299,0.06111016022496468,0.04395553823800656,0.7963159835027094,-0.0820436938281358,-1.0067911660751643,0.016219213303611035,0.13535872758246037,0.011097652792766758,0.6953125
0.0052817208642485175,-0.06839564037362883,-0.07058739375171498,0.13050836220466372,0.001271781989080937,0.03346461097349635,0.07654616168228753,0.0550363488667619,0.9979703877074433,-0.10293143849342161,-1.2618804774654053,0.020224692556982962,0.16969865030537745,0.013811724570844806,0.703125
0.0021192527159456485,-0.02826954199823879,-0.02876313294366231,0.05353385279244894,0.00021756894805083444,0.0134555510248142,0.03156445422014696,0.022733133365485457,0.41011778939161114,-0.04210227965721802,-0.5189391842442206,0.00856096285257747,0.06964074773450882,0.005890197309067622,0.7109375
0.003969058220869631,-0.05173423621665825,-0.05321685563715096,0.09854023371826147,0.0008339073558616114,0.025163796118022774,0.057880936806116605,0.041625780308856955,0.7538713894247503,-0.07767225527190193,-0.953602439861969,0.015373367335693769,0.12813592713313499,0.01052663282357475,0.71875
0.01218844447694987,-0.15603568197342943,-0.16193289047707432,0.2986104538263141,0.0035739302012468828,0.07719814143128254,0.1748331041554138,0.12559356706417948,2.281841766091078,-0.23580150245609113,-2.8852182183126867,0.04567888449269584,0.38819522077999796,0.031118938636181027,0.7265625
0.01293173687869791,-0.16547973098593907,-0.17177756130804328,0.3167241585533811,0.003822109786643825,0.08191489540172095,0.18542555369586342,0.1331954847362932,2.4202090735896653,-0.25012159443132,-3.059931924505028,0.04842066091356993,0.41175665294791947,0.03298073600660098,0.734375
-0.0020301896801522465,0.02438057849975909,0.02612794006845581,-0.04747606330133131,-0.0011656483488722668,-0.012797198591897378,-0.0274603226601369,-0.01964987334874555,-0.36113477236728664,0.037740677053687735,0.4565551274372472,-0.006754155494810363,-0.06159643097419294,-0.004502570482867408,0.7421875
-0.018299634685737386,0.23084811223789983,0.24134617322225643,-0.44353632456722125,-0.006589822018361729,-0.1157998682303902,-0.25896983421537867,-0.1858631194417358,-3.385779065518274,0.35079618904634996,4.280462471677124,-0.06675216096164782,-0.5763496192045915,-0.04526128456524004,0.75
-0.01811120130200298,0.22846733307365477,0.2388528561601225,-0.4389694386603374,-0.006527156807106694,-0.11461309767627241,-0.25628822428440656,-0.18394403389578293,-3.3508011570088607,0.3471938484613326,4.2361418839050184,-0.06605591579497344,-0.5703945626243648,-0.04478848397849546,0.7578125
-0.0064044108172290415,0.0799135777292014,0.0839747778993936,-0.15399629827711817,-0.002624001892434004,-0.04050121109288114,-0.0896914856339644,-0.06434857723921461,-1.1743122342711567,0.12194396109599034,1.4844809729693738,-0.022880086117044247,-0.20001202524452477,-0.015458627186549403,0.765625
0.00046536206859895663,-0.007258463054515211,-0.006904548772645981,0.013227765369473456,-0.00033352695479297727,0.0029821732826598147,0.0080576810829754,0.005832567468337815,0.1028254656720541,-0.0102392802770126,-0.13015873971191647,0.002458497960233708,0.01731294100548411,0.001751536890250199,0.7734375
0.0014127731673428256,-0.019279594255865184,-0.019404161458277152,0.03628093045174888,-1.7996463629928433e-05,0.008965200456075666,0.021499406778391687,0.015510639957826594,0.27862811854154423,-0.028455278722732902,-0.35254073477765663,0.005954133027663422,0.04726746730529301,0.004121455745403261,0.78125
0.00508818113112469,-0.06593143443326492,-0.0679939473431035,0.12577045617553512,0.0012070270304035532,0.03223211097906888,0.07377363830509738,0.05306112440402858,0.9616615790932563,-0.09917393275330266,-1.2161626624732467,0.0195053780276286,0.16357590534027408,0.013327226090821976,0.7890625
0.008442262253354357,-0.10850960739280763,-0.11238233830507063,0.20746266616305722,0.0023254375782031256,0.05348497657161453,0.12153132878228684,0.08732914274146727,1.585429030776086,-0.1637389221012465,-2.004679776647704,0.03186891038719147,0.26972898966604764,0.02173390334683374,0.796875
0.0038553275929064292,-0.050304900349502364,-0.05174034122804598,0.09581916360625344,0.0007964580899909509,0.02446182060921067,0.056304838076905,0.04046777231113805,0.733018436449093,-0.07550390382108041,-0.9269447765074845,0.014949469166957035,0.1245927233872434,0.010247141352745216,0.8046875
-0.002159401739706136,0.026027510634784562,0.027832819734320214,-0.050625135552984646,-0.0012090363180274565,-0.01362045918040754,-0.029287629676134134,-0.020979958564459986,-0.3852432767261366,0.040236362172408814,0.48668342618744487,-0.0072319207146773045,-0.06574506000851804,-0.004822942330296357,0.8125
0.00010947208024290019,-0.0027618561823571377,-0.0021463735918238152,0.0045799006278823525,-0.0004530025614340625,0.0007314406321715636,0.002960399117092068,0.0022000634247229802,0.036254455625808195,-0.0034015897112743307,-0.046349060171246036,0.0011360716187708445,0.00602441892409307,0.0008561767572600036,0.8203125
0.004478775073006813,-0.05820856563800295,-0.05994359390411966,0.11094607887089881,0.0010037250629476907,0.028387928870199742,0.0651219082855428,0.04683440050730134,0.848504457658297,-0.08747250017542173,-1.0731492563109515,0.017249878500620666,0.1442685820024369,0.011801460653582991,0.828125
0.0016595752140730366,-0.02243028591399509,-0.02267562406289241,0.04232761380179166,6.408257907376836e-05,0.010539603311378388,0.02502049792464523,0.01802717645405002,0.32456681262339854,-0.03323066855760746,-0.4105629368526868,0.006855366621269797,0.05507271699270295,0.004740975111464891,0.8359375
-0.001948253963581166,0.023356299271472206,0.025045495592208408,-0.04550540735212593,-0.0011386968584413892,-0.012300825093255684,-0.0263108661665588,-0.018829045819324108,-0.34609484049088646,0.03619855444562092,0.4373595576428007,-0.006445967530849093,-0.059060532451993976,-0.004297303828003637,0.84375
0.001437744243274014,-0.019611831503861792,-0.019733213906121684,0.03691113076888949,-9.767530348526134e-06,0.009140015267255323,0.021868667207473717,0.015773506159145367,0.2834117817681228,-0.028950189546142056,-0.358546215594248,0.006042682805892739,0.04810099857376398,0.004183834336480678,0.8515625
0.0031507782835619234,-0.041348894809735845,-0.04240239707648142,0.07861557310426111,0.0005617541735933761,0.019989773193055855,0.04624907403425756,0.03327938964121255,0.6020475212530916,-0.06193438301334996,-0.7612605011235832,0.01235895240705835,0.1023043804952891,0.008474778339852813,0.859375
-0.0052876592264118295,0.0657419500315551,0.06919984642025276,-0.12679913492972905,-0.0022511769955283127,-0.03343810577098259,-0.07382677231093061,-0.052936423932714166,-0.9665886484880869,0.10041163921998904,1.2221331168359142,-0.01875944900303792,-0.16470915218479898,-0.012665805487182501,0.8671875
-0.013424577078744804,0.16900720336606312,0.17683142182774106,-0.3248871820234293,-0.0049640758083990474,-0.0849612794614734,-0.18962097058435526,-0.13607262485737706,-2.4793894471973927,0.2569922840300601,3.1347188009569673,-0.048761665353286784,-0.4221591648017149,-0.03305083337225461,0.875
-0.008574775072013636,0.1074604445473601,0.11269103355386001,-0.20683382372110407,-0.0033475993419752356,-0.05425422987726051,-0.12060443974253005,-0.08652343754573519,-1.5779058237643124,0.16370948394505955,1.994753746390556,-0.03087444909041389,-0.26867768172269213,-0.02089847265373112,0.8828125
0.0031294962903275366,-0.04108292101286029,-0.04211850058938428,0.07810168094998265,0.000554142228769127,0.019858877115605772,0.04596145455495725,0.033056760778477065,0.5979472044848815,-0.061485398308508896,-0.7562717109646572,0.012280536437935514,0.10166134235354955,0.008427255024303219,0.890625
0.00775347534910527,-0.09977620604051007,-0.10326577495442708,0.1906846587004031,0.002095365789614111,0.04913849820993753,0.11175597956629722,0.08029588210591004,1.4574101378197888,-0.1504670957274351,-1.8428107403762788,0.029320138787429822,0.2479365916009245,0.020011945214298932,0.8984375
0.0034614237022913196,-0.04530760757335861,-0.04647225926149453,0.08619720269400663,0.0006641326318025709,0.02195757964171218,0.05066117550874107,0.036441072599282344,0.6592169649423237,-0.06788245496856206,-0.8337303533719063,0.013485849434424971,0.11209623955351392,0.009257423678401582,0.90625
-0.0009496144048613003,0.010681292948604303,0.011872123559839373,-0.021198922881302436,-0.0008062971967556433,-0.005973573048093804,-0.012102796446760359,-0.008624796199944492,-0.16083290298312838,0.01699720499062362,0.20273617464380886,-0.0027776730741994266,-0.027483590881914693,-0.0017930429440469766,0.9140625
0.0013534314898065098,-0.01854156536288569,-0.01862090073997937,0.03486970041903193,-3.787799003382825e-05,0.0086119609050214,0.020690762321732108,0.014908366542968694,0.26765328083421,-0.02733387574381323,-0.3391210695628808,0.005723791049871918,0.04540172680313227,0.0039775335348122805,0.921875
0.008072498477298124,-0.10381239578859722,-0.10751903268970822,0.19844631475596333,0.0022026097847731895,0.05115058558300089,0.11629426816952121,0.08355506611412185,1.5170013200568968,-0.15664459990363527,-1.918364371863446,0.030510293080480415,0.258015192217412,0.02080695823743075,0.9296875
0.009292273932015042,-0.11928745189111806,-0.12364575297473089,0.22812269084805076,0.002609216559496828,0.058862320940906245,0.13362177163527478,0.09601451570108671,1.7436355482995027,-0.18011320230580194,-2.204627542082705,0.0350114517757927,0.29660394650202376,0.023857672727362424,0.9375
0.00018617079281363848,-0.003720618347677234,-0.0031829766346025724,0.006429905729953887,-0.00042679378654187587,0.0012069412986557748,0.004044688385883868,0.00298180369386644,0.05063777457926275,-0.004881593002974988,-0.06423779841837332,0.0014273409104688893,0.008467557691496768,0.0010453315464215808,0.9453125
-0.008990613777874546,0.11272919373769703,0.11818743583309324,-0.2169336534429429,-0.0034861570860915715,-0.05688038262187435,-0.1265082697207802,-0.09077123987954985,-1.6551351048522287,0.17168486299423877,2.0924086133569153,-0.03241517173796214,-0.28186895881833074,-0.02193901470520289,0.953125
-0.007745135746746686,0.09691109618286696,0.10168894349091426,-0.18656720446181457,-0.003070866116600068,-0.04898632116249836,-0.10877642718350311,-0.07804884143932202,-1.4232956297840862,0.14770069193630495,1.7996578629753028,-0.027816834074536747,-0.24241603053661184,-0.01881588568430347,0.9609375
-0.003694351182732102,0.045508683469397716,0.0481216760842835,-0.08797372353179346,-0.0017205507888880301,-0.02334960401316323,-0.05115833205134674,-0.03666631622202685,-0.6703897591618359,0.06977302631693658,0.8478570189683872,-0.012878386286853385,-0.11425373706258653,-0.008670492124728498,0.96875
-0.006978138272107788,0.08719549144617887,0.09160818758021272,-0.16797951813730344,-0.002815598633919105,-0.044153808416150686,-0.09790640805321613,-0.07021088814738503,-1.2813499781890252,0.1329941106429302,1.6198429793294764,-0.024999575661044715,-0.21822523666657562,-0.01690140250015903,0.9765625
-0.00848471646982517,0.10631732329291817,0.11156088228365683,-0.20468038469868297,-0.003318013500086537,-0.05369302009708882,-0.1193454332113133,-0.08559776637638031,-1.5616398691924769,0.16198578286891693,1.9738626083279072,-0.03056345648238177,-0.265940491449709,-0.020677413519765556,0.984375
0.001643621334509131,-0.0222253342493584,-0.022443375486593566,0.04191816351539355,5.872555334870719e-05,0.010440575991504053,0.024790348364461298,0.01787460617730769,0.32152197550721123,-0.032926447039187935,-0.40688801837607447,0.006793717138947332,0.054553054966240175,0.004698389171234449,0.9921875
0.010841213794422296,-0.13895388744213394,-0.14414163565448718,0.2658562432155448,0.003125230692472332,0.06867998244219059,0.15569076218386535,0.11183477491625216,2.0316470998047564,-0.2099090708371629,-2.568891829403757,0.04071847955783871,0.34561237352374263,0.027744945880307497,1.0
0.006945764337000611,-0.08951817994240902,-0.09260542963138191,0.17101799725237685,0.0018264531929633432,0.044020078955216216,0.10027283158273695,0.07203801012020505,1.30735177687988,-0.13493050930152337,-1.6533167003919653,0.02634720090501449,0.22236736946785363,0.017988896173645103,1.0078125
0.002202450997139961,-0.029318771499264037,-0.029835089689749808,0.055523606738415915,0.0002447676913216555,0.013988459246199875,0.03276020721293953,0.0235834572360558,0.4253380205895794,-0.043644404203998566,-0.5381169169168767,0.00885101065507762,0.07229506550718758,0.0061039305652565,1.015625
0.007187258898049561,-0.09257384782195557,-0.09577669823552142,0.1768673411072031,0.0019065477481872062,0.045545131082223925,0.10366808586432846,0.07451066945420663,1.3521056844994146,-0.13956810000315695,-1.7095024989491912,0.02724305976645279,0.23004441210314314,0.018588393080043147,1.0234375
0.0081915494426847,-0.10531949319722227,-0.10908825821077515,0.20133107526600705,0.002241811656905457,0.05190186915744259,0.1179681607781288,0.08476821552398435,1.5390427013444536,-0.15891053688111667,-1.945877868544638,0.030954655197120876,0.2618227849245184,0.021104305162855202,1.03125
-0.00342635151709003,0.04211270609218687,0.0445825685808365,-0.08147677262636435,-0.001630922984335953,-0.02165193398659834,-0.04732417396447506,-0.033924066416269036,-0.620706516114888,0.06462232044290542,0.7843087990945283,-0.01189501083275687,-0.10580758718765601,-0.007998928224530279,1.0390625
-0.010840277964085602,0.13620084344318062,0.14266546029335223,-0.26195896184473033,-0.004102575499913066,-0.0685902727226645,-0.1528254330872692,-0.10966497944483297,-1.9990681493760079,0.20727120556237108,2.526939858155816,-0.03924248462550045,-0.34039911273415624,-0.02657259506620874,1.046875
-0.004105409256759564,0.0507383221209434,0.053581755485162176,-0.0980112320290852,-0.0018574551924546764,-0.025951804980477163,-0.05701190838941852,-0.0408587593941478,-0.7470265163889137,0.07768244134837612,0.9443561384866476,-0.014402029447454192,-0.12727257643411707,-0.009701873620485508,1.0546875
0.0006801688340957318,-0.009998776097025553,-0.009729738852856714,0.018496377738445063,-0.00026200291011432847,0.004346677237314036,0.011093131574071135,0.008032173151813442,0.142693690611947,-0.014394616512388094,-0.1804329315006945,0.003250536167036727,0.02415802179603219,0.0022874936736628822,1.0625
-0.0060218133801066874,0.07503770597617901,0.07892339539028619,-0.14464475916087932,-0.0024963075919949215,-0.03808407688095146,-0.08424774280359527,-0.06043704406571528,-1.1032951734458212,0.11456593028557832,1.3945482086719978,-0.021468929676256375,-0.1879390276126801,-0.014501119247993435,1.0703125
-0.009669317603564534,0.12132816859587456,0.12718265109189467,-0.2334543165783828,-0.0037125719000056924,-0.061180286703668485,-0.13615463371348058,-0.09770344175605926,-1.7815198356155162,0.1847528994096256,2.2518926761035254,-0.03492496977194165,-0.3033982035839325,-0.02363952062688954,1.078125
-0.0019272725186378274,0.023099872787106405,0.024777220707792362,-0.04501527722951396,-0.0011317974924440076,-0.01216990714175377,-0.026019999457336022,-0.01861386788835784,-0.3422739383468395,0.03578741015708966,0.4324670208690307,-0.006373193683769222,-0.05844754868757848,-0.004245351633726067,1.0859375
0.00486865728694784,-0.06313227455994136,-0.0651166215602935,0.12041696472132553,0.0011337745838457774,0.03085476177321241,0.07066466624707604,0.05081261091390352,0.9211682195529364,-0.09497903858580659,-1.1647638597156016,0.018689315133860688,0.15659428634726255,0.012779698065764301,1.09375
0.004432276888215485,-0.05760787916038504,-0.05933702101316552,0.10981729412113928,0.0009883063224554592,0.028096621378902155,0.06445671089108759,0.046357626507616864,0.840044718897223,-0.08659033147943396,-1.0622302841219007,0.017077507290058507,0.14281037665412744,0.011686144609556925,1.1015625
0.0061260357596665625,-0.07911691364457407,-0.08173879087932794,0.1510616451072026,0.001552970655285572,0.03882368986762957,0.08856045128904895,0.06366551197520343,1.1548940941524504,-0.11917951281441035,-1.4602032404559826,0.023324431865979243,0.1964311517848445,0.015928230642447822,1.109375
0.01086370756662598,-0.13923697651913955,-0.14441709258871693,0.26637612124721505,0.0031324986303913247,0.06881545552030936,0.15597819651771597,0.11206659350442755,2.035653786616322,-0.21032026565485445,-2.5735878187637975,0.040801224948647685,0.34634921627116366,0.02779691661141035,1.1171875
0.007174633433524118,-0.09241469667508069,-0.09562573061894014,0.1765545184891339,0.001902691962553045,0.04545629012241668,0.10349866193930989,0.07437674914711258,1.3498324716356154,-0.1393175067858731,-1.7066184301097989,0.02719916053782379,0.2296150195896744,0.018556580868478063,1.125
-0.004183336584181987,0.05171689965688667,0.054617985962290574,-0.099925555230138,-0.0018839323438564846,-0.0264448649009552,-0.058100632971407044,-0.04165664424867378,-0.7616834109636089,0.07922277664737239,0.9626394318873335,-0.014689381643188226,-0.12975670085928068,-0.00989543893403196,1.1328125
-0.008919792738905998,0.11181625510086803,0.11726796603569915,-0.21520086223063578,-0.003462951135688673,-0.05641960481650677,-0.12548786601299378,-0.09004158634682731,-1.642148304180769,0.17033751201698022,2.075655626212896,-0.032158163857434016,-0.2795896026920823,-0.021759854603271952,1.140625
-0.004787418443030786,0.05937707247021876,0.0625930710564673,-0.11459592488830582,-0.002084872502998086,-0.030258495846275102,-0.06668474219157762,-0.04782375866330796,-0.8737979836935821,0.090813004545566,1.1043121813461914,-0.016915999100776683,-0.14882707806721293,-0.011407326544162329,1.1484375
-0.0032981311461816273,0.0404841845278898,0.042888738041780866,-0.07835188894861653,-0.0015879141556199908,-0.020844284787541023,-0.045491704356579385,-0.03260979984892757,-0.5968819116523207,0.062163371828853224,0.7542394553112524,-0.011420298172552162,-0.10174371277397358,-0.007677492597717474,1.15625
-0.005601095135964256,0.06971175548404374,0.07336234650420174,-0.13442210136374058,-0.0023557757691385463,-0.03543037017771572,-0.07826314288538282,-0.056136636538937315,-1.0250533045962609,0.10648029593850379,1.2955111080413588,-0.019913893917188993,-0.1746477670631584,-0.013447771842698015,1.1640625
-0.0014429045504330282,0.0169456595135579,0.018371103407096096,-0.03320223001395121,-0.0009700894940527505,-0.009096488916269246,-0.01911147019691358,-0.01365716082832218,-0.25209658292247816,0.026464397211432268,0.31836023898873766,-0.004585164843221982,-0.04307851001049083,-0.0030306791578016356,1.171875
0.007557386950299343,-0.09726144679167092,-0.10067648680047037,0.1858798425666527,0.0020300592345478615,0.04788619013593921,0.1089270013451316,0.07828474047468158,1.4210033783249345,-0.1467169760622548,-1.796652116141248,0.028599736647223428,0.24169664584815526,0.019516044771176164,1.1796875
0.00777547698047355,-0.10002161622392218,-0.10356352913281988,0.19117406953543925,0.0021029741242117937,0.04925621106593232,0.11201503156921136,0.08050771551457121,1.4614886127322733,-0.15091052226963242,-1.8477124125990558,0.02940447800783484,0.24857951208644166,0.020060526123424384,1.1875
-0.0018109794138514701,0.021627504813885656,0.02323002413485905,-0.04217850457522708,-0.0010925440162261966,-0.011436545683040068,-0.02437507688416132,-0.017425259773060194,-0.32058007192106713,0.03353752251498876,0.40514359047856796,-0.005940656336907965,-0.054731293829412615,-0.003955613008317427,1.1953125
-0.006869930137015076,0.08581306799502965,0.0901352512532206,-0.16529765584885853,-0.002779093378455628,-0.04344873489704266,-0.09633178812552165,-0.06910145596731622,-1.260906653010466,0.13086281314706755,1.593765300790443,-0.024592364033923775,-0.21475829480573505,-0.01662681501852352,1.203125
-0.0016779580330369382,0.01991725569202536,0.02146365800631905,-0.03889732259918245,-0.0010486379831573917,-0.0105687994360054,-0.022448942172132266,-0.016059405602132284,-0.2957201566317431,0.030968940090487465,0.3735610458558974,-0.005450528768315595,-0.05046811721688861,-0.003617719770902546,1.2109375
0.003763540656267499,-0.04913725944558226,-0.050498520268809625,0.09354992956296819,0.0007651860729048199,0.023872861669257218,0.05496873972047486,0.03952794235673687,0.7157215908050276,-0.07370338027340494,-0.9049655532204813,0.014610744928211569,0.1216837285217983,0.010014187122302187,1.21875
0.0027909332929826605,-0.036795038150066676,-0.037631438441438694,0.0698626608259888,0.0004412201558405756,0.017706178664536505,0.04112904420289333,0.02959310936299578,0.5348724087785486,-0.05497609186273638,-0.6762775289825183,0.011026776526772466,0.09090592786206121,0.0075760087519706094,1.2265625
0.000559576854282597,-0.00847946547403939,-0.008121570090205974,0.015548510845329953,-0.0003023328435789424,0.003580413283173049,0.009382127266053635,0.006802270493572994,0.12012280511703444,-0.012059055099667041,-0.15205978219154212,0.0028024487555733425,0.020312005489495053,0.001983935390855191,1.234375
0.0008277256541345705,-0.01187731769461553,-0.011661376486805462,0.02207399643873182,-0.00021306917607591514,0.005278180829574409,0.013187051547356034,0.00954084026868346,0.16995064154470385,-0.01723127580590962,-0.21512849423398134,0.0037885294844316793,0.028776630180403558,0.002654395778138869,1.2421875
9.955859196992375e-05,-0.0026277792389532146,-0.0020221326034961006,0.004337252310048427,-0.00045612543860013314,0.0006620872990273909,0.0028150345186738228,0.0020945276047916925,0.03450482095416183,-0.0032051422634228667,-0.043852408464278916,0.0011004576850074442,0.005717223967181171,0.0008314637810091831,1.25
-0.0021067658912314524,0.02537387714670299,0.02715159105515655,-0.0493736279607015,-0.001191641164795205,-0.013309241134676988,-0.02857193517690558,-0.020449819500754793,-0.37564699503571364,0.03926824262053364,0.474648504955014,-0.007030407710334468,-0.06407038436233453,-0.004693226209768025,1.2578125
-0.0012563823035056482,0.01457782072326283,0.015893142336115176,-0.028667721682013182,-0.0009079478562866164,-0.00792261377626682,-0.016461458303893232,-0.011759031493870024,-0.217524466864916,0.022906569789176098,0.27463211600242343,-0.0038891974334167136,-0.03714036008586316,-0.002562705284346351,1.265625
0.0013844324475391187,-0.01893698565560136,-0.019030737670751977,0.035615597656203174,-2.7539727691532068e-05,0.00879872905430168,0.02111223152549473,0.015224225993262357,0.27338841023187926,-0.027919974518155203,-0.34597113432813004,0.005844931147396797,0.0463949053363911,0.004050987442116504,1.2734375
-0.0004158747575353025,0.003913246744710413,0.00478692412888998,-0.008213136978119713,-0.0006277353578832987,-0.0025970258423148973,-0.004506489817127368,-0.0031677188777066764,-0.061253970891373355,0.00670640807381554,0.07725588948524242,-0.0008006572920879418,-0.01059149106147445,-0.0004593038037761058,1.28125
-0.004478491528756444,0.05547072276196455,0.05851171446638429,-0.10710048653931584,-0.001981940131818851,-0.028310525624430212,-0.062303006256134386,-0.04467163671122178,-0.8163560944625308,0.08486412830395326,1.0318774614263462,-0.01578115671826285,-0.13910925470915025,-0.010634753241721103,1.2890625
-0.0027700016892307244,0.03378448347199472,0.03590215288500361,-0.06549372237792558,-0.0014121446280526613,-0.017485614697480945,-0.03798311881232459,-0.027212406815315233,-0.4986285469445372,0.051977834629696046,0.6299998830417404,-0.009475911767590892,-0.0850115412546861,-0.006353710356859609,1.296875
0.0018325213720863573,-0.024626053333399543,-0.024974762124124684,0.04655138020630753,0.00012229816252053925,0.011653851544937893,0.02750258422405182,0.019811518599000686,0.3570107555910962,-0.03658886942179552,-0.45174341256108974,0.007497724827593319,0.06061529084361627,0.005175096453321977,1.3046875
-0.0004361920657843662,0.004171020851246165,0.005037255798160191,-0.008690090879857072,-0.0006341461858173718,-0.0027166660426092633,-0.004790019276005305,-0.0033709120003584314,-0.06478029537325679,0.007066859009989706,0.08175512898242031,-0.000870730763146119,-0.011197630593958896,-0.0005100673615869799,1.3125
-0.005381348212341165,0.06693396557559092,0.07045201876121199,-0.12908941972007168,-0.0022830051172251634,-0.0340308790564983,-0.0751634298782139,-0.05389923849399752,-0.9842162242344864,0.10223119837945689,1.2442424781891224,-0.019109245600495577,-0.16768720399511347,-0.012899146522530583,1.3203125
-0.0004368548761571898,0.004181694028099153,0.0050615115655379345,-0.008724650150104539,-0.0006348980816409208,-0.0027271163101041476,-0.004809582285521301,-0.0033851284787220553,-0.06521452968094626,0.007109395381223733,0.0821846570978799,-0.0008772983504041609,-0.011242891316700837,-0.0005114474483227094,1.328125
0.009371131901007633,-0.12029756257905269,-0.12466271698844839,0.23005119479527186,0.0026347662513906914,0.05936825071550028,0.13475366844039055,0.09681955654629042,1.7580247610966266,-0.1815929028861059,-2.2229490655012163,0.035291737918156395,0.29909579793786356,0.024061421053328043,1.3359375
0.007937684079369156,-0.10210913840032997,-0.10570387653330789,0.1951622563926758,0.0021568661061304186,0.05028705273730682,0.11435724680733413,0.08217138090778683,1.491583229524702,-0.1539964928427779,-1.8858919908754923,0.030007287833620517,0.2537416361403035,0.020471533385832266,1.34375
-0.0006415262480736118,0.006773283642588515,0.007775270992209663,-0.013697966376574555,-0.0007033650084844533,-0.004035957313308301,-0.007728460947668818,-0.0054843844770968665,-0.10331057249673126,0.01108246641090567,0.13059268021060944,-0.001630474424643812,-0.017723486569001398,-0.0010224420133222783,1.3515625
0.001091830366970919,-0.015221007810103514,-0.015152067058722817,0.028498592559406483,-0.000125400175504004,0.006940490164778404,0.0169309760565849,0.012225889607088222,0.21892547822417788,-0.022290265624988988,-0.27699116763374615,0.00476136227158075,0.037118228912185414,0.003318087024066223,1.359375
0.008047495188487613,-0.10350192272129728,-0.10716815351980775,0.19784841695253635,0.002194000115339131,0.05098832137313633,0.11592316291131635,0.08329952972772926,1.5121601595183152,-0.15615555101536505,-1.9121884604979646,0.030415817969262775,0.2572285068163454,0.02074353791904682,1.3671875
-7.871669111434653e-05,-0.0003837401350813234,0.0003112623595986528,3.1452365520115263e-05,-0.0005147778526547783,-0.0004542723499998481,0.00031404574391774104,0.0002868973586902355,0.0016211870965479214,0.00020193836687602083,-0.0024203509409154948,0.00045193867403603395,0.00013432817578523708,0.0003859978328802089,1.375
-0.017512102370436003,0.22086375193164798,0.23092275838412346,-0.42439629375213855,-0.006327125648138636,-0.11083177796571486,-0.24775951020831904,-0.17782357993989004,-3.2394154521377327,0.3356669478164837,4.095258715252524,-0.06384187120046793,-0.551487333881352,-0.043289900993866204,1.3828125
-0.017705240981476692,0.2233291487466931,0.2334913498163577,-0.429123268266094,-0.006392035519082534,-0.11205797647196677,-0.25053273263583115,-0.17980420150721968,-3.275497204702135,0.3393895599517035,4.140897665902052,-0.06455944352594324,-0.5576252493802049,-0.04377473784824,1.390625
0.0006828740737770652,-0.010023565901094877,-0.009751434112644557,0.018531091253786776,-0.00026163432692570006,0.004364374480605454,0.01111720480115402,0.008054991851811178,0.14301317069303893,-0.014441543457336026,-0.18109059436381864,0.00325404071873676,0.024198002599834224,0.002293747078592593,1.3984375
0.011683035528000103,-0.1496284004461999,-0.1552803882120476,0.28633979298689266,0.0034060733699197367,0.07401336724574754,0.16766621289262518,0.12043952648301015,2.1882103916087043,-0.22610739062913165,-2.7667812248291797,0.04382491782312055,0.37227574804693997,0.029854539466968807,1.40625
0.005523225082508397,-0.0714589927703614,-0.07380311107142985,0.13638131122957556,0.0013525675903640253,0.03501444139455708,0.08002800153070909,0.057508710784629304,1.0431200338400621,-0.10757401829711398,-1.3189537798871214,0.021106582515186264,0.17737130907014875,0.014423128595411255,1.4140625
-0.0015944545949109505,0.018871081979019468,0.020360215688088167,-0.036895147919246155,-0.0010205064145024838,-0.010051370824303279,-0.021263924139717994,-0.01520875889520886,-0.2801864383108663,0.02937708286045325,0.3541889202863897,-0.005146726837410257,-0.047857631091969756,-0.003409646319745326,1.421875
-0.00032124352297066116,0.0027118004745862326,0.003527992451742572,-0.0058867237752569575,-0.0005960301610930896,-0.0019933768128739143,-0.0031606556523304176,-0.0021993767406437922,-0.04355921510481999,0.004865265361189292,0.054941189502374,-0.00045004150361930824,-0.007580064059333321,-0.0002209069401041009,1.4296875
0.0013656014045340884,-0.018698543420724013,-0.01878098228974144,0.03517854886976021,-3.361079564949095e-05,0.00868118232851211,0.020839336406890393,0.01503505347700076,0.26999283345812886,-0.02758443794496123,-0.34169602554227807,0.005775625115664234,0.045795363579583415,0.004004021097815361,1.4375
-0.0006674656277046734,0.007104998471439176,0.00811015980466844,-0.014334440119663913,-0.0007114468808986154,-0.004195226216752439,-0.008089046213259737,-0.005738369923379821,-0.10798815120906387,0.011553897697834213,0.13614824535368875,-0.0017197561254825655,-0.018529623213154774,-0.0010905676180426411,1.4453125
-0.0014971457424929723,0.01763812582555427,0.01907793502116514,-0.034538797682567984,-0.0009880937840747296,-0.009447625899851902,-0.019896656232790837,-0.014218358557873113,-0.26223320041641807,0.027517262183711415,0.33132031889527175,-0.0047804119116544265,-0.04477888647697229,-0.00316907269050814,1.453125
-0.000304123313023745,0.0024940372001345215,0.0033037257628562846,-0.005483880437933449,-0.000590546587515242,-0.0018917162688308474,-0.0029265392011146502,-0.002030697461722705,-0.04056539283683312,0.004554799425487533,0.05104902887066076,-0.0003840046170854742,-0.007034778405765334,-0.00017918012339840264,1.4609375
0.0008868768045953039,-0.012627658109893442,-0.012425135313704101,0.02350966125120305,-0.0001939041241611211,0.0056490633575145555,0.014012541296601087,0.010138761032048312,0.18061162529917082,-0.01834648690568187,-0.2287903882305141,0.004003370997864201,0.030643623703200416,0.002804641094137142,1.46875
0.0045392217641195476,-0.058979182883307356,-0.06072943031155068,0.11241334877824469,0.0010235785374436218,0.028775056554942044,0.06598589159826766,0.047454881748187745,0.8595959546637371,-0.08860797551591358,-1.0871799344239115,0.017470373218970613,0.1462190224240049,0.011954607073151147,1.4765625
0.0089967351010977,-0.11554656936297393,-0.11972056500425338,0.2209415141186915,0.0025100813762269354,0.05700479902521803,0.129436774329416,0.0929968078185735,1.688625112118414,-0.1743950886938858,-2.135006784935985,0.03391079115451985,0.28727870037759123,0.023124134569040226,1.484375
0.005002255767523771,-0.06485827223464281,-0.06690963582208241,0.12373007540133209,0.0011788777855552199,0.0317218328483451,0.07262311074238674,0.05218880804282211,0.9463381873884223,-0.09756467042092776,-1.1964498930758523,0.019180935761815336,0.16088532371284464,0.013120138053204876,1.4921875
-0.00656422696917851,0.08192419010296562,0.08609239189449303,-0.15783741067558996,-0.002677156783785373,-0.041510796115110306,-0.0919578168250651,-0.06597954461915276,-1.2039603135840617,0.12498948655686781,1.5219558924215209,-0.023474927924134793,-0.2051092546601432,-0.015856512800712423,1.5
-0.010312551713083134,0.12949863548230126,0.1356871600406876,-0.24910943549379563,-0.003926961792275278,-0.06525075351682048,-0.14530710380354922,-0.10427536444118855,-1.9009501419927932,0.1971348164822785,2.403038665431064,-0.03729591576752753,-0.3237143231064655,-0.025249005093919273,1.5078125
-0.0019143970486503435,0.022929805204832253,0.024604075543152436,-0.04469252364330138,-0.0011273047406602124,-0.012086490751207875,-0.025818380893848303,-0.01847765926011477,-0.33979419220867013,0.035561327883424816,0.42929526259550316,-0.006321559026977621,-0.05798784538735136,-0.004211395797673369,1.515625
0.002142086714569714,-0.02854608383100144,-0.029046095950159462,0.05404100690929778,0.00022489578668028146,0.013593467984598555,0.0318864485638735,0.022964238034970115,0.4142311369884589,-0.04249210766714572,-0.524040892586268,0.008638062806611077,0.07035505134167361,0.005948045173278311,1.5234375
-0.00669941165437258,0.0836615284564758,0.08790436073792426,-0.1612009293285076,-0.002722643760723342,-0.04238259268191885,-0.09394598291684533,-0.06736446714560088,-1.2294018101326891,0.12760525253577637,1.5540753362387947,-0.02396577921802526,-0.2093786984316594,-0.01620676643564324,1.53125
-0.01276683165802514,0.16067001827658417,0.1681292764871575,-0.3088969457061467,-0.004744939478106839,-0.08079053369302218,-0.18028645693683468,-0.12935228874969223,-2.357068813648867,0.2443182301206774,2.9800439925153643,-0.046332119150456465,-0.4013007114991205,-0.03140821449469079,1.5390625
-0.003204647023329252,0.03932162711760801,0.04161559129396691,-0.07609840247969801,-0.0015567521035330665,-0.020244909027483212,-0.04419804322108878,-0.031661888975086205,-0.5792523574880899,0.06032365244529661,0.7324069150443967,-0.011063509799946152,-0.09872647331473683,-0.007447602476679702,1.546875
0.010202045488676661,-0.13083656144854292,-0.135696860899888,0.2502915307676409,0.002912466072039697,0.0646334862930415,0.14659376257330164,0.10530828142391634,1.912805593320152,-0.19761333783879875,-2.418628450880074,0.03836720778086199,0.32541144811286027,0.026144226860814808,1.5546875
0.011506363988881984,-0.14741237347431158,-0.15289596189041676,0.2820582837034205,0.0033467645977969585,0.07288606761722097,0.16515149690252331,0.11863886800546614,2.154899103577357,-0.22268847198804978,-2.724934759889777,0.043161435337231276,0.36661717034601976,0.029411661415800622,1.5625
0.004250216739078655,-0.05532516374785765,-0.05689795888572302,0.10540994935568652,0.0009274874315603307,0.026944421373541107,0.06189069959780956,0.04450791834800916,0.8059483800773533,-0.08306430656792427,-1.0193019504649303,0.01639741685227988,0.13702289517841862,0.011232053782074756,1.5703125
0.0008039585650651351,-0.011565224589434391,-0.011330696611762643,0.021481942509673738,-0.00022148385416400322,0.005123451802453779,0.012851420111640062,0.00929153609642327,0.16540786262776397,-0.016740967582420992,-0.2093510698887628,0.0036918102541393942,0.027986627788754555,0.0025996985371418944,1.578125
0.002876209766472099,-0.03785151680411327,-0.038748613359766676,0.07190686582063764,0.0004693713630260716,0.018237530752621574,0.04234095362533753,0.030456243165302422,0.550570142841068,-0.05660120143156594,-0.6964999561897799,0.011334800866831952,0.09353240051936705,0.007792108469922701,1.5859375
0.0037262330661641096,-0.04865387253427501,-0.04998698663044286,0.09262492238745834,0.0007530272558755479,0.02361963863715496,0.05443706249492367,0.03914575210879113,0.7085396167109522,-0.07297125812091279,-0.8963083810145612,0.014469463948287572,0.12043835895946373,0.009920305813518245,1.59375
1.0602414035723635e-05,-0.0015136006389902903,-0.0008493323330273311,0.0022050000745693714,-0.000485436304264156,0.0001061197754703469,0.001565070852673439,0.0011923023156754202,0.01800063421438373,-0.0015018168186284326,-0.02296943072320545,0.0007720687346539612,0.002945423552151009,0.0006107020999894282,1.6015625
-0.005321856961592334,0.06616628163220686,0.06966219082588355,-0.1276174184470009,-0.002263288485115796,-0.033645628206347825,-0.07431593312180057,-0.053289036076106064,-0.9730791245316966,0.10109826341076969,1.2303400180243542,-0.018885291195869465,-0.16571717486561638,-0.012748812390035094,1.609375
-0.007389057650639832,0.09240573432620008,0.09698915136305275,-0.17795545719759012,-0.0029523936611528696,-0.0467311230002915,-0.10372583988931648,-0.07441007178212822,-1.357256256268724,0.1408683170830111,1.7159656023560426,-0.02650329680466312,-0.23112235692336017,-0.017928676919763072,1.6171875
-0.004921271738615225,0.061073645802516785,0.06433886477128274,-0.1178524997946699,-0.002129108358171406,-0.031102544794109694,-0.06858765633493759,-0.0491879819230118,-0.8983692222782844,0.09335833861001906,1.135540919587776,-0.01740062206006787,-0.1530531112321993,-0.011745841609305637,1.625
-0.001730985539550573,0.020580500686801676,0.02214711040606055,-0.040176935507243855,-0.001065433118417811,-0.010901684260254188,-0.023179725917247523,-0.016588784834657,-0.30530996198957305,0.031974819114661886,0.3856846859258356,-0.005639287621946297,-0.052124867891835895,-0.0037507591093792893,1.6328125
-0.0005440549398097347,0.0055402871453522655,0.006475545272214045,-0.011338789771120527,-0.0006706503747402239,-0.0034002884563428437,-0.006320788518327574,-0.004476128579113728,-0.08500975240010325,0.009189251633893041,0.10727863992221504,-0.0012710698978198513,-0.014616594524849418,-0.0007767754874306962,1.640625
0.0008898888569114647,-0.012638052755949985,-0.012474571958190376,0.02352976877213721,-0.00019313608881618387,0.005661183344210657,0.014047003961150698,0.010159202940408032,0.18129387081753684,-0.01837694084658577,-0.2293704495763729,0.004013601338230348,0.03071205103090476,0.0028126525244401273,1.6484375
0.0033270022283964254,-0.04358190488331789,-0.044735649154014415,0.08291563129414851,0.0006202001089137259,0.02109433629705345,0.04873912597203342,0.035064302413228325,0.6346087308751577,-0.06532222994413367,-0.8025961912026268,0.013010011473453015,0.10785016964286265,0.008917108186967273,1.65625
0.0031982598394556076,-0.04196944099374831,-0.0430563684033695,0.07984079468873842,0.0005780832030816596,0.02029068921301648,0.04693988013788827,0.03376203181615142,0.6109529752088142,-0.06288899439092357,-0.7728023377207416,0.012543137260441877,0.10381288246324442,0.008595980753019324,1.6640625
0.0007280181742129115,-0.010609343885014538,-0.010344761900454266,0.019653954816285752,-0.0002461758886311385,0.00463929752066087,0.011769140115748224,0.008520017102924942,0.1513454884071833,-0.015315841375672663,-0.19175846759421913,0.0034241943948466872,0.025595770070384022,0.0024052849832583733,1.671875
0.00043373399957705676,-0.0068495036645263435,-0.006390558088786694,0.01240087727488543,-0.00034549079129763007,0.002751625288410372,0.007525977653851658,0.00549866836910516,0.09601068306501762,-0.00959002582065601,-0.12171868166840027,0.0023211513579223875,0.01618941613653181,0.0016626914399085271,1.6796875
0.0010755221928661332,-0.01499392838429119,-0.014881215377246121,0.02802913381438522,-0.0001314841770181037,0.006816835093292476,0.016653510049272024,0.012054201065317169,0.21538605423368162,-0.021945381749082206,-0.2724534139324703,0.004684788932296537,0.03650757568344554,0.0032704314637078858,1.6875
-0.001958927629019913,0.023495996487534768,0.025194477510145155,-0.04577193036575986,-0.0011421799032718424,-0.012366267138082707,-0.02646792455869983,-0.018935078470996118,-0.34806313848434633,0.036397822650265234,0.4400530785360947,-0.006491400595758061,-0.0593950073891394,-0.004324758155104593,1.6953125
-0.005180883413668784,0.06437508587490913,0.06777673622975057,-0.12418203742047179,-0.0022159508106430687,-0.03274627720380696,-0.07227075261749935,-0.05184375515510602,-0.9466938072861614,0.09838741353265644,1.196798940381693,-0.018362989221234367,-0.16127366676211513,-0.012391106743200379,1.703125
-0.0024959709296830126,0.030302808760369553,0.03228059818511028,-0.058836876703592264,-0.0013211226924546944,-0.015749901333003524,-0.0340710873903285,-0.024413531901115216,-0.4477786987208757,0.0467437001139594,0.5657972984306516,-0.008466111051122362,-0.07633615258579257,-0.005665093777726788,1.7109375
0.0023239478141255402,-0.030870050399378082,-0.03146530650207654,0.05851660781628765,0.00028584450571009625,0.01476464975348675,0.03450268566362399,0.024828983462053048,0.4481561660943972,-0.046014800517624625,-0.5669815043665452,0.009304570546674912,0.07616836844479738,0.006408822328200593,1.71875
0.002912459479310049,-0.03834842665218516,-0.03928080199503615,0.07289043056584513,0.0004826501746766534,0.018499770828510113,0.04289168264857992,0.030845571846063936,0.5578990748300108,-0.057377634506042365,-0.7056084468274457,0.011483355677338523,0.09483680737952697,0.007884937937299174,1.7265625
0.001865681575302213,-0.02506545237047841,-0.025451383228433898,0.04741597661909351,0.00013385262183423965,0.011875881855979554,0.028007472178464447,0.020153805931397113,0.3635335124081606,-0.037243443926377226,-0.4598330159369301,0.007630505486230075,0.061728429048292954,0.005263683843012536,1.734375
0.0027891908355253854,-0.036775359423272334,-0.037631631232241856,0.06985132663010941,0.00044103783584855446,0.01771000126889716,0.04112365681292476,0.02958331966705593,0.5348995355000916,-0.05498196158058386,-0.6765578099495368,0.011027596910424676,0.09087785313423878,0.007574333942431303,1.7421875
0.0024375889391386575,-0.03229966670855626,-0.032939056797479105,0.06124203526510477,0.0003230469313662198,0.015465647390980958,0.03608104487988857,0.025980326683832926,0.469050639878881,-0.048187528707913124,-0.5933025155639191,0.009718605567068847,0.07967311116951252,0.0066887104396289405,1.75
-9.353174707406617e-05,-0.00016924243525943437,0.0005405284357581959,-0.00038758495868889954,-0.0005207920726281843,-0.0005673540896990774,4.951513580244729e-05,0.0001161953304437171,-0.0015731142533471705,0.0005185265792570787,0.0017786388746722412,0.0003869903191998373,-0.00041535561840564056,0.0003453773155078463,1.7578125
-0.00046705191568232745,0.0045711923277535005,0.0054622514492907856,-0.00946721297230588,-0.000644921887850022,-0.0029286469679944784,-0.005257018889546789,-0.0036957686105494546,-0.07079914567395626,0.0076987096021148525,0.08933356238344603,-0.0009808884110336505,-0.012186242690920621,-0.0005898407465267723,1.765625
-0.0003020267714182882,0.0024728477354382388,0.003283528864650676,-0.005447511857069817,-0.0005899449652133809,-0.0018820088333977472,-0.002905496961483146,-0.002008282336527437,-0.04011425803397091,0.004527151042896583,0.05054122039386943,-0.0003744193576885981,-0.0069636856055870855,-0.0001759934238470639,1.7734375
-0.005087724273160402,0.06320694413162498,0.06660189256087044,-0.12196921518735114,-0.0021857786610672424,-0.03218886333018547,-0.07100973370695667,-0.050908538963907846,-0.9300309290697417,0.09662469837650911,1.1756308266332618,-0.01803250407837166,-0.15844875889655552,-0.012166005947160382,1.78125
-0.010162313637982876,0.12761272328008358,0.1337242186071904,-0.24551907681433635,-0.0038775372353115397,-0.06432314441556072,-0.14321503797864796,-0.1027567432631599,-1.873500846713418,0.19427377331518098,2.3683523835749907,-0.036747506331624866,-0.3190496420902119,-0.024878893524842946,1.7890625
-0.006099764972124225,0.07605756597115135,0.0799738610642528,-0.14660566463424804,-0.002522711758269107,-0.038593314389688556,-0.08539067416868315,-0.061242570769988965,-1.118040617696076,0.11609178864527468,1.413183799992929,-0.021760380970759993,-0.1904623167452297,-0.01469928803287157,1.796875
0.003960254484716416,-0.051622275581574374,-0.053104155476061704,0.09833270459781994,0.0008315101697240989,0.025116273476631524,0.057775141205161,0.04154789473844256,0.7524366464777164,-0.07750390639333478,-0.9515260780888146,0.015339937670204452,0.12791672936855364,0.010505520431132977,1.8046875
0.0085641770305583,-0.11006724485339339,-0.11401239236616684,0.2104449891342182,0.0023666258793629056,0.054274105618958624,0.12330147826123107,0.08858882058480652,1.6084627146296389,-0.16611132764553607,-2.033755828412805,0.03231854690065691,0.2736152133691129,0.022040570853076792,1.8125
0.005256300614793592,-0.0680963404466969,-0.07026816593975234,0.12992993586855053,0.0012640072168039493,0.033330257359509,0.07624233500203131,0.05479433303096922,0.993514924850244,-0.10246517621454347,-1.256502663249813,0.02012582006358163,0.16894524209820003,0.013754495952514453,1.8203125
0.0004445182756053385,-0.007022243702041155,-0.006622477136033477,0.012781763085681217,-0.00034029224977420714,0.002864446377345612,0.007765978003673784,0.005633308324410112,0.09894817591485426,-0.009870339937937612,-0.12560558019221116,0.002386461777214475,0.01670619662314669,0.0017005858973273115,1.828125
-0.0017539203413234345,0.020892029122010155,0.022456395354607934,-0.04075164373369899,-0.0010735813685769074,-0.011053280796104575,-0.023535989079966044,-0.01683385411339299,-0.3097171636829722,0.03243309813715777,0.3914071649347641,-0.005722435938411021,-0.052835188686935805,-0.003807484689900169,1.8359375
-0.0008781351654442038,0.009781988100862563,0.010865934831411475,-0.01944237023222705,-0.0007817887082835763,-0.00551199580036957,-0.011082203872012456,-0.007896020216158227,-0.1468657562781381,0.015582847608422434,0.18588648270670782,-0.002497584750742323,-0.025139007399105556,-0.0016148480136393799,1.84375
0.0023139917985645236,-0.03073103678145668,-0.031345411418304145,0.058245648786210774,0.00028227359184563477,0.014687113627558132,0.03433919895600955,0.024711220224140035,0.44634873795913343,-0.04581360132853499,-0.5641855077452443,0.009268527706192381,0.07581124146473872,0.00638092048392624,1.8515625
0.004005187230554928,-0.052192302816067855,-0.053675292041295695,0.09938666004362157,0.000845578662303399,0.025384630667615433,0.058387506902816924,0.041989295403010087,0.7602948199541603,-0.07831789414863884,-0.9614362846617416,0.015497679734223044,0.12927994949612903,0.010616689469108662,1.859375
0.0006411523601352645,-0.009499958982291381,-0.009152799957383273,0.01749269540177204,-0.00027629323318249403,0.004088037074962664,0.010501741505655356,0.007623892742391904,0.13472502787354132,-0.013590884986326992,-0.170729653772256,0.0030888081377575495,0.022843179924947065,0.00218786803736345,1.8671875
-0.00453657051142941,0.056200343590627415,0.059312693225924876,-0.10851369034008075,-0.002001932808842334,-0.0286823287062589,-0.06315901684073053,-0.04526671870071825,-0.8274682427083313,0.08598941824443646,1.0457162174160946,-0.015998223098653393,-0.1409523750967796,-0.010783919705563373,1.875
-0.005870903966983523,0.07312671211341086,0.07693024461287418,-0.1409704773488544,-0.0024460240093693102,-0.03712419138974298,-0.08211363054647712,-0.05889189941859683,-1.0751095049608215,0.11163749101600476,1.3588255620674508,-0.02091074841849215,-0.18315974826897657,-0.014125643257760724,1.8828125
-0.0037688925845827067,0.04645712667191677,0.04912748009435566,-0.08982151627432387,-0.0017453491160379277,-0.023820024422741712,-0.052196657717202506,-0.03741841742750452,-0.6843811260150519,0.07121963969226876,0.8649400961224851,-0.013160637533382997,-0.11666770200905358,-0.008857681017278279,1.890625
-0.0013840640071394962,0.016203620332205973,0.017596688973839033,-0.03179152816923151,-0.0009507369460032923,-0.008726906171632279,-0.018277254415789385,-0.013060032279502283,-0.24126386907228858,0.02535952336194318,0.3047948229994277,-0.004370310237277489,-0.04122172988737772,-0.0028820291965404223,1.8984375
0.0016264065048404068,-0.021996114910490073,-0.022233923467445908,0.041507246754526606,5.327373046961282e-05,0.010329877095448867,0.02455419495313108,0.017695977498529067,0.31846114091061734,-0.03258807556935738,-0.40292340040656754,0.006736108847007728,0.05403902156448567,0.00465883445886153,1.90625
0.004722532411874009,-0.06128658602567531,-0.06321014850307137,0.11689978299045105,0.0010862773535909804,0.02992777504768733,0.06861448887441324,0.049330353567789496,0.8942853663718846,-0.09219593342657093,-1.1309786641849973,0.018162608166528937,0.15200750765131632,0.01241319716300804,1.9140625
0.0034530628115404414,-0.04517904499927115,-0.046421963385987405,0.08599236272519474,0.0006630303713149853,0.02189042978969654,0.050552298748255405,0.03636009271662206,0.6583070968091365,-0.06776362610190353,-0.8325395451651864,0.013482190145751487,0.11184450329797957,0.009232768088962272,1.921875
-0.00220165079240849,0.02656821697685451,0.028392556553312222,-0.05167392279939318,-0.0012230006230644816,-0.013898689743581638,-0.02990693803340413,-0.021411373945914455,-0.39313793326502056,0.041071793170500415,0.4968449344431791,-0.007378334797223346,-0.06705119186772762,-0.004931352312135153,1.9296875
-0.004952023648964643,0.061456599661276166,0.06479242571027845,-0.11862675162312471,-0.0021405243359711463,-0.031300208166158416,-0.06904063380858587,-0.04950785063210349,-0.9046499803932151,0.09400673750966988,1.1434972936802132,-0.017529465639876993,-0.15405549063669066,-0.011820995190185564,1.9375
-0.0015430625404216193,0.018198800182220295,0.019707172050567646,-0.03564162865264413,-0.0010040036236699807,-0.00972193338406601,-0.020546177183752023,-0.014683332326182859,-0.2709845410347445,0.028405414235176132,0.3424162458949154,-0.004962733128917854,-0.046212593368590994,-0.003282849800007081,1.9453125
0.002266795449006335,-0.030135176069799083,-0.03069905038509729,0.0571036037354969,0.00026638128502480497,0.014389903638646744,0.03365355329690409,0.024232073678678988,0.43738177400042566,-0.04491516162751542,-0.5530396355728625,0.009088298980593441,0.07431002300757118,0.006261274352939321,1.953125
0.0026452230356980664,-0.03493449257217051,-0.035720379077995634,0.06632814735639267,0.00039273590881169556,0.016788170099482535,0.039049523161364626,0.02809881456023672,0.5079231864129556,-0.05220369258985652,-0.6422709011327973,0.010489974740537424,0.08629806932002737,0.007211875870800835,1.9609375
0.0030904654536622806,-0.04058844798869138,-0.04160591324647031,0.07716417492355492,0.0005412447072804358,0.019608041272715687,0.04539601418726828,0.03265492362665434,0.5907147230519593,-0.06075934798932992,-0.7470603410860464,0.012136159533849427,0.10039778208410918,0.008327768429088358,1.96875
0.004776374724794208,-0.061974699844382086,-0.06388672625929287,0.11816989139068829,0.00110316042004571,0.03026916284949232,0.06936903893246181,0.04987783601672403,0.9039120376667577,-0.09317348873135059,-1.1429827334990172,0.018350830954857757,0.15370612893928348,0.01254834771703514,1.9765625
0.0028855940158383857,-0.037969546767052484,-0.03887309759024054,0.07212473410886888,0.00047268923942591175,0.01829279991794115,0.04245006134090579,0.030554748179728617,0.552313979619775,-0.056789868537689685,-0.6984101336015844,0.011374781960724967,0.093854539474678,0.0078107004945553,1.984375
-0.003090189310001435,0.03785715832607176,0.040150855833441725,-0.07330782753880873,-0.0015192752718471638,-0.019524408047651137,-0.04256326084059003,-0.030491236032959036,-0.5583378273357555,0.058155388057887815,0.7056347282952908,-0.010658583465628597,-0.0951819767732407,-0.0071572585584057675,1.9921875
-0.006342692156534125,0.0791181153738854,0.08315862625170548,-0.15244467699020284,-0.0026032163833142573,-0.04010299998686945,-0.08882450686153481,-0.06370945943217687,-1.1627017616364195,0.12070561790921651,1.46966134533817,-0.022646293694311405,-0.19804148582122783,-0.015305051324297214,2.0
-0.003930730532751875,0.048510843164599846,0.05126442832156577,-0.09374330074597556,-0.0017991413757544451,-0.024842281127075812,-0.05451454166925633,-0.03906932574587891,-0.7143914330885767,0.0743103024584508,0.9030358376356211,-0.013752108387063202,-0.12173847093504807,-0.009265550584518781,2.0078125
-0.0010233543434031555,0.011622868343969766,0.01282391228571238,-0.023000437727829785,-0.0008301900943067625,-0.006447663725050746,-0.013157307192330036,-0.009374417042960992,-0.17417502115760966,0.018400134132076962,0.22003526193398992,-0.003037244030648974,-0.02979556657332435,-0.001982711281630051,2.015625
-0.0013173524079657405,0.015348345693026953,0.01671370313847347,-0.030153475369624542,-0.0009282354944579607,-0.008303107050846996,-0.017324931544080633,-0.012376277417394443,-0.22889982398055772,0.02405767214880482,0.2888183710847417,-0.004124429936817532,-0.03911497694872656,-0.002716251090793241,2.0234375
-0.0022206797062944293,0.02680061273418193,0.02864888187238656,-0.0521172270098537,-0.0012291660102688206,-0.0140117205407295,-0.03015664534792421,-0.02159991639107017,-0.39669322321443284,0.04141974597441484,0.5006885509556666,-0.0074526016705758254,-0.06768252749987487,-0.004976760322725323,2.03125
-0.0011316101949478054,0.012978863923634652,0.014233235231625216,-0.025596505265422217,-0.0008661320751792613,-0.007118875789164764,-0.014661564320392114,-0.010479289186945491,-0.19417255123570307,0.020466759190656637,0.2449615989859115,-0.0034353001348760214,-0.03321234645598921,-0.0022480864457308423,2.0390625
0.0009205345198563837,-0.013057052820793481,-0.012904634827537478,0.0243474434929266,-0.00018233218878958957,0.005865106529374415,0.014520852013698808,0.01047746485769199,0.18720938811679053,-0.01899770759658361,-0.23668744921741333,0.004128376257107417,0.03171585995188777,0.0028921996231334127,2.046875
0.002427150817092676,-0.03217053010954799,-0.032816692847208825,0.061002945993098266,0.0003197433243064171,0.015399003586428671,0.03594298127634823,0.025870876468948072,0.46715571709610404,-0.04797677530843186,-0.590498274622179,0.009681814457101128,0.07937202356736556,0.006664517750296921,2.0546875
0.0030772524189023307,-0.04041439621604762,-0.041409301707232275,0.07680872121070334,0.0005365659285341625,0.019512754237455243,0.04518541488675551,0.032516875677960674,0.5879924399446689,-0.06048998515349296,-0.7435474451869065,0.012082055218575598,0.09992862501993749,0.008290741907256389,2.0625
0.003004758972802321,-0.03948950944209884,-0.040459103221338145,0.0750392884189502,0.0005125252835923534,0.019054431652376847,0.0441538109081685,0.0317746172555376,0.5746032987115478,-0.059098694796137885,-0.726788400702162,0.011817933965562247,0.09764776470211248,0.008109027333229437,2.0703125
0.0027479655085907518,-0.03623170296209021,-0.03707179779592066,0.06880245164404683,0.0004269766856517237,0.017434922585348546,0.040503491819434245,0.02915116598625031,0.5269882698343442,-0.05416364245587329,-0.6663648270468132,0.010871306194504346,0.08956277678868318,0.0074668363182239786,2.078125
0.002251869093195341,-0.029939014282652488,-0.030513168474343193,0.056739258372784596,0.00026171838535771685,0.014300910881415177,0.03344442425171688,0.024089433625397182,0.4348781747711069,-0.04463409972828158,-0.5495756719853011,0.009042982033731111,0.07389723198683251,0.006223385961661994,2.0859375
0.00038067614025581633,-0.006191851292592786,-0.005765500600780003,0.011188464845098903,-0.00036194237400632415,0.0024542052809170263,0.006817647352630104,0.00497507154637205,0.08706257952597637,-0.008639944680458332,-0.10987638358708299,0.0021451609917183703,0.01468827151017232,0.0015351330185176747,2.09375
-0.0022481395989077794,0.027168929524881123,0.029009393568650916,-0.05280653948985846,-0.0012383787228170155,-0.01419453909750164,-0.030583861908891147,-0.021887711484778073,-0.401756684297138,0.04195335859107731,0.5076688549180735,-0.007550084978009306,-0.06851675925684338,-0.005048409112036675,2.1015625
-0.0029600373663502748,0.03619689705577544,0.03844120365240752,-0.07013115127098618,-0.0014759045310740737,-0.01870604194129849,-0.04070783560511945,-0.029162716100907208,-0.534309003151345,0.05566622533590893,0.6748568239247933,-0.01017918693371056,-0.09107222004952269,-0.006830376082477648,2.109375
-0.0016740818582232464,0.019871407723197475,0.021438919954664265,-0.038822565014321055,-0.0010471832015569557,-0.010563465595874018,-0.022406796058726957,-0.016017818959934975,-0.2952812738362922,0.030914975216102116,0.37271806781501865,-0.005436523771403517,-0.05039602659427928,-0.0036109976782943893,2.1171875
-0.0009463006005523937,0.010637315631320306,0.011794614344051357,-0.021107860810862,-0.0008043126116386367,-0.005949958433458475,-0.01204523236742093,-0.008578036398686187,-0.15976113751102947,0.01689250203877722,0.20171757793457315,-0.002748645756452569,-0.027353403769505315,-0.0017896617404564432,2.125
-0.0008785931502580755,0.009784592538112062,0.010883339972038827,-0.01947024530381893,-0.0007817576155198842,-0.00551858630707758,-0.011075681840709105,-0.007892767374441974,-0.14703494350958718,0.01559636590005569,0.18580414372439572,-0.0025006066621177316,-0.025199958018115868,-0.0016182670252125966,2.1328125
-0.0006132425320484871,0.006419263954392369,0.007387972922142854,-0.013025729608522413,-0.0006937453838762465,-0.0038450203915950825,-0.007303015168898171,-0.005191660938285514,-0.0979121703829505,0.010524138865836946,0.12355288221735583,-0.001529962621117055,-0.016832000757278108,-0.0009508466788335664,2.140625
-0.002627152988201612,0.03196829392014323,0.034044729546859935,-0.06204215500087911,-0.0013653768067553732,-0.01660042594269305,-0.03596162790692848,-0.02576817772167283,-0.47253008781324135,0.0492867761259212,0.596897883108672,-0.008960130245673461,-0.08058301173232388,-0.005994641849720494,2.1484375
-0.006779361599476429,0.08464601563466702,0.08895571220003812,-0.16307391942858182,-0.002749214257563825,-0.042878722203324025,-0.09503180652668222,-0.06818068211302432,-1.2442848764136962,0.1291453878774438,1.5725166704211915,-0.02426787280372582,-0.2119309094186794,-0.016395433709102427,2.15625
-0.005347256754083624,0.06646427654220198,0.06999521473983956,-0.1281789023197853,-0.002271359210563268,-0.03379809408214572,-0.07464554345138938,-0.053541372006157016,-0.9777701211810063,0.10155320492126665,1.2357885895873812,-0.018983168928776703,-0.1665603456315772,-0.012808064836276913,2.1640625
0.004871144532969723,-0.06319858732725088,-0.06515710996630111,0.12053527524689873,0.0011349640205681123,0.03089097185358167,0.07073571203240345,0.05085249432070832,0.9218106487380369,-0.0950452214037756,-1.1654997115406949,0.01869815392719081,0.15675731019374894,0.012787274863908857,2.171875
0.012778812944678374,-0.1635272149995668,-0.16973860819459702,0.312972423525878,0.003770766122713771,0.08093717966843837,0.18322996456759796,0.13163171242858296,2.391637722704404,-0.247155179847773,-3.0236891797563747,0.04785988523412441,0.4069185887330477,0.03259434593949261,2.1796875
0.008071590273692348,-0.103781223237195,-0.10748358803448527,0.19837452591595908,0.002201680116701616,0.05112969755352841,0.11624744647905479,0.08353758993400155,1.5165708982078057,-0.15657928173499874,-1.9174696846139803,0.030505496396984178,0.25797699331087554,0.020802637744676476,2.1875
-0.001978326140840099,0.02375018283548717,0.025434716525841186,-0.04624338837220179,-0.001148225920443805,-0.012488576330465932,-0.026746923412671847,-0.019130501927548255,-0.3515560338067977,0.03675804443146877,0.4443319641282758,-0.006552728977648569,-0.05997153379413837,-0.0043736415504241665,2.1953125
-0.004090485550293488,0.05055301037183587,0.05337755941675378,-0.09766167449892285,-0.0018523166868865493,-0.025860235172911306,-0.05680792047352765,-0.04070547983283896,-0.7442260124057939,0.07738724526146652,0.9408226377626633,-0.014341601615477935,-0.12679944613139194,-0.009667456730255828,2.203125
0.0008029533046236844,-0.01153778705412272,-0.01133888750083394,0.021431438037739226,-0.00022125516075423326,0.005108895738963033,0.012812032987917473,0.009282344979148496,0.16533010874973286,-0.016740085374164503,-0.2091535058784024,0.003704224019361852,0.027991413541263443,0.0025905634281683,2.2109375
0.002153534117589237,-0.028676954115437577,-0.02920262261751121,0.05430852765501278,0.00022881388968875268,0.013654993476595993,0.03203679677634003,0.02307408023361505,0.4163687447179956,-0.04270524417166766,-0.5265875876795965,0.008682337085127523,0.07070058943185352,0.00597712763728013,2.21875
-0.0023526981047646118,0.028491864104386706,0.03040603010949236,-0.055359414997650395,-0.0012736135300040197,-0.014864158693495177,-0.032068776352948324,-0.022961984678108432,-0.4213488324273373,0.043992676270409384,0.5325847721638048,-0.007943030763434647,-0.07186894505946843,-0.0053096342857211895,2.2265625
-0.005916858756304657,0.07370534862571466,0.07755747868061828,-0.14210521843110038,-0.0024620517643166003,-0.03741610021033399,-0.08277429456690284,-0.05936879185275236,-1.0839834379584667,0.11255724001486665,1.370328893357113,-0.02109163070644696,-0.18462280004122117,-0.014239404946310203,2.234375
-0.004867667787594455,0.060387514165908665,0.06367028971055846,-0.1165566560436596,-0.002112210447099032,-0.030765224371440036,-0.06783317946584076,-0.04864502263510643,-0.8888683416339596,0.09235891456662286,1.1234304730855593,-0.017217785382119155,-0.15140690597652084,-0.01161026451578423,2.2421875
-0.0018393928597448738,0.021959743561621753,0.023595401747416995,-0.0428209910962994,-0.001102233249776751,-0.011588946556584533,-0.024731142151002534,-0.017704302567830944,-0.32572807791057473,0.03407698648763393,0.41128297230873784,-0.006043840146634974,-0.05557474639077809,-0.004020779511780035,2.25
0.0005125856729984559,-0.0078896388255109,-0.007511799408396848,0.014443143002812096,-0.00031789586412859323,0.003297792735562953,0.008730620853287666,0.006325067169851848,0.11149664603726854,-0.01118447383691433,-0.1414780241374071,0.002627851560200095,0.018831879092205187,0.0018714898742848054,2.2578125
0.002004164174262244,-0.026816277710927164,-0.027221988091625043,0.050735368190599386,0.00017926186787215427,0.012729992986052922,0.02993842770051281,0.021561103598696483,0.38860345215263886,-0.039871231164863956,-0.49179139665451355,0.00812355335458819,0.0659938507374063,0.005605203940311106,2.265625
0.0025944114622148354,-0.0342924742194333,-0.0350326401484077,0.06508018462800337,0.00037598234051068293,0.016460201837855837,0.03833456475795192,0.02758608609549101,0.4983632113167687,-0.051213150904287054,-0.6305319268681421,0.01030177936749073,0.08465983465216999,0.007083595202267779,2.2734375
0.0017773040294151352,-0.023906974001536397,-0.024245788765798314,0.045176766000786114,0.00010357826686602714,0.01128862487266134,0.026713271566683024,0.01923278221262871,0.3466738361055848,-0.03548760811084926,-0.4385206254906934,0.007292436296234534,0.05882203268737346,0.00503870620965152,2.28125
-0.00014577978607396326,0.0005001586438194088,0.0011980950560646392,-0.0016493743020791242,-0.0005377761414272385,-0.0008878168652963406,-0.0006637302423413779,-0.0004156492644464204,-0.01087508676246273,0.0015197650849484829,0.013791252448655847,0.00019878369233603536,-0.0020248686326896055,0.0002194678840706167,2.2890625
-0.0017002878645061734,0.020217917001606016,0.021791689102118646,-0.03949838638983899,-0.0010561935764381114,-0.01073503037611619,-0.022804996336234878,-0.016291309823415347,-0.30011555004434637,0.031436072121979394,0.3793871612666073,-0.00553677226016138,-0.05121973993194159,-0.003679477165989727,2.296875
-0.00110111021713961,0.012606481967298258,0.013866353579306344,-0.0248942167068379,-0.0008561051364476512,-0.006938264589851596,-0.014275402752719124,-0.010162046412566383,-0.18869914259203013,0.019891463038201888,0.23825322046244804,-0.0033227012946604874,-0.03223839272807823,-0.002179289024954646,2.3046875
0.0018816215910296046,-0.025245837759611946,-0.025624012491623868,0.04774052305103199,0.00013863689316318448,0.011954722178863187,0.02818823780512952,0.020308890302839697,0.3660536930201659,-0.0375225145132644,-0.46308037759226445,0.007683732484260413,0.06216690866909431,0.005296191839112123,2.3125
0.004603852710190807,-0.0597920128174568,-0.06164390396575943,0.11400326531381612,0.00104588958085642,0.029185190173919615,0.06692511874401486,0.04810910290706233,0.8720745674532812,-0.08988847437137795,-1.1025810597669405,0.017721294374820323,0.1482746494695347,0.012117150322891693,2.3203125
0.003862467420443918,-0.05038785419695979,-0.05180982932065841,0.09593759314477987,0.000798313750206594,0.024479619382530148,0.05636293808247841,0.04053050900367857,0.7339802641904121,-0.07559071947573634,-0.927956106200336,0.014979943805640102,0.12477106917184828,0.010258987116745473,2.328125
4.4930239030342515e-06,-0.0014308538240809826,-0.0007719685688787187,0.0020355018650086184,-0.0004875847617149057,6.184438380164763e-05,0.0014763200114744567,0.0011249955294171034,0.016879109964894525,-0.0013685150488627002,-0.021486800942544477,0.0007499839409665743,0.002723780296462311,0.0005959198736114228,2.3359375
-0.0035099306090656335,0.043175335995689304,0.045686393574354174,-0.08349404497494478,-0.0016587830014202119,-0.0221676497027879,-0.048511204128523784,-0.03477273377000079,-0.6361007110752134,0.06621083059047911,0.8040342206916751,-0.012207515269955246,-0.10841659182428222,-0.00820541201381609,2.34375
-0.004763643022189359,0.059094734871101624,0.06227019472637566,-0.11403499578304159,-0.0020770860247692415,-0.03010722130723595,-0.0663633966349937,-0.047586658483973,-0.8692776000770097,0.09033660511343193,1.0988394752576336,-0.016830043262830753,-0.1480963783922877,-0.011348425992081785,2.3515625
-0.004659854036776838,0.05777533301880309,0.0609420617902847,-0.11154870798148227,-0.002043142004646626,-0.029473827635132666,-0.06491854298845554,-0.04653125002455117,-0.8504987848993008,0.08838937993460272,1.074946686700935,-0.01644958408543313,-0.1448746106288394,-0.011094089254676675,2.359375
-0.003531467657439058,0.04344171161237032,0.04603436100782389,-0.08406992596001245,-0.0016668906766557673,-0.022332823069150822,-0.048859652831626174,-0.03499622062230199,-0.6408363698423323,0.06668810358270474,0.8097520213632908,-0.012289124693573425,-0.10917129595933663,-0.008268256095851224,2.3671875
-0.0003672864610043767,0.0032795173067858524,0.0041463077151895076,-0.007000603656555802,-0.0006115274214141972,-0.0022763415681477423,-0.0038017544976778127,-0.0026628746925439263,-0.052214559319933296,0.0057616032472600975,0.06562026836153519,-0.0006202610913629844,-0.009004281843290671,-0.00033667918584629603,2.375
0.003542145124624206,-0.04632438157076439,-0.04758809097300875,0.08816981203372226,0.000691798412845942,0.022482215886907932,0.05184122314998237,0.037271644277777204,0.6747288605299355,-0.06947260001434502,-0.8534408524338248,0.013794985512055588,0.11468035551682608,0.009460920677356016,2.3828125
0.0043048958547743325,-0.05599606021090012,-0.05766369879325014,0.10671148617571441,0.0009459435606693233,0.027291391646196497,0.06268557264858811,0.045056964592973266,0.8163570622314124,-0.08411045371480552,-1.0326187272620744,0.016608759143603297,0.1387595631035025,0.01137167646595546,2.390625
0.001279506838359831,-0.017608876468581284,-0.017645164133307432,0.03307633516448827,-6.218975469856301e-05,0.008128691045686268,0.01963420893072101,0.014153579933992676,0.2540013398640596,-0.02589479860400401,-0.3215639833842521,0.005459515452570212,0.04305729987989637,0.003791042394796734,2.3984375
-0.0006301768583547712,0.006621260288812487,0.007596295566225215,-0.013385157927601749,-0.0006983987863000845,-0.0039483995990041544,-0.007545761922789998,-0.00534835731364925,-0.10074691302778596,0.010802269945102104,0.12726425766739258,-0.0015771379745985223,-0.017295212430279573,-0.000995554662909766,2.40625
0.0014611868037135627,-0.01990491853742964,-0.020055194284910524,0.03749216811376524,-1.6761433884024406e-06,0.009292955969823524,0.02218187951646974,0.016013561070957204,0.28789812952899907,-0.029446536776889028,-0.36395144489251924,0.006130263821804569,0.0488582940349613,0.004239942781370349,2.4140625
0.0025892414491147453,-0.03420574895616944,-0.034948813119411365,0.06489968615759388,0.00037375157530644546,0.016418356147390293,0.038218375720792765,0.027528063184611307,0.4972369800657313,-0.05110487735502601,-0.628827092011877,0.010282539316419525,0.08447105639209901,0.0070650986645381135,2.421875
-0.0018100969333442443,0.021614891630842306,0.023221679691373974,-0.042170588552446826,-0.0010925072092624287,-0.011431359803665933,-0.024342313768148497,-0.017417746290066646,-0.3204533181865996,0.03355202940892694,0.4048117914992946,-0.005938899505979835,-0.05471389498063407,-0.003951229988087079,2.4296875
-0.0059780339391075745,0.07449034632019418,0.07830541038639935,-0.14356455202487095,-0.002481310583482262,-0.03779610648810991,-0.0836081525935505,-0.059993284490681045,-1.094798354358898,0.11370230362421029,1.3839985757338626,-0.02130300802061747,-0.18650387092706933,-0.014387599244608678,2.4375
-0.0020867083722893526,0.025109269626870906,0.02684467890144594,-0.04883827643182714,-0.0011844320941180775,-0.013158160527158711,-0.028257380452766843,-0.020240349025584067,-0.37148506113243207,0.038825828978769204,0.4697742146144105,-0.006957083359585755,-0.06338256779139034,-0.004639573786245242,2.4453125
0.00513985386551088,-0.06658781695008321,-0.06868510621741637,0.12702305004438,0.0012236916589504225,0.032571454053984164,0.07452612137210825,0.05358073860752725,0.9713386819929241,-0.10016280926652835,-1.2279968440727727,0.019681707146689095,0.165183029966567,0.013461042535054805,2.453125
0.0049081979886336086,-0.06365275677906228,-0.06560439424113551,0.12137557216986597,0.0011462710843391363,0.03109977373650023,0.0712293435797631,0.051214379301389806,0.9280765132362653,-0.09568260327434784,-1.173568739262805,0.018826269899039738,0.15784198404819788,0.01287980680906748,2.4609375
-0.0014610286629225817,0.01716057571476064,0.018610485252693175,-0.033629343850011435,-0.0009764046338381002,-0.009205340612492252,-0.01936868336443222,-0.013845676918088166,-0.2556181288200363,0.026825868811417162,0.32278602077015034,-0.004652835078084171,-0.04360652756328156,-0.0030758871491605028,2.46875
-0.0036696025157047078,0.045183826252378344,0.04781601416591619,-0.08738018682511868,-0.001712330290351006,-0.0231807646739453,-0.05078902879788272,-0.03640094522041123,-0.6660376969043401,0.0692922314748582,0.8416230543381507,-0.012793820928279553,-0.11346693930944744,-0.008610209027650717,2.4765625
-0.0009500537075582428,0.010675508055765275,0.011873285765179027,-0.021199015611892826,-0.0008058756858865093,-0.005975828991334355,-0.012112043588781221,-0.008616043737778484,-0.16069869044115523,0.016977826668697103,0.20265378065431153,-0.002769849489744825,-0.02748009139705087,-0.0017993754345422912,2.484375
-0.001131415302360272,0.012981029081655321,0.01427725176349059,-0.02561835030684429,-0.0008662970642123852,-0.007130097478039101,-0.0147018762005606,-0.010470906190633645,-0.19445480144277047,0.02046798285467105,0.24528841447007277,-0.003439095789319563,-0.03323588462128743,-0.00225441331970425,2.4921875
-0.0038751097960926205,0.047811701080703484,0.05053336372986062,-0.09240670786561332,-0.0017806002154004956,-0.024495703989101652,-0.05373701302442989,-0.03850505467355381,-0.704208619383509,0.07324135531737828,0.8899512695459003,-0.013548182029204773,-0.11999732340444343,-0.009127635499937095,2.5
-0.0018091090902234768,0.02161319215429596,0.023180952073704273,-0.04213796659755293,-0.0010917144038367441,-0.01141942958661806,-0.024337823171516695,-0.017404230649365145,-0.31996178186022906,0.03349909090937719,0.4044908940673088,-0.005923089817870055,-0.05461665124937035,-0.003951153715599445,2.5078125
0.00367714264850556,-0.04800396135349522,-0.04937748776687988,0.09139854167690352,0.0007370755387856349,0.023305597528884312,0.05372746520062002,0.038641957905473735,0.6998341037820193,-0.07203462228680088,-0.8846996742436732,0.014304895467657588,0.11892615367371827,0.009794932733420561,2.515625
0.003948227267298264,-0.051460878197769476,-0.05295099845122877,0.09802586632010682,0.0008273949302385326,0.02502888365421682,0.057596932984906944,0.041416693700886034,0.7501890822934482,-0.07725545730065049,-0.9486009112113003,0.015299199748826929,0.12750113005382782,0.010476381387227169,2.5234375
-0.0009705644809213324,0.010943400522756939,0.01210257480048769,-0.021680472606409304,-0.0008122685502774553,-0.0060947383472311385,-0.012371854064008883,-0.008828070735922592,-0.16408858286658723,0.01736319724448186,0.20701290119931462,-0.002839443536462793,-0.028081396785237536,-0.0018448838338284593,2.53125
-0.0022525659606551754,0.0272105974405742,0.029048071879490114,-0.05289659843178715,-0.0012397256563223763,-0.014207681674361873,-0.030597611754128364,-0.02192737616632784,-0.4023918917578249,0.042037420997400425,0.5083074964712188,-0.007566725514807975,-0.06864646797290108,-0.005055715953360794,2.5390625
0.0023973826429587023,-0.03179564695450427,-0.03244887412540657,0.06027360305648112,0.00031003541263571055,0.015218762574014829,0.035560874819888656,0.025568280061706784,0.4618283947993074,-0.04740288430293929,-0.5840346136698054,0.009574247267200525,0.07840701046275655,0.006593850364728378,2.546875
0.005140013587889858,-0.06660129985683394,-0.06869775196419574,0.12703489893024264,0.0012239086195217081,0.0325742630458548,0.07455291762285497,0.053582753473482646,0.9714360521537136,-0.10016829118552187,-1.2281341314552046,0.019679574076072247,0.16515219911355786,0.013462872330998552,2.5546875
0.0010711518597361588,-0.014965711243128517,-0.014855836734377162,0.027996470466786008,-0.00013267160679687943,0.006818888516484739,0.016622889096421734,0.01201853646833201,0.21493513232488196,-0.021899826375108775,-0.2718109511635574,0.004673957275116796,0.03646872648005884,0.0032659384022260003,2.5625
-0.004196835846810268,0.05188945900466402,0.054817734519435085,-0.10023516039043802,-0.0018885803116928295,-0.02652654368230532,-0.058334876192663435,-0.04179429085168704,-0.7642976833704825,0.07944596882811442,0.9659853274413481,-0.014744931862495215,-0.13015264292093157,-0.0099327065888188,2.5703125
-0.0037701966015411133,0.046473783050721744,0.04915025020799337,-0.08984229538732183,-0.0017459020921744397,-0.023826785093126676,-0.05223759308390235,-0.037433995970362496,-0.6848264969115576,0.0712362174665,0.8654323322602046,-0.01316382188923923,-0.11666059142506409,-0.00886214112654895,2.578125
1.75698489036296e-05,-0.0015983352410764708,-0.0009558477051055251,0.002364943788539165,-0.0004830423903977128,0.00014844733585255932,0.0016676186380726015,0.0012616994221042082,0.01935225585430397,-0.0016390529503963003,-0.024791420979410284,0.0008043209732959999,0.003151444810909851,0.0006274752753355834,2.5859375
0.000688440911505138,-0.010111126465007515,-0.009811112660621348,0.01868506303045095,-0.0002596446379356126,0.004393742924317582,0.011198215395934595,0.008115041254750053,0.14395409263590436,-0.014541481615440794,-0.18233994776883783,0.003273110391968286,0.024368444890651198,0.002306477956998485,2.59375
-0.0010990303209715575,0.01257635510567152,0.013833026520127028,-0.024830133381933968,-0.0008556043410011864,-0.0069204117663490584,-0.01423697907472769,-0.010146851572944659,-0.18832600312435252,0.019850059549235764,0.23767705400773997,-0.0033193451930224093,-0.03217961906010381,-0.0021711449600591974,2.6015625
-0.00046080216694585396,0.0044775539243060766,0.005360090723603557,-0.009275482558485057,-0.0006424250965927974,-0.0028773077680801576,-0.005134442105715318,-0.003628039130735468,-0.0694197437303969,0.007556520039084899,0.0874371014606958,-0.0009589921798160836,-0.011976019671887503,-0.0005697754412596414,2.609375
0.0008823528694134463,-0.0125653371547451,-0.012426662542231803,0.023424170484558415,-0.00019429944700478217,0.005623684222986192,0.013981602034071313,0.010093363621128561,0.18046411169365173,-0.018296136542873334,-0.22820425459899307,0.004000567513451664,0.030532983041224575,0.002794229070838833,2.6171875
-0.0015917790574821282,0.018845020123512125,0.020315186945687135,-0.03684465026544415,-0.0010192849759053787,-0.010047403717358466,-0.021247021129981128,-0.015182560832700148,-0.27960442357567966,0.029323309159256714,0.3536311657107489,-0.005123789094304465,-0.04775145400248767,-0.0034083860155556043,2.625
-0.003998495651083505,0.04940136748031107,0.05216793155637154,-0.09547203701101344,-0.001821946750012924,-0.025287331735757382,-0.05550168817837485,-0.03976939729275632,-0.7271943863258239,0.0756544544892896,0.9193820813191708,-0.01400251896616811,-0.12392103089415211,-0.009438247404453917,2.6328125
-0.0002794492054093363,0.0022014582204060436,0.0029689944632353723,-0.004920993791595223,-0.0005821121877705832,-0.0017326330214738385,-0.002556934195757437,-0.0017714799453871512,-0.03577290403017957,0.004097082053888108,0.04494488647945093,-0.0002891448739390164,-0.006253400584974107,-0.00011570151008787417,2.640625
0.00485022534725002,-0.06291603382355815,-0.06488684123955947,0.12000130664310629,0.0011280503345540939,0.030756385035903437,0.07045388396502211,0.05063976742860556,0.9179009826666978,-0.09462174237139163,-1.160918015090606,0.018625861247423877,0.1560748452957515,0.012739069537196997,2.6484375
0.0037805589927960227,-0.04935399265681336,-0.0507177367824311,0.09397334832902857,0.0007711437721476604,0.02398330618833209,0.05521594232601254,0.03971137618970378,0.7188503628875111,-0.07404282725015944,-0.9091926566319462,0.014676090351024304,0.12223036163226379,0.010056758447899963,2.65625
0.0003084172639801099,-0.00528929418600078,-0.004769627801340898,0.009423159283535945,-0.0003868741569851385,0.0019874904639207358,0.0057874888250501865,0.004229269155432138,0.07309196401806661,-0.007210397346284655,-0.09267666528048954,0.0018652376174740474,0.012318529522337746,0.0013554927163199715,2.6640625
0.0013210070725439452,-0.01814218101551245,-0.018163957402584068,0.03406940727793915,-4.9539818858401314e-05,0.008393101841491604,0.020204626306840584,0.014564939368950328,0.26127595151991084,-0.026675671045727666,-0.3306622605349669,0.00559378461007258,0.04430962278219108,0.0038945782573409676,2.671875
0.0029015352743191366,-0.03821067435662035,-0.039081257692733386,0.07257441311171173,0.00047756200771118494,0.018409685227138324,0.04271398387954151,0.030714565016390128,0.5552711085579809,-0.05710556809001235,-0.7024783777330267,0.011420834432081908,0.09433429566743226,0.007856531424711887,2.6796875
-0.0009495316197954273,0.010663713730641946,0.01184381042888778,-0.021162040394635925,-0.0008056913336973182,-0.0059636223500283275,-0.012086246754455429,-0.008618731318262154,-0.16038812005186603,0.016955602587342567,0.20236859229748147,-0.002772454389377386,-0.027454266343758547,-0.0017941588920273887,2.6875
-0.005698547588840097,0.07094855398091533,0.07463750167188911,-0.13678569074740707,-0.0023881684563069753,-0.036032968105580696,-0.07966916998493978,-0.05712951028511547,-1.042983107737357,0.10831436124191582,1.3183779024287463,-0.020270181454499214,-0.17766390559154607,-0.013694788994520661,2.6953125
-0.005090615516669633,0.06323805004506636,0.06657836877807045,-0.12198633127769724,-0.0021852287670433004,-0.03218473886787396,-0.07100347371509563,-0.05091875962521934,-0.929853129356169,0.09662633247390248,1.175371482965129,-0.018022027965802878,-0.1584111223522084,-0.012169281113495457,2.703125
-0.0020903220337336556,0.02515145428766976,0.026899753175424403,-0.04893115112115825,-0.0011853970510301497,-0.013183703931624083,-0.028295375586652204,-0.020269824198909166,-0.37219628017207285,0.038910603937979786,0.4702952200758049,-0.006966501317044037,-0.06349241456888591,-0.004648913544225877,2.7109375
-0.000985250913697529,0.011133939304596437,0.01229856205617202,-0.022045284899475458,-0.0008174008286209175,-0.006191907088349972,-0.012594368398138791,-0.008985317820416854,-0.16691019117995273,0.017652202797423976,0.21093829666255534,-0.002897486986170279,-0.02855111057161294,-0.0018826086365610387,2.71875
0.0005365560715516271,-0.008149807770612924,-0.007830649900321627,0.014953369086947249,-0.00031000497286653403,0.003424027567625733,0.00900966473304523,0.006554845274955672,0.11594460912184322,-0.011627884787036464,-0.14636126297012853,0.002722824677530791,0.019586644490207018,0.0019234876399061083,2.7265625
0.003827840342530015,-0.049908140940341884,-0.05136300132095319,0.09505534144157557,0.0007871986918115856,0.02425063582531899,0.05581483287127471,0.04017568302064893,0.7276689932115039,-0.0749509766781451,-0.9197225514861612,0.014866145360989336,0.12372042210274839,0.01016586993229239,2.734375
0.0045770666265988694,-0.059441919797754206,-0.06124387474154804,0.1133166038567887,0.0010363448999998988,0.02900301148693684,0.06649081102384588,0.04783302163073169,0.8666366141548532,-0.08935416878053547,-1.0957397679389222,0.017616648682188193,0.14740638298258923,0.012045196327487588,2.7421875
0.0015077786382768018,-0.020515875087820656,-0.020616424319104345,0.03861793572084497,1.262778899452824e-05,0.009583661352264095,0.022854390249225684,0.016484094895080088,0.29588857355751563,-0.030279660243057456,-0.3745198883637511,0.006282765423838838,0.05026136381671892,0.004359950899061245,2.75
-0.00023316865747466208,0.0015798625614789107,0.002401350592844987,-0.003763174935888983,-0.0005673228974556614,-0.0014361736077532728,-0.0018851244616371905,-0.0012942638153516887,-0.027497530508647446,0.0032240710320388423,0.03415381452558715,-0.0001340785614779256,-0.004828255369060068,1.1162699793001136e-06,2.7578125
0.0011269444496761244,-0.015669887909661614,-0.015620535641256612,0.029352407989087514,-0.00011319207718839368,0.007172901040926674,0.017478481433547098,0.0126031654740143,0.22569775963407043,-0.022962024587653358,-0.2859232363020832,0.004894202538038077,0.03822980214645958,0.0034089135043608785,2.765625
0.00034759271791996385,-0.005779913239019011,-0.0053215300299971615,0.010391733959523709,-0.00037306360183341717,0.0022399652661055877,0.006375607394973957,0.0046355290144349465,0.08082917575098364,-0.007984729377659785,-0.10260152596649355,0.0020213769770957265,0.013582303242173015,0.0014553427463064577,2.7734375
-0.004468705508757069,0.055335530135839514,0.058391152610327846,-0.10685063570655629,-0.0019790610966095488,-0.02825013172958102,-0.06216815460641659,-0.04457510336597247,-0.8146685216849242,0.08468188458620234,1.029681217813028,-0.015746044738274755,-0.13881457164061337,-0.010610922788486373,2.78125
-0.006887190935211838,0.08602341512891502,0.09037017430313785,-0.1657157865077568,-0.0027849666334186156,-0.043559187733707434,-0.09657009957711558,-0.06928007924160093,-1.2641618127805718,0.13120945665506442,1.5979313918498694,-0.02466227104560492,-0.21532222979054597,-0.01666831075825941,2.7890625
-0.0026321856023554914,0.032022981383278186,0.03406687444292873,-0.06211621406027974,-0.001365782614774768,-0.016617093718877023,-0.0360097494590161,-0.02580339642546657,-0.47292065812076983,0.04932335637227209,0.5975611776890699,-0.00896353046699013,-0.08065482664677792,-0.0060075202430401615,2.796875
0.002833941179535579,-0.0373405661271815,-0.038233380527964274,0.07093868856954573,0.0004562899744927282,0.017988273588547418,0.041759280289516705,0.030035720738466734,0.5431806440337981,-0.055844256517718543,-0.6869264395415112,0.011191266406064562,0.09230013129028763,0.007685428275489516,2.8046875
0.0034410670495367713,-0.04503279960335085,-0.046242600309455296,0.0856774216518586,0.0006578462840965663,0.021824664719742,0.05037472660708955,0.036225972069122724,0.6557601958213155,-0.0674950305963233,-0.8291353766562926,0.013420304086276667,0.11146599266256893,0.00920509916036811,2.8125
0.002084648297937211,-0.027810139197719165,-0.028294186054817632,0.052638623870237926,0.00020547622916274947,0.013231728510460438,0.031063443420155577,0.022365897282056985,0.4035379190273401,-0.041389556494477224,-0.5102912572213171,0.008418102467633568,0.06852154276064175,0.005805971196330181,2.8203125
0.0034534893027843797,-0.04518186083013272,-0.04641555861162049,0.08598190670349491,0.0006624804572928446,0.021899934418639393,0.050542360953866605,0.03636068186083428,0.6582541747539631,-0.06775848269049056,-0.8322848934372723,0.013477403068480746,0.11186716887166757,0.00923353612068422,2.828125
0.004051654128972905,-0.05277568333712956,-0.05433635309053643,0.10055910642880557,0.0008622462247813848,0.025691754840602425,0.05905657739447661,0.04247958641706619,0.7696104338598733,-0.07928239351511573,-0.972925844915021,0.01568991761565361,0.13084092385095908,0.010731479572282506,2.8359375
-0.0009939221365323485,0.011249865411021123,0.012418680766875427,-0.02227234910940549,-0.0008202799584149123,-0.006247310272018101,-0.012727657884137825,-0.009068102916197454,-0.16854262744758572,0.017823779342748876,0.21301530212713632,-0.0029240435370346796,-0.028804980918740695,-0.0019056767649167357,2.84375
-0.006758858411405983,0.08439651528279117,0.08869921558814313,-0.16260328840242544,-0.002742701796199863,-0.0427407578351302,-0.09474482733232269,-0.06796500828502315,-1.2405414262164562,0.12876394893491475,1.5678692283858056,-0.024195447932267435,-0.2112457087878392,-0.016344582516927303,2.8515625
-0.00511658697060721,0.06354684782595411,0.0669932782941778,-0.12261191562143427,-0.00219530139245928,-0.0323469078994936,-0.07138673787936582,-0.05118648660646359,-0.9353945092697409,0.09715614801445495,1.1819164052006905,-0.01814316573807674,-0.15930900364544234,-0.012232359140327123,2.859375
0.0014537855273878946,-0.019821857601627035,-0.019911195089501517,0.03731004813833073,-4.830754555966543e-06,0.009233182999104814,0.02206956793521611,0.01593331515060745,0.28601410403750394,-0.02926129304485335,-0.36196348362297326,0.006091847706136341,0.04856481150522051,0.0042214924434623045,2.8671875
0.003645639035504226,-0.04761873124206384,-0.04891109007186547,0.09062778919200098,0.000725921666095251,0.02309473334997404,0.05323903679893103,0.03831926761562283,0.6935191318024997,-0.07141486380343567,-0.8769028882925048,0.014182338581132796,0.11790259584007823,0.00970920324607079,2.875
1.2748417182073855e-05,-0.001516788220219087,-0.0008777312100245204,0.0021962556324906495,-0.0004849918844983582,0.00010134860557000322,0.0015687211092324453,0.0012058752572163575,0.01832841392930313,-0.001518030979551897,-0.02335204589478216,0.0007890308278262854,0.002967717336173976,0.0006108892901284668,2.8828125
-0.002562352985259369,0.031149107918172145,0.03315971414206618,-0.06045341842057309,-0.0013431751918469808,-0.016184498501111984,-0.035038330990658076,-0.025098135296419896,-0.46015272722436973,0.048004764028688286,0.581525194769403,-0.008708145711129019,-0.07848199658472171,-0.0058356199814317165,2.890625
-0.0010135612702646152,0.011496154522539914,0.012663513968459312,-0.022748788868184974,-0.0008267666780327348,-0.006379033968559553,-0.01299787822084213,-0.009279418818662817,-0.17216597667212982,0.01820012578541777,0.21756248557029778,-0.00299851838483726,-0.029483456752543685,-0.0019547151831986213,2.8984375
0.0007903075524431345,-0.011382514738718248,-0.011189519400730737,0.021137205859284264,-0.000225435204802471,0.005027865305721763,0.012645328574075984,0.00914368155974061,0.16307600112230602,-0.01649862607648861,-0.206232364214033,0.0036549397263463557,0.027566263663035682,0.002561579361484567,2.90625
2.2533676734190278e-05,-0.001644277618410418,-0.0010325692212216015,0.0024646784720325256,-0.0004812002924199878,0.0001727382444273012,0.0017204900469273373,0.0013065655078353495,0.020401508768244852,-0.0017424742606059213,-0.02596169100067851,0.000826149738232767,0.0033052975218350496,0.0006378516457904394,2.9140625
-0.001442165468713439,0.01691701043242715,0.01832457892457686,-0.033128014914319145,-0.0009691957418315785,-0.009070674155548679,-0.01907312665369543,-0.013643130010794086,-0.2516099767809548,0.02641076111689346,0.3178735822704249,-0.004577770008330627,-0.04296277261341723,-0.0030255900111798386,2.921875
-0.0010173660158712603,0.011509999452558522,0.01269751781400515,-0.022761728554614634,-0.0008276710452925431,-0.0063640550467972505,-0.01298359435876101,-0.009299049630302491,-0.17255612013657087,0.018244925104832024,0.21788300726437623,-0.003019093085353183,-0.02951220505887262,-0.001954940032019459,2.9296875
0.0013473385162828993,-0.01848702052023948,-0.018552512997435034,0.03475564739316216,-3.9961120864245e-05,0.00859115447575208,0.020644849289403747,0.014851639925208425,0.26667844378796235,-0.027211725256205854,-0.33757194596867657,0.005695299389793572,0.04523428265831052,0.003968057530847795,2.9375
0.003693607083937223,-0.04824026462964872,-0.04954563157307579,0.0918144381984533,0.000741593068981928,0.02342298356918046,0.053970898515522836,0.03881532708032841,0.7024319497560542,-0.07232801424553208,-0.8885792140336739,0.014347362633549913,0.1194201028459663,0.009839737166184644,2.9453125
0.0043258154031590125,-0.05625408261927313,-0.057902559254873934,0.1071952481460434,0.0009523739484747386,0.02742312188740132,0.06294505052750739,0.04527526333410868,0.8199818447357831,-0.08450264481396898,-1.0371414093336722,0.016681505857366264,0.13943775968545422,0.011420724361828102,2.953125
0.0035946815613378735,-0.04697679861157791,-0.04826260858271297,0.08941433356994304,0.0007092866895408933,0.02279837048859049,0.05256312639401028,0.037807611172834855,0.6843779926362686,-0.07046286146090777,-0.865633567852913,0.013990395788875124,0.11631622085961388,0.009589258183152767,2.9609375
0.002273834657814247,-0.03021347406634341,-0.030807501314458124,0.057260526330906364,0.00026941744155622993,0.014424792900860073,0.03376218491760271,0.024310412209174816,0.4389004798516778,-0.04506360481948357,-0.5552057653099206,0.009127346440827399,0.07450781947037287,0.006276416251753357,2.96875
-0.0010895788239672075,0.012471856919596614,0.013702258157190986,-0.02462883606897793,-0.0008521542898135848,-0.006884038735693855,-0.014144226851451292,-0.010055423706268185,-0.18662360499179462,0.019658873113640372,0.23583024606919753,-0.0032709965758805177,-0.03190510113663323,-0.00215572994098682,2.9765625
-0.006978431316250885,0.08719893565504831,0.09161182721665151,-0.16797743880888003,-0.0028158218002277786,-0.0441613072020003,-0.09795253257742319,-0.07021717877667732,-1.281488668903607,0.1329781992086131,1.6202177029221931,-0.02498961900696058,-0.21818776618942423,-0.01690806216561891,2.984375
-0.01030916608120737,0.12945969300366744,0.13564453789780886,-0.2490358264700802,-0.003926015810308123,-0.06522828401641993,-0.14529904246072542,-0.10424046286295227,-1.9004019500047105,0.19706235254252225,2.4026725307267456,-0.03727544933062028,-0.32353428151719665,-0.02524551247076669,2.9921875
-0.006175570637992318,0.07700287385149203,0.08093691248522275,-0.14840169494363153,-0.0025474773215705083,-0.039049451813095146,-0.08644159378396093,-0.06200875347211464,-1.131676375892241,0.11752134579847283,1.4307479805836387,-0.02203073251120164,-0.19273460802416736,-0.014886107564868897,3.0
0.0010170552949202035,-0.014269192861558921,-0.01419441964631693,0.026676158172994447,-0.0001497359763090577,0.006477982749011747,0.01589195782256877,0.011468524121830234,0.20533072435187988,-0.02086107637613061,-0.25957463676836334,0.00449152765844776,0.03481177468770417,0.0031316707560883265,3.0078125
0.0028807014485428043,-0.037921266509228495,-0.03881466733784577,0.07203398897685984,0.0004710260924024182,0.018267143168481235,0.042395288469746,0.030502624168418462,0.5514880646417096,-0.056704005338720984,-0.6973974992969174,0.011354031431923822,0.09370298957742365,0.007800366977943869,3.015625
-0.0001434465636976615,0.0004470730383282505,0.0011941103797147017,-0.001568589624305637,-0.0005372665130027952,-0.0008750615767312173,-0.0006159627660892931,-0.0003920292072290573,-0.010756767837327852,0.001476658696420087,0.013076345927823295,0.00019437242658438815,-0.0020381420784884655,0.00022711004399846374,3.0234375
-0.0005427312015122538,0.005507870401463863,0.0064610387603802775,-0.011268568819723834,-0.0006701454310597912,-0.003392745884969581,-0.006280319969526469,-0.004465813526794705,-0.08484272423907362,0.009142412088407345,0.1066942318460818,-0.0012745548206973619,-0.014639526277596735,-0.0007720231223471693,3.03125
0.003990698879943011,-0.052022676837812955,-0.05350747082264812,0.09909200157920166,0.0008411903670938136,0.02531285813194398,0.05821345190249398,0.04185291594457636,0.757965244676106,-0.07808430306635852,-0.958577041832857,0.01545024672495525,0.12887157937789448,0.010583527679826217,3.0390625
0.00868410869915091,-0.11158205911361158,-0.11558387119169447,0.21334044542975347,0.002405893604682093,0.05502582482101577,0.12498782218038097,0.08980519709439011,1.630489064322764,-0.16838625858520728,-2.061666993439497,0.03276088577805537,0.2773882912736991,0.022340970333488162,3.046875
0.00916071760990113,-0.11762705336570255,-0.12189890450719242,0.2249449835017472,0.0025652795790219,0.058043361760578414,0.13178289690764855,0.09467911080998298,1.7192836897705577,-0.177574586220971,-2.1741818022500756,0.034521382789985795,0.29244398801817384,0.02353588992289837,3.0546875
0.004561366661821325,-0.05924973549553862,-0.06107520803249449,0.11297268102638243,0.001032262227074318,0.028924345678937997,0.06633635996615021,0.04769149027921786,0.8643963748518123,-0.08909165541931845,-1.0932958451687727,0.01756488941790702,0.14692732788462248,0.012012260252732311,3.0625
-0.002548856410801242,0.03099192565863467,0.03298274710013848,-0.06014213624384362,-0.0013386590253814936,-0.01609665513259665,-0.03486471269443343,-0.02495762342631323,-0.45760619660341056,0.047740496713137764,0.5785063761237256,-0.008656465779295177,-0.07801922010292417,-0.005803257255518784,3.0703125
-0.006545891870640189,0.08171408241895431,0.0858648298352707,-0.1574560986645407,-0.0026717405792912267,-0.041408406727356344,-0.09174984639546147,-0.06580344246219354,-1.200916166402271,0.12467840796519314,1.5183914136661119,-0.023402541317877185,-0.20450059282193497,-0.015816511691619326,3.078125
-0.00511671797574478,0.06356679364569681,0.06694941535159356,-0.12264272064214646,-0.002194949334219454,-0.03235917170746234,-0.07138993643467957,-0.051203373816363223,-0.935142715583029,0.09717258080980334,1.1821057295672708,-0.01813379510653735,-0.15930150141659727,-0.012233137102308791,3.0859375
