AF3,AF4,F3,F4,F7,F8,FC5,FC6,O1,O2,P7,P8,T7,T8,time
-0.0031012317114846176,0.037991556989056464,0.04032741356828615,-0.0736014932453139,-0.0015233207676100015,-0.019608664428541978,-0.04273031697183942,-0.030605708314409213,-0.5607604728399843,0.058409579089253906,0.7085135304931799,-0.010702218541462933,-0.09556512940902911,-0.007187216906705689,0.0
-0.004546703324341752,0.056333769506329616,0.05943392325259262,-0.10878132247949485,-0.0020048893865995893,-0.028754652212949545,-0.06328591978930054,-0.04536808399515167,-0.8292377947173055,0.08620431988260828,1.0479992860960912,-0.016029585328462177,-0.1412898394549039,-0.01080879372321104,0.0078125
-0.0011717291980410623,0.013502978567521378,0.014742502622226962,-0.026575983903358087,-0.0008790908773537745,-0.007367042654961625,-0.015242771370820876,-0.010886108818255476,-0.20128422302852828,0.02121882900742878,0.25458649335020794,-0.0035779742445780915,-0.03441286585261601,-0.0023501749142071852,0.015625
0.004700789108333805,-0.06101568510041134,-0.06294066443780529,0.11638093860228634,0.00107850779447999,0.029815263483663416,0.06830931926087634,0.049103559319663995,0.8903814113183813,-0.09178183190827971,-1.1253700509091045,0.018073820764100922,0.15139829861839907,0.012362660286992231,0.0234375
0.005019029396660265,-0.0650520850323527,-0.06709797063707956,0.12408427906530735,0.0011838363872359108,0.03181219358228295,0.07280771778938283,0.05235031958883967,0.9489566604729703,-0.09787061008047927,-1.1998979645780719,0.019237098814486896,0.16136612494346048,0.01315641271629122,0.03125
-0.0005388383257313675,0.00547588442639833,0.006449502737602538,-0.01123095806788779,-0.0006692116359278811,-0.003384361940488861,-0.006289383066364862,-0.004426127982708492,-0.08448194510530044,0.00908578889245666,0.10627254393044348,-0.0012595013574903397,-0.014518088869170677,-0.0007703064789717276,0.0390625
-0.002609979559898781,0.03176163269007751,0.03382324544330532,-0.06163789677965072,-0.0013594555055611041,-0.01648932255589499,-0.035753082222395385,-0.02558372441017486,-0.46921553016185774,0.04893145935384294,0.593060743883682,-0.008890196095437054,-0.07997641519716088,-0.005958475314840334,0.046875
0.002177209842641182,-0.028983289295114442,-0.029512965543293735,0.05489401385994567,0.00023607391926958824,0.013819806165588928,0.03236367348562299,0.02331291672603675,0.4207902077105037,-0.04316225979996216,-0.5316624488596617,0.008762851405111809,0.07150914629022961,0.006036404724209531,0.0546875
0.005364843136537978,-0.06944105151582909,-0.07165480547783655,0.13248464110029745,0.0012982451929503978,0.03398942050661711,0.07771620356471431,0.05587103742032884,1.0130638061654955,-0.10446990791609206,-1.2807321781117778,0.020511353993304,0.1722895730660728,0.014023234870811812,0.0625
0.0017245491761020584,-0.02326147299850933,-0.023501757581081955,0.04390106840634681,8.539853401610359e-05,0.010939593664998519,0.025941762631610143,0.01869232862311229,0.33634022617983317,-0.034446637095614324,-0.4258289648501429,0.00709184057977162,0.057079972051941846,0.004904355554859532,0.0703125
-0.00257654352954229,0.03131337151401474,0.03334705139286999,-0.06075651772352343,-0.0013470669740745283,-0.016280406520090055,-0.03521613573583104,-0.025232254646839893,-0.4627610593231875,0.04826031241306514,0.5842943354702816,-0.00875461730646026,-0.07895468230039687,-0.005869740159108852,0.078125
-0.0024561902568187334,0.029796246236332934,0.03172770001994457,-0.057829345945532316,-0.0013066067888732756,-0.015512549875865502,-0.03348905799195492,-0.024001493082916527,-0.4401080121961004,0.045927580069083374,0.5559230731465437,-0.00830613722535629,-0.07512568617119228,-0.0055680840705221845,0.0859375
-0.0017794830073413744,0.021218900781642507,0.02280063878139103,-0.0413929777327102,-0.0010817798305554618,-0.011228621259115562,-0.023881029102806012,-0.017094080140222522,-0.31449129687809185,0.03292741340141092,0.3971666362310265,-0.005820468797079553,-0.05373828156007318,-0.0038740477521391255,0.09375
-0.0036204404390164885,0.04457778967551748,0.04718076734561777,-0.08622222236969095,-0.0016960546578943208,-0.02287541953254665,-0.05009490536573046,-0.035898585517186644,-0.6569331230038971,0.06835941698907676,0.8300151429653592,-0.01261767011189307,-0.11195412631452101,-0.008487452566554187,0.1015625
-0.004505909789164985,0.05580606876960567,0.05888612380811308,-0.10776192799134908,-0.0019912203646685203,-0.028468171535329163,-0.0626962986834986,-0.04493918753554346,-0.8214921298987548,0.08538572855789134,1.0382927331881648,-0.01588032865751907,-0.13989111302821458,-0.010706115738613187,0.109375
-0.0019746973960712354,0.023681126262378664,0.025379885622869035,-0.04612715302179394,-0.001147277365362915,-0.012442169357295915,-0.026677811766131935,-0.019084122510267726,-0.3507930720664406,0.03667510790994972,0.44356357707174665,-0.0065390062331426215,-0.05978326140802117,-0.004363793043735609,0.1171875
0.0020790375369877725,-0.02776147237547423,-0.028254583080595745,0.05256336682044908,0.00020425356746640598,0.013213499839030033,0.0310104965857001,0.022321382043882683,0.40288454955383396,-0.04131965871132881,-0.5092967059628345,0.008411494526652522,0.06843021880092195,0.005794377141515516,0.125
0.006136503197475394,-0.07924779875805447,-0.08192257538834556,0.15133211470229807,0.0015569654692105602,0.038897212675244576,0.08875642667780562,0.06376802573043346,1.1571366280314346,-0.11937912917471762,-1.4630740106778484,0.023366903710781813,0.1967695518054247,0.0159619815790185,0.1328125
0.008676579610934536,-0.1114693228196268,-0.11550362081736444,0.213135525798824,0.0024033101463129575,0.054973993739986134,0.1248857855158111,0.08971003931062106,1.6291002181454644,-0.16823048830611853,-2.0596914143964344,0.032723195654261274,0.2771177131941552,0.02232496722003827,0.140625
0.006117900841813972,-0.07898628103929267,-0.08162899907816928,0.1508095507996976,0.0015496752517146113,0.03876050119215066,0.08843506296617965,0.06356223383576812,1.153097163273438,-0.11897290090436986,-1.4577714025707809,0.023284345605419917,0.1961322146717114,0.01591057920606784,0.1484375
-0.0012015137600385566,0.013895009101741162,0.015212670836310222,-0.027374441050738493,-0.0008903192084966593,-0.007590446453543989,-0.015734689192060922,-0.011206506944904951,-0.20773061680743604,0.02186556402982224,0.262395727354257,-0.003700695914376092,-0.03547056175735076,-0.002430108932657371,0.15625
-0.006533900406812933,0.08154908304110302,0.08575062344471278,-0.15715409337442715,-0.002667303069152486,-0.041342854987267426,-0.09158424922403666,-0.06566256510084434,-1.1988768793942117,0.12444532872066706,1.5150582397767767,-0.023358742057988467,-0.20417016651448017,-0.0157890612881976,0.1640625
-0.006570233601669141,0.08200566175174927,0.08621519924003913,-0.15801653012877773,-0.002679148572199153,-0.041559285267839585,-0.09207559745448564,-0.06602570636694757,-1.2053994491970166,0.1251169789055555,1.5233699232569748,-0.023491917846670807,-0.20530235099318994,-0.01587850153484264,0.171875
-0.006274044242530647,0.07825409431098813,0.08226976490703997,-0.1508008873093389,-0.0025806090999130906,-0.039683643211693355,-0.08786585797231032,-0.06301225654887109,-1.1501675489698915,0.11940270603274014,1.453965242194015,-0.022396435173534048,-0.19593520462708175,-0.015135942177978198,0.1796875
-0.008461685897895496,0.10601512823854391,0.11118552243832547,-0.20404897900159405,-0.0033098834723205408,-0.05353902824740256,-0.11899489059590239,-0.08537181888325449,-1.5567464374404796,0.16149641125938974,1.9681614184752716,-0.030458456022650494,-0.26515208230141984,-0.020615984032374877,0.1875
-0.007081201561595669,0.08848683790593563,0.09293117591042868,-0.1704411049998081,-0.0028495227630408963,-0.044793071768180676,-0.0993323482432539,-0.07126169275679149,-1.3001262118733075,0.1349432612513153,1.6435354419866774,-0.025371556840250165,-0.22145806148874342,-0.017156405204691257,0.1953125
0.002797805366392986,-0.03687967062736935,-0.037720140504644326,0.07003260638352013,0.0004436374016742544,0.01776062061884407,0.041237360982542715,0.029671999747973674,0.5362526647011715,-0.05513636523281108,-0.6782845844570613,0.011049452473755182,0.09112022164442145,0.007592561869626258,0.203125
0.014371229955246185,-0.18373703443291978,-0.1908054919708619,0.3517557860531239,0.0043016464917767375,0.09102698040686058,0.20588984234429938,0.14790088620965391,2.687682358761706,-0.2778227190834988,-3.3981929348631477,0.0537297654048223,0.4572962964344161,0.036585491302822466,0.2109375
0.015434682889632527,-0.19722821996142642,-0.20489664926155576,0.37765008197775435,0.004656373083454252,0.09774815063279176,0.22101851016262622,0.15875336141013996,2.8854457490251897,-0.2982741231007297,-3.6481320379499205,0.057660549005815805,0.4909461358680509,0.03925099555742987,0.21875
0.004372450681374715,-0.05685519662401344,-0.058580722876042345,0.10836594130481046,0.0009687374173439703,0.02771631915843639,0.06364583259116684,0.04574035504138667,0.8289926992852498,-0.08540524272608312,-1.048284715252494,0.016864240536499365,0.14095195777552152,0.01154074702354485,0.2265625
-0.006163330623884589,0.07683809328115206,0.08080071537619711,-0.14811466174897267,-0.0025438045077549047,-0.03897155290799069,-0.08625115279524699,-0.06188534097317218,-1.1297301131931332,0.11731625686337467,1.4279218590483078,-0.022000163721327248,-0.19239023539376168,-0.014853215039045504,0.234375
-0.0055251106799192855,0.06873823756319249,0.07236744729452363,-0.1325753303391128,-0.002331103578030413,-0.03492547675729158,-0.07718387149620652,-0.05535977506854562,-1.0111023958145229,0.10501202995177894,1.2778324197947541,-0.01964666371400876,-0.17219401541469997,-0.013256474344004756,0.2421875
0.0005188321082899063,-0.007960563018824614,-0.007600249232499758,0.01457150667393718,-0.00031574157610902314,0.003334119025780165,0.008810896774668692,0.006387027941598745,0.11267923590711526,-0.011303007178032218,-0.14293398938460924,0.002654451523742127,0.019041690647899946,0.001884006002222362,0.25
0.0006455759588382059,-0.00956584214689729,-0.009290187795568386,0.017658929709210666,-0.00027315352395557407,0.004131970384918817,0.01062189482315752,0.007682964363779518,0.13639455398917746,-0.013740871617479633,-0.17277614381050826,0.0031281647680817264,0.023052458314921205,0.0022017550846697986,0.2578125
-0.003180032883219221,0.03899423452423684,0.04133344591864063,-0.07549239784184072,-0.0015489152724667498,-0.020094100208468246,-0.04383337700852407,-0.0314031842536298,-0.5749299994120525,0.05988474889484378,0.72675589582254,-0.010984796188443792,-0.0980046424377196,-0.007383517744961037,0.265625
-0.0024065853504274923,0.029187991496648177,0.03112665618120401,-0.05667778442663326,-0.0012916593303123132,-0.015206396279602068,-0.03286506347483997,-0.023509329729399047,-0.4313683128105468,0.045015221252429134,0.5454067723771402,-0.008136481987121169,-0.07354880631713942,-0.005447373704357936,0.2734375
-0.00035534573891536007,0.0031472706109826037,0.003994359045413743,-0.006728981860003835,-0.0006078430437840817,-0.002220312041215254,-0.0036772163696584216,-0.0025536052303211394,-0.05005726969081538,0.005545417092775701,0.0632937861884848,-0.0005711027512102944,-0.008647894293995767,-0.00030821504468135587,0.28125
-0.004519049015193879,0.055970579289568737,0.059062999924936604,-0.10807562937571281,-0.001995527055720745,-0.028571963888547786,-0.06289016876921581,-0.04508104932364302,-0.8239845129698529,0.0856496666930964,1.0415954738681101,-0.015927553962679735,-0.14038953425446205,-0.010738992353619232,0.2890625
-0.007973308365710132,0.09981082002970904,0.10475585227267294,-0.19217768304293378,-0.003146937521995082,-0.05044115233779356,-0.11203107374312006,-0.080369559505976,-1.466121177865358,0.1521119303642042,1.8533128933263812,-0.02867132415928319,-0.24971061559485883,-0.0193933146155024,0.296875
-0.0007097367194834817,0.007650802737219303,0.0086796021555371,-0.015373936494610385,-0.0007257434641978516,-0.004467560489453147,-0.008695481856438134,-0.006178221945712818,-0.11592078476288745,0.012370587363197303,0.14628417560283802,-0.001888513072997764,-0.019926457925961923,-0.0011948354376337376,0.3046875
0.009131449234937278,-0.11723429583751373,-0.12148759772312478,0.22419129949358588,0.0025545159685656663,0.05783205620518619,0.13132250658214048,0.0943523000221178,1.7134131471676077,-0.17695896432949867,-2.1664147806765666,0.03440273970927813,0.2914460582505983,0.023461981346594156,0.3125
0.007941730552700765,-0.10214486436354754,-0.10573347095966147,0.19522148543178602,0.002157519789033172,0.05030732261746359,0.11438874046228967,0.08220787296586962,1.4921313360199184,-0.1540593042790782,-1.8865546491014618,0.030017013965334103,0.2538332054380881,0.020478941795170208,0.3203125
-0.00011994218125136098,0.0001601951439077436,0.0009009750771350006,-0.0010353388009932836,-0.0005297097704659891,-0.0007233208094018766,-0.0003213478154463603,-0.00013859687876809323,-0.006418908073120318,0.0010317174444829554,0.008004900709720162,0.0002929132027050687,-0.001207213471564022,0.00027773896723610054,0.328125
-0.003295875268221173,0.04046094142835957,0.04287140302231273,-0.07831517216252326,-0.0015875124650858244,-0.020821171208224302,-0.04547987512278132,-0.03258110568660454,-0.5964532632969916,0.06209607630428957,0.7536881763104845,-0.011413726366795792,-0.10167487117311853,-0.007676337559415479,0.3359375
-0.002209543983026689,0.026651653865934623,0.02846748648283292,-0.05180454947690832,-0.0012247648311996368,-0.01392852504521341,-0.029970037632288962,-0.021482443871293395,-0.39428895457328567,0.04116675930460819,0.49771325094293545,-0.007408417322596343,-0.06728877283783595,-0.00494619045670557,0.34375
-0.0020724332045750694,0.02489417529130948,0.02666250346038658,-0.04844661031111567,-0.0011795131679917927,-0.013055140497794295,-0.0280146733554871,-0.020083682416442535,-0.369013798247381,0.03854373890276202,0.46574831103615916,-0.006906251979990293,-0.06293489831223031,-0.004599706693184475,0.3515625
-0.0005815163825182829,0.005995797741370735,0.006955385144015313,-0.01220720000221312,-0.0006831204033826086,-0.0036321645737104943,-0.006853507026806587,-0.004865329712693704,-0.09209102304826774,0.009892393766178014,0.1161293956546038,-0.0014055342442457367,-0.015744736165547894,-0.0008704342252417984,0.359375
0.0029233499897486598,-0.03844787635981837,-0.039425227265528426,0.07305756599568224,0.0004855752276483177,0.018541151149781276,0.04298857905098601,0.03092818905775777,0.5596037670956306,-0.05753438251713869,-0.7073919839834675,0.011525530592593366,0.09515950922820961,0.007905086898437344,0.3671875
0.0028383774653963664,-0.03737256364565342,-0.03831756077875554,0.07099850948111534,0.0004579668518806026,0.01800787382363067,0.04181357831362973,0.03006889187992521,0.5440287273281975,-0.05591911995273748,-0.6878713050060024,0.01121226672031663,0.09245464359627945,0.007693425080800037,0.375
-0.0001392325683026042,0.00038633381814622865,0.0010944093012621166,-0.0014452349244122148,-0.0005346426401769514,-0.0008331920283501191,-0.0005229078834865866,-0.0003303015744382104,-0.009566960049014995,0.001361054164144776,0.011711913631520033,0.0002271201750431359,-0.0017949563669102592,0.00023621513743638856,0.3828125
0.0012710409712349618,-0.017510487323550993,-0.01752501073701892,0.03288862636470637,-6.515850543120577e-05,0.008088908746133295,0.019519111939215298,0.014079590824818624,0.25248183132692925,-0.025757969432917947,-0.31938268086841026,0.005425746780659387,0.042797737151616555,0.0037685180924464496,0.390625
0.005901036829021699,-0.07623404955174015,-0.07875310533147592,0.14555222960611122,0.0014777138957708501,0.03738397871534887,0.08534645001446824,0.0613635994785599,1.1131833977085288,-0.11481765647498707,-1.4070478651201432,0.022497516838259526,0.18927155186312059,0.015364922235686125,0.3984375
0.004892039582486358,-0.06341125847785263,-0.06538895371286892,0.12094634130833663,0.0011410462872755202,0.03098498260145071,0.07095886541705691,0.0510469624604907,0.9254335957306526,-0.09538945129220051,-1.1696696205412078,0.01876990297367761,0.15731018828758783,0.012834399249643079,0.40625
-0.0035943255410807767,0.04426559572959507,0.04688268408475481,-0.08563214435723325,-0.0016880063444576637,-0.022739795135684842,-0.049784630801756734,-0.035641795386887734,-0.6524817035016819,0.06789187784929553,0.8246961582984159,-0.012527902218902008,-0.11122467608551281,-0.00842640395713661,0.4140625
-0.012689688143039874,0.1596642592287143,0.16717369824279898,-0.3069975529559933,-0.004719751271515046,-0.08030955760325299,-0.1791675508017606,-0.1285514031512861,-2.3432674866425787,0.24287671201829675,2.961896806940213,-0.046060921715574715,-0.3989639243058692,-0.031209480038012456,0.421875
-0.015124583052255412,0.19056268391878067,0.19934576908653454,-0.3662500235145852,-0.005531186436797732,-0.09571225004344973,-0.21379037445803356,-0.1534274291106515,-2.7956045035885166,0.28971148903821425,3.5338794846468136,-0.05503301541114117,-0.475935567018213,-0.03730697064384215,0.4296875
-0.007246963079911372,0.09060426419271803,0.09514294279925803,-0.17450366671308012,-0.002905189324814403,-0.04583737204506969,-0.10171226670937109,-0.07295354486988222,-1.331117302508251,0.13814058985861127,1.6826491315530872,-0.025986476668799424,-0.22666650657178922,-0.01757319535097735,0.4375
0.006487067626695687,-0.08369130180813576,-0.08651546684686037,0.15983140737768278,0.001673214932434546,0.041111732322241766,0.09369998647996201,0.0673533621337396,1.2219149817781656,-0.12611310712329457,-1.5450135506001563,0.02465596225344808,0.20786956352032013,0.01683348345229314,0.4453125
0.013409480345835213,-0.17156381043241944,-0.17811579920439854,0.3284041500861404,0.00398141361165071,0.0849475953071097,0.19223960033323423,0.13807303833027157,2.509010122738363,-0.2593206733439284,-3.1723701644081435,0.05018729698743053,0.4269128513938063,0.0341821907501977,0.453125
0.008407771567026361,-0.1081013862491341,-0.11199367982868655,0.20667730268393184,0.0023144700088613165,0.053289295025220014,0.12111797949541911,0.08697098301950537,1.57946059999046,-0.16308844962466612,-1.997295010224875,0.03174351132032484,0.2686597858163359,0.021657919391824522,0.4609375
0.002604934607702337,-0.034441171672880806,-0.03521475129307657,0.06536490699394046,0.0003797753084926545,0.01653651012771162,0.038532574245508315,0.027682370751109193,0.5004459648680787,-0.05141494460519402,-0.6332145019176506,0.01033596971538157,0.08499053773958201,0.007117301285166902,0.46875
0.0033439934185060653,-0.04379719036444766,-0.044950136524661594,0.08330423728939379,0.0006257795938818824,0.02119896631104863,0.0489992235303995,0.035232558672903876,0.6374688196146773,-0.06562492971247944,-0.8064532516664641,0.013057580378557315,0.1083286516013483,0.00896179688814643,0.4765625
0.0005792652780236553,-0.008716529688004172,-0.00839072058476004,0.01602835255574788,-0.0002957703946428314,0.0037100166013933336,0.009659843475090165,0.006998932141187198,0.12378296940695571,-0.012461328315490459,-0.15686816879236412,0.002871738129635549,0.02092037837165306,0.00203451001445878,0.484375
-0.010406521550179973,0.1306834396498205,0.1368960994573239,-0.25136786671806866,-0.003957884418267113,-0.06581644867600443,-0.14662788063653742,-0.1052198089827706,-1.9179754462017562,0.19888405538050627,2.424710369592642,-0.037631151615275145,-0.32658172227507926,-0.025486238925530147,0.4921875
-0.01341999526102899,0.16893705847160015,0.1767791885294093,-0.324767226852367,-0.004962752106490799,-0.08490543553436995,-0.18953043098062852,-0.13600532227692724,-2.4783216882175667,0.25688636809304727,3.133321682961126,-0.0487450033326534,-0.42194548067505167,-0.033040512607573354,0.5
0.0007311179758579648,-0.010620866973831671,-0.01036013818665842,0.0196603964265805,-0.000245602297114825,0.004649920204091691,0.011762988752662523,0.008552909399334412,0.15185035374477301,-0.015348013404818171,-0.1918726406470596,0.003438070893230132,0.025728857162694237,0.0024054240836836453,0.5078125
0.012975534906958417,-0.16600418421851648,-0.1723168166302709,0.3177391739889209,0.0038362500232845976,0.08215742574305655,0.18597319784346245,0.1336364998114838,2.4279923708106086,-0.25092161742748925,-3.0695669925715507,0.048594721102930755,0.4131375393471824,0.03308262665847694,0.515625
0.005979660874198408,-0.07723987155046814,-0.07979703911116698,0.14747044861158715,0.001504126979498619,0.03788198874623384,0.086468496990764,0.06216856776215991,1.127687108460905,-0.11631941570490185,-1.4257481672630423,0.022794270023168237,0.19180624232333005,0.015562665472447043,0.5234375
-0.006174824304148357,0.07699943416176748,0.08097308666216729,-0.14841527392302456,-0.0025477953851521886,-0.03906096665698203,-0.08645023162454599,-0.062002209378297896,-1.1318645366396858,0.11753910628778154,1.4307288759395316,-0.02203690185994695,-0.19280578926343817,-0.0148851625557692,0.53125
-0.0029132523515000264,0.03561302209885928,0.03783127797742897,-0.06902728258558927,-0.0014604113216461474,-0.01841942605501631,-0.04004532036503563,-0.02868747678487314,-0.5257311020508743,0.054777651815306194,0.6642220114399894,-0.01001363489840408,-0.08966619215768658,-0.006714913454421498,0.5390625
0.007692337864668188,-0.0989829171406043,-0.102469652735963,0.18917918405750303,0.002075323817201203,0.04872662241682437,0.1108628887424424,0.07965750947625075,1.445927869326871,-0.14929662262464952,-1.8285038212695248,0.029101611697846294,0.24591670093007287,0.019856431114224922,0.546875
0.004770290951020791,-0.06191454463446323,-0.06383357048380535,0.11807908349383406,0.0011012724109741923,0.030240977930479463,0.06929865860907461,0.04981049527605479,0.9029707032504264,-0.09308478750724254,-1.1418973965870602,0.018331105623701934,0.1535313350468654,0.01253811711683553,0.5546875
-0.008749691209480218,0.10965859413155893,0.11500061522109385,-0.21104931149261189,-0.0034058247855279344,-0.05534652335477296,-0.12307246308787294,-0.08830570358008444,-1.6102862913758094,0.16704481814831926,2.0356844705577712,-0.0315275600970765,-0.2742158947317448,-0.021333931229516313,0.5625
-0.011956427187815626,0.15035942433834973,0.1574174863790927,-0.28912484148677514,-0.00447472375091593,-0.07564787557718883,-0.1686988014775088,-0.12106528729131859,-2.206412589992144,0.22873484317969428,2.789321252774298,-0.04335715937343657,-0.37569966259373516,-0.029368923980564454,0.5703125
-0.001223263059378448,0.014145579971892504,0.015441878535138405,-0.027830825459530095,-0.0008966420451600633,-0.0076925022397988565,-0.015964097989424497,-0.011415222424870995,-0.21112082700223345,0.022213837045137762,0.2666199316660035,-0.0037802681600591984,-0.03611750987015791,-0.002478188592260063,0.578125
0.00565002278448127,-0.07308957005738026,-0.07546637045462043,0.13949761396693205,0.0013943817695674775,0.035824313020048314,0.0818369471954202,0.058802007566346896,1.066489817749253,-0.11002269774540109,-1.3486366767753553,0.021564548719649138,0.18136310724256724,0.01474187515516813,0.5859375
0.0003239999140840243,-0.0054949433109169905,-0.004999765415302717,0.009824964163647514,-0.00038139998964290185,0.0020987208810612037,0.006028707352700697,0.004390609626210117,0.0761749319346003,-0.007530375571333881,-0.09654933215012873,0.0019257759882753218,0.012861232325756753,0.0013962389913940829,0.59375
-0.004479690245349926,0.055481396550572736,0.058549429120377805,-0.10713502455079367,-0.0019826239944980882,-0.028319161148669152,-0.062340060630912,-0.044680287038023306,-0.8168339489528439,0.08489606345935372,1.0323905275747636,-0.01578489793534047,-0.1391220149732011,-0.010640739498897234,0.6015625
0.0003358433511173458,-0.0056268132840247105,-0.005151140802978989,0.010094812361824516,-0.0003768770538077941,0.0021702585520379934,0.006194854747702141,0.004522796176570952,0.07855158790365739,-0.00776653886109712,-0.0998082285286878,0.001974916635704816,0.01324386736607222,0.0014236858335559053,0.609375
0.005578435046557078,-0.0721679144346509,-0.074503925525942,0.13773085996491577,0.0013709788016302727,0.035361585440585035,0.08080855336661802,0.05808180262122043,1.0531874689332414,-0.10863327925560523,-1.3320693066599512,0.02130842483796076,0.17912171885601857,0.01455860195553066,0.6171875
0.003130698687637552,-0.04110550021693882,-0.04213290114445246,0.07813874492482532,0.0005547310928330423,0.019856696904529885,0.045966273584879376,0.03306512993031199,0.5980169115003208,-0.06152168393646099,-0.7564157519750105,0.012285203163903007,0.10167220354577618,0.008425998620603573,0.625
-9.385591169528387e-05,-0.00016595354562808133,0.00051638366323785,-0.00038466742662059404,-0.0005205740797396513,-0.0005669465365137932,5.613672250855355e-05,0.00011302423911276829,-0.0014634639327317021,0.0005307956445403123,0.0017578237626686085,0.00039842462464523585,-0.0003664678920440735,0.00034693018310331134,0.6328125
0.0018530827301660136,-0.02485652679599172,-0.025233892985949028,0.04698948696208221,0.00012838623801653273,0.011755840743236717,0.027746931140278337,0.020002889633670112,0.3605985253685529,-0.03693023668969731,-0.4558325166880476,0.007579193708743979,0.061218220388390504,0.005223796630794785,0.640625
0.003348984588982226,-0.04384416210967368,-0.04502033394418242,0.08341326760006902,0.0006273089375053674,0.02122644979933496,0.04903809083073181,0.03528852405666798,0.6387835594763982,-0.0657211750024672,-0.8075037591320176,0.013094161956527637,0.10854480928892898,0.00897049177473737,0.6484375
0.0013975998786923296,-0.0190961745841417,-0.019219019286832555,0.035939981206589575,-2.2907228213770326e-05,0.008876075670950745,0.021285215830995144,0.015353168570870393,0.276035203710221,-0.028192979981100465,-0.34896150527233877,0.005896374301876537,0.046808296994280324,0.0040822318972272825,0.65625
0.0007571343529171451,-0.01097618791017877,-0.010754131322639802,0.020367335020985592,-0.0002363705251367716,0.004830408934194868,0.012188686509524888,0.0088111647418044,0.15697574802598227,-0.015884693923739836,-0.19860786429893393,0.003530408024778974,0.02653597383884719,0.0024804252740942673,0.6640625
0.0004850781240825184,-0.007521376466471188,-0.007140475298024428,0.013733861224985459,-0.0003273374011692137,0.00311438670151206,0.008330622355557421,0.006036878944494439,0.10634910853726752,-0.01063985791016649,-0.13477413900814664,0.0025200630175803247,0.017904424371752697,0.0018013062400212662,0.671875
-0.0038790318154669125,0.04786241098441418,0.050605410652337444,-0.09252170517652425,-0.0017824325325211123,-0.024518736307043824,-0.053768011659217525,-0.038545037606084895,-0.705066991095931,0.07335491207615338,0.8910621079926763,-0.01357688123478839,-0.12018655432960258,-0.009132169544260913,0.6796875
-0.006657902422119247,0.08312647476315103,0.08735924934512601,-0.16016797911785766,-0.002708755373272292,-0.04211881159101671,-0.09332529148104586,-0.0669389952968028,-1.221711427076946,0.12682628196668574,1.544410493881105,-0.02382026652129546,-0.2080887623123819,-0.016095934794352233,0.6875
-0.0023341747687677028,0.028257777451084036,0.03015329184389358,-0.054899726413658485,-0.0012672190411452062,-0.014744067868466893,-0.031819836650787046,-0.022770993307597593,-0.4178456594366198,0.04361123503142749,0.5282620223661637,-0.007870651359154296,-0.07125156763004879,-0.005265339663743734,0.6953125
0.00014762607032780422,-0.0032412757331097566,-0.0026698666594430617,0.005526781972093475,-0.0004399007254465261,0.0009777448644809738,0.0034980263382839894,0.002589333327844206,0.04358150934938982,-0.004154657247705152,-0.05524247558224309,0.0012799099905605725,0.007291977378127761,0.0009525504508705802,0.703125
-0.004906012367122391,0.060873549975092416,0.06418795141622959,-0.11748090103780949,-0.00212460990795667,-0.031006075025058418,-0.06837781394596147,-0.04902800981497472,-0.8959283171012741,0.09308631599425599,1.1321096167328584,-0.017360235411656037,-0.15260523440439608,-0.011705791538240754,0.7109375
-0.006100403453650041,0.07601276213622433,0.07997745687675412,-0.14653449323208662,-0.0025225706277766627,-0.03856222469740589,-0.08534246265648164,-0.06122552165429911,-1.117992625847651,0.11606692810879826,1.4125439434534106,-0.021763182804934552,-0.19040021697728374,-0.014695719156295924,0.71875
0.0011580076782556762,-0.0160953995249262,-0.016045740624124363,0.030162153850048945,-0.00010284331436171593,0.007386519462058768,0.017927161319386674,0.012921308433711007,0.2313575167661997,-0.02359423583844115,-0.2931730110086673,0.005008384261981327,0.0392588437507109,0.0034879741657749845,0.7265625
0.0033168549502230853,-0.043471182515870295,-0.044596652975300966,0.08268877841852504,0.0006165514210697095,0.02104395344596487,0.048612592858903174,0.034968069902814335,0.6326933065974969,-0.06511743425387918,-0.8000745132522624,0.012970672462499088,0.1075723938476857,0.008894351869593984,0.734375
-0.00219940967018989,0.026545635445949085,0.028367892178180143,-0.05161944470734396,-0.0012223549475654306,-0.013884669149107907,-0.02987976670077664,-0.021390365669709248,-0.392718873963016,0.041036234759066474,0.49647065288436215,-0.007373001724672845,-0.06696337833061186,-0.004925198098307392,0.7421875
0.0003043302998774302,-0.0052237187772611925,-0.004771039633022683,0.009320341636667125,-0.0003872828515990825,0.001965154384066619,0.00576435204693641,0.004184762071762273,0.0727896294611079,-0.007141823187598878,-0.09223157097400923,0.001860428113231448,0.012233935075434615,0.0013479676189671697,0.75
0.011501109861124606,-0.1473026950433175,-0.15287162686243239,0.28186062238361176,0.003345191567256826,0.07284119715384237,0.16505804655670953,0.11856435332184732,2.1540989533691675,-0.22257455377299676,-2.7235295945378835,0.04315054828146517,0.36646628096347694,0.02939504257309378,0.7578125
0.013903238467942421,-0.1777737485673875,-0.18460506028948853,0.3403066449417451,0.004145241733978282,0.08803516934051987,0.1991864434093248,0.14310069118821495,2.6003681118463606,-0.26877184207972393,-3.287513583017761,0.05200604041385392,0.4424491680189553,0.03540818924494949,0.765625
0.006193327248765954,-0.07994468528584325,-0.0826129923642927,0.15265246104149327,0.0015750293524307557,0.03923066152170346,0.0894926658789843,0.06434468785396134,1.1672090408894051,-0.12043507441371125,-1.4757041032203335,0.02357454875945275,0.19851947225328026,0.01609540785047373,0.7734375
0.0019152244532363142,-0.025679022430728476,-0.026069089704188895,0.0485777720364067,0.00014978601504496184,0.012168222727204836,0.02868173936092281,0.020651760206978075,0.37240968766769655,-0.03817075901014044,-0.471126438382886,0.00780441251531729,0.0631878567150226,0.0053844348053709605,0.78125
-0.0007330408203532984,0.007934420484708205,0.008941186248635343,-0.015893715403107148,-0.0007327558872828555,-0.004596891453977531,-0.008997587672406012,-0.006403765556363917,-0.11972390618796766,0.012765338639924656,0.15119209152379434,-0.001957424104625678,-0.02059906235855885,-0.0012513383177758853,0.7890625
-0.00983865871081449,0.12352143683192553,0.12942956696058394,-0.23763402336547357,-0.0037689952197886524,-0.06226868481456491,-0.13862867529371206,-0.09943640922431297,-1.81282342749722,0.18800452729483333,2.2920706777322426,-0.03553980015078978,-0.308727679559191,-0.024071878591722703,0.796875
-0.015621646935754088,0.19691423743010533,0.2059556472558598,-0.3784314516485913,-0.005697195118471624,-0.09888760611259038,-0.2209329803210128,-0.15851516186287007,-2.888135429296233,0.2992978171851566,3.6514715727819986,-0.05687172148259169,-0.49171505333386245,-0.03856117575259265,0.8046875
-0.009415252963817212,0.11811075823602486,0.12382993216232509,-0.2272662055080001,-0.0036277348173252284,-0.0595653428201027,-0.13255108342435717,-0.09509962083353286,-1.7341615131459507,0.1798545960084188,2.192115783265575,-0.03398687473976095,-0.29530654276236423,-0.02300286686613429,0.8125
-0.0031047147198901555,0.037990539316325025,0.04032381272398158,-0.07358746892949995,-0.0015238940250640075,-0.019583727252513266,-0.042699654152933565,-0.030624711813077868,-0.560860578837009,0.058418490633521135,0.7085388047268132,-0.010715629896954107,-0.09558105202000378,-0.007186161621739829,0.8203125
-0.003662965321433103,0.04508002331421543,0.04772138191040115,-0.08720601878518244,-0.001710389734160365,-0.023120754081310573,-0.05065755012290618,-0.03633010996283693,-0.6648335150849227,0.06918358028001273,0.8399688708545305,-0.012774667200319502,-0.11322867302030312,-0.008587519967033818,0.828125
-0.00022658817010709497,0.0014915969633806014,0.002287620343326636,-0.0035828170986242905,-0.000564763388729458,-0.0013849270623376608,-0.0017908173937510171,-0.0012285799057181813,-0.026227107124945023,0.0030784735586899497,0.032495222868992646,-0.00010358241382538524,-0.004544299521164422,1.799967104000899e-05,0.8359375
0.007603870419157118,-0.09787550087337665,-0.10129790655375322,0.1870576170459379,0.0020460620354589842,0.04817846028386512,0.10962803148512085,0.07876137687616167,1.4294742624594436,-0.1476005312628832,-1.807864771821642,0.028771067361203672,0.24316373424863358,0.019637171285862016,0.84375
0.006983426151665,-0.09000124810721492,-0.09310205941179002,0.171953383393857,0.0018391430067174921,0.044246010230176706,0.10079379447813476,0.07241582547382777,1.3141956792671838,-0.13566394205736187,-1.6617661940159616,0.026484192048948786,0.22351975142404293,0.018082352899476167,0.8515625
0.0020440229614351723,-0.02730522427023632,-0.027759201138380967,0.05166080804040009,0.00019215431205052183,0.012967560287699466,0.03048438811856878,0.021953754429281318,0.3959737007626181,-0.04060750354382284,-0.5006260808220762,0.008275810455160671,0.06724317346325392,0.005701600460653848,0.859375
0.005402921983203163,-0.06992068162783205,-0.07218559013261254,0.13340774281329118,0.0013119747881760267,0.034230569919466096,0.07826805166338822,0.05627324105738308,1.020502200141065,-0.10523656448149654,-1.2902885983885488,0.020668350017156573,0.1735245878970192,0.014113800118201812,0.8671875
0.007668883529200318,-0.09868249150515669,-0.1021689656184044,0.18861162120325498,0.002067631903470587,0.048587488268197226,0.11052793498576534,0.07942533877858048,1.441902678914493,-0.14886191828496545,-1.8231571513039146,0.029021910565829943,0.24523523376842765,0.019795748862835357,0.875
-0.0018997783158467773,0.022742414782768807,0.024396901726918822,-0.04429653796514069,-0.0011222581766897372,-0.011978635884901822,-0.025614171785708118,-0.018326476759556353,-0.3368903239785579,0.035228130974620527,0.425799335373313,-0.0062704580189622905,-0.0574935869065848,-0.004172822109540996,0.8828125
-0.005759587946617716,0.07173557802509802,0.07546221810654934,-0.1382922663356164,-0.002409066335647674,-0.03641671343229784,-0.08054704485332476,-0.05775396229310191,-1.0544875492424932,0.10950047461317335,1.3331213516671232,-0.02050332591895472,-0.17961570008905636,-0.013846403406324948,0.890625
0.00762600834091222,-0.09812162198052374,-0.10159169982210357,0.18752617203011596,0.0020532500009730874,0.04831466425461141,0.10990659468473957,0.07899271485059904,1.4339126674546745,-0.14802652625800267,-1.8128337263907135,0.02886410768682904,0.2438843665395361,0.01968516141386624,0.8984375
0.012378149965611172,-0.1584356272091664,-0.16445658022465487,0.3032256945362026,0.0036372991098055415,0.07839515351511597,0.17753124919968113,0.1275315410388773,2.3173388988331904,-0.2394418521601864,-2.9296887862567256,0.04638869512717112,0.39423773293107156,0.031593570506904214,0.90625
-0.008612097877926713,0.10792078863996335,0.11319623641088751,-0.20772469789360112,-0.003360329988641017,-0.054486396415363486,-0.12113063594413061,-0.08690742168424195,-1.5849195322122962,0.16442548475752053,2.003573359649129,-0.031022036291016346,-0.26987739420648676,-0.02099091757548935,0.9140625
-0.025560897431838373,0.3230002713224898,0.3374062287455923,-0.6203241427471918,-0.009010383737468314,-0.16178354745258888,-0.36229901548990595,-0.260046159808194,-4.735923112304668,0.4905149731686706,5.986840651759281,-0.09352765884034976,-0.8061432544706011,-0.06345633716754699,0.921875
-0.011774200108448785,0.14804865761785926,0.15505162032880038,-0.2847222853736906,-0.004414187481326821,-0.07450641947600249,-0.1661354682804363,-0.11919695724981709,-2.172989621556436,0.22524181843351146,2.7465658206890304,-0.04268715796539997,-0.36996692973828754,-0.02891939962553122,0.9296875
0.010271999779711112,-0.1317181412855452,-0.13658308328640884,0.2519687472111706,0.002935247837434448,0.06505945460331512,0.1475642883847004,0.10601580110135898,1.9255838297793195,-0.1989281742404436,-2.434685738762363,0.03861366666465261,0.3275593199885237,0.026316920379957174,0.9375
0.011003881499639032,-0.14100589070836528,-0.14628788770402595,0.26980518624337657,0.0031792747641395482,0.06969340436710116,0.15799123436420137,0.11348429084368979,2.061767382051635,-0.21300029812180077,-2.60668274977842,0.041316220694438854,0.35073452496484514,0.02815575478623862,0.9453125
8.688717822315571e-05,-0.0024712968570682883,-0.001887248662587726,0.004054356876172709,-0.00045984475402283,0.0005839626024973349,0.0026622223112071084,0.001962763679145445,0.03226953307735097,-0.0029632234221196223,-0.0411541517477918,0.0010610522492012977,0.005332059998278653,0.0008051148002528989,0.953125
-0.0023392321889090023,0.02830869586163861,0.030211931608883198,-0.05500831697967648,-0.0012686045166373076,-0.014769738551469628,-0.03185405454463223,-0.02281398967310458,-0.41876282190376724,0.043700724957882686,0.5290048292057703,-0.007887806543773605,-0.07143914256212121,-0.00527611377210872,0.9609375
-0.0008430718178245796,0.009316761313726649,0.010426180998793718,-0.018589881451636477,-0.0007701762979693385,-0.005290632905874588,-0.010561835269262502,-0.00752839203215887,-0.14055444316483628,0.014916263617377995,0.17763307775529788,-0.0023761656043078364,-0.02409229675851462,-0.0015284250665030482,0.96875
-0.0034778119932489383,0.042756613250617255,0.04528338602074758,-0.08273305396550808,-0.0016487602479711254,-0.021965888877677812,-0.04806055478817606,-0.034444823235647105,-0.6303224692168118,0.06561943934259504,0.7969339141348959,-0.012093430025760786,-0.10741726924593098,-0.008128322105501084,0.9765625
-0.001664327863954667,0.019751138338249766,0.02129732558638104,-0.0385809211415706,-0.0010439814881754946,-0.010485403519091245,-0.022272924847302637,-0.015915974201885133,-0.2932056052465089,0.030718506058617284,0.3703968346777105,-0.005399504092434492,-0.05000223330552951,-0.0035847160921603206,0.984375
0.007049395109228786,-0.0908312642142303,-0.09398309052882542,0.17356729374171384,0.0018613849670594553,0.044679694382475765,0.10172190611468673,0.0731030440621925,1.326778839571921,-0.1369605440531888,-1.6778672821955554,0.026740746213437454,0.22571096580679775,0.018246708222334623,0.9921875
0.008388165353421998,-0.10783224346369635,-0.1117098383296685,0.20617314698915953,0.002307896827887127,0.053157303875146084,0.12079921166882053,0.0867784052237267,1.5757415822850267,-0.1627228090079214,-1.9924541637661646,0.031676152751072245,0.2680532478972952,0.021602004358883146,1.0
-0.000994531149528399,0.011241190675964437,0.012426355876301177,-0.022275245788259894,-0.0008204577756379773,-0.006249722950031531,-0.012714065902343362,-0.009075355707206094,-0.16873209778760856,0.017837868576353895,0.21315747069046095,-0.002933277573105474,-0.02885660372901627,-0.0019069233529688905,1.0078125
-0.00478388427716843,0.0593580829165993,0.06259822216297578,-0.11459941258983666,-0.0020844836449378716,-0.030257828093438032,-0.06668792104125933,-0.04779150550582255,-0.8735394283368936,0.0907871542816388,1.104257567306611,-0.016912635676124513,-0.14879695961944264,-0.011406687930819346,1.015625
0.002905704908688179,-0.038203901812446164,-0.03911319251057715,0.07256202973226446,0.00047881836871380173,0.018411985654691553,0.04269577214137801,0.0307579592433889,0.5559376814299251,-0.05716119561417715,-0.7029129026193514,0.011449193560197324,0.09448551334279705,0.007854948495220084,1.0234375
0.006417451662797881,-0.0827861814838933,-0.08560345365362504,0.15810821960610846,0.0016501903611561338,0.04065162121350372,0.0927015436495179,0.06663446667436704,1.2090465801883772,-0.12476240533909115,-1.5287356015248665,0.02440628210822153,0.20560637169498558,0.016657550448382175,1.03125
-0.0026753173312468893,0.032571028225756186,0.03465690534693061,-0.06316724965419088,-0.0013805298853875711,-0.016900727004551964,-0.03663221723745214,-0.02624982859974276,-0.4812131972977368,0.05016152317821217,0.607869086304161,-0.009128020076004906,-0.08208930079101343,-0.006115772566536905,1.0390625
-0.010795290469742085,0.13561351116174142,0.14207994662100443,-0.2608343042332236,-0.004087792384511928,-0.0683059299880727,-0.1521757437582182,-0.10920500662968408,-1.9908346168333304,0.2064013662038642,2.516421331160133,-0.039079936142835045,-0.3390187058523924,-0.0264576197191301,1.046875
-0.0063692876563541485,0.07947102195246035,0.08353033520225589,-0.15314212120553775,-0.0026127909264389883,-0.04029156723302211,-0.08922518716269263,-0.06400058851542809,-1.167996075297308,0.1212610814902973,1.4765758286628352,-0.022757175684185445,-0.1989769571391962,-0.015372702001214433,1.0546875
0.00241405646873317,-0.031986078059130604,-0.032674898357750046,0.06066018388646317,0.0003154955477450059,0.015313251359751383,0.035754718823356006,0.025727879149663565,0.4649850550027231,-0.04773258257145757,-0.587746673625694,0.009642567444038885,0.07895348761912886,0.006630720169957258,1.0625
0.0038087039875549064,-0.04970818123876291,-0.051118517279029746,0.0946518329826058,0.0007809987578564483,0.02414755159733786,0.05561756080524513,0.039990317520238884,0.7242144972475508,-0.07457778340107152,-0.9158399959502954,0.014790249348414752,0.12310959062504029,0.010126330952498748,1.0703125
-7.521178147811817e-05,-0.0004339732761611992,0.0002802697398566438,0.00012880107528352104,-0.000513594686278158,-0.000433403418582839,0.0003536649318678148,0.0003265225807436161,0.002098617539117231,0.00013793553167532462,-0.0031825343334252808,0.00046421470907039567,0.0002523928463801713,0.0003956273923089919,1.078125
-0.0013898962940222701,0.016264293782822074,0.017670758668280644,-0.03189943373317523,-0.0009521031581877439,-0.00874887498800641,-0.018364546836079586,-0.013104362852530879,-0.24218152886482136,0.025424883743031493,0.3058398408745863,-0.004386464983577702,-0.041314534265753815,-0.002900977252397995,1.0859375
0.00020428171476325014,-0.003954834061257875,-0.003431364631633224,0.0068879494362068475,-0.00042090347477536673,0.0013465226841797677,0.004319055905509201,0.0031741270173332443,0.05430082844917161,-0.00524333603626771,-0.06878705900395565,0.0014925353995640022,0.009130500360293017,0.0010929884354082442,1.09375
0.0006104940986436975,-0.009120547713037698,-0.008798596987937262,0.016790514420475636,-0.000285691189917195,0.00391322109530382,0.010108493262716517,0.007318872340203149,0.12965502666276846,-0.01303698828135309,-0.16416784703022302,0.0029871128073232704,0.021949463128682612,0.0021151701300568303,1.1015625
-0.0003590381929102376,0.003176243558587006,0.004040593458230084,-0.006805497639098485,-0.0006091059422585371,-0.0022322407755300993,-0.0036845994820168463,-0.0025887916785226803,-0.05078172489344839,0.0056378558316586185,0.0638951352856376,-0.000593029038740566,-0.0087675308306458,-0.0003112853755861082,1.109375
2.6055031913962352e-05,-0.0016973113316841356,-0.0010625291993117258,0.0025468657551594542,-0.0004806777065548901,0.0002026611584632282,0.0017879687491393318,0.0013433067363764859,0.020905832269417075,-0.0017783241585312315,-0.02649178347958844,0.0008294350823900288,0.00340607736588493,0.0006503845309508811,1.1171875
0.002100035947460959,-0.02800787541355277,-0.028514696474997447,0.05302944684334638,0.00021110228708936027,0.013333394429888061,0.031294490853380284,0.02253268873142012,0.40666353021453644,-0.041709133420381135,-0.514060278215571,0.008483867287694048,0.06903517142342813,0.0058430554608913995,1.125
0.003091528014724967,-0.04060058974029739,-0.0416253883156268,0.07719203464023894,0.0005419091994142113,0.01961068039991683,0.04540829690843854,0.032664923267501395,0.5909291648760546,-0.06079883722750629,-0.747326356097503,0.012138745828465103,0.10039771011095179,0.008328610722840735,1.1328125
0.00090725790375529,-0.012887358792907103,-0.012715927774983662,0.024027874526687407,-0.00018640830750816625,0.005781342820910739,0.01433326886562126,0.01034955507863047,0.18463947136625572,-0.018763586090402264,-0.2340346065731034,0.004076802683625571,0.031265843033155,0.002858767739935297,1.140625
-0.0022927909326210185,0.027734727061695073,0.029616792535295977,-0.05389937888976614,-0.001253485805876621,-0.014479941683795034,-0.031212533983589197,-0.022344846179422992,-0.4103452496589054,0.04281454877430848,0.5182435564108528,-0.007723277956149026,-0.06998315673774556,-0.00516068179657793,1.1484375
-0.0019874613870453865,0.023868019576717223,0.02557632259749707,-0.04648330414703678,-0.001151749349187037,-0.01255037608612136,-0.026889995730403488,-0.01922378141589171,-0.35349446700507803,0.03693788963282081,0.4467040662228646,-0.006589166939554603,-0.06029908197451813,-0.004400041219520549,1.15625
0.0017756196358512967,-0.02389762276480795,-0.024192360424878347,0.04513841346860437,0.00010278460964447989,0.011271411070718593,0.026651402853804712,0.019223162419125327,0.34614381701222535,-0.03545980791436204,-0.4377067430809974,0.007289128118557064,0.05877221527478839,0.0050280108207812965,1.1640625
0.0030002685900444533,-0.03944986461733878,-0.040389954803916966,0.07496480974183692,0.0005109207448549881,0.019028047345924018,0.04409845976384862,0.03173074980665505,0.5738123686399237,-0.05900636118671282,-0.7256845170561835,0.011797558957262278,0.09750490689162271,0.008100986759425405,1.171875
-0.0010880954780764823,0.012436522334849088,0.013668599909093734,-0.024565343081900632,-0.0008521632664972355,-0.006847686571010732,-0.014055409517502731,-0.010043452734791302,-0.1861687738353923,0.019660907994443828,0.23511109290985222,-0.0032814035823387237,-0.03184787148766171,-0.002138394431695654,1.1796875
-0.0046717874729604834,0.057921539334649996,0.0610516154309691,-0.1118104661861631,-0.002046773652431283,-0.029531374501733862,-0.06504911541546132,-0.04665488950066776,-0.8522661630074,0.08860110328072396,1.0774062625722454,-0.016489401290194248,-0.1452045299457759,-0.01111786824766517,1.1875
-0.002690509656471857,0.03277679425935138,0.034850723827614595,-0.06357630433954296,-0.0013859971857052723,-0.016991191930893917,-0.03686686981423744,-0.02640628843124847,-0.48391803731482,0.05047141029647914,0.6117175410960276,-0.00917768890508241,-0.08250241189479232,-0.006157087833907936,1.1953125
0.0006521587609888396,-0.00964718216840142,-0.009346096406243065,0.01779880415525224,-0.0002713702718705563,0.004163885594251793,0.01069410493219723,0.007747996877794471,0.1373772557946735,-0.013842368480497039,-0.17400418789549776,0.0031462139759538764,0.02323893947519801,0.0022157079670761014,1.203125
-0.0001319202772868654,0.00030360548120429145,0.0010250298480370982,-0.0012855612440530843,-0.0005325864033292572,-0.0008024286996952079,-0.00046075298895004727,-0.0002637931402067,-0.008439893775321452,0.001238470780825409,0.01028846005178861,0.00025151795837948535,-0.0015825210621663826,0.00025135256967235724,1.2109375
-0.0020291744304961738,0.02438539293343272,0.026108954574832876,-0.047468372139797564,-0.001165076813408408,-0.012808015319566001,-0.02745886098433363,-0.01964755127234671,-0.36103059973145624,0.037728621384024025,0.45631187331319595,-0.006744536531376041,-0.06159211784061731,-0.0045012298105044715,1.21875
-0.00013535041996857406,0.00035662120552703175,0.0010634846325956833,-0.001370524927104077,-0.000533909474755547,-0.0008122333304736556,-0.0005155801864965079,-0.0002966057726157202,-0.008898303433637341,0.0012874874983374886,0.011235272906757247,0.00023840728861751248,-0.001654443050422868,0.00024388839808900742,1.2265625
0.002553887256811141,-0.03377301672867838,-0.03448927580851235,0.06408987776618347,0.0003623673029880022,0.016210306256251382,0.037747296914018305,0.027177503451089557,0.49086128309561217,-0.050439100769589885,-0.6208677296314454,0.01015201129877944,0.08341481227871064,0.006981780268003579,1.234375
0.0012151983591714235,-0.016793444978165158,-0.016777073816758126,0.03150893579650029,-8.410935166911954e-05,0.007727012323584118,0.01869848959533221,0.01349327666753611,0.24177178655421966,-0.024666403553503503,-0.30620426764941067,0.0052138092139649515,0.04102306937425922,0.003629016013923076,1.2421875
-0.0009699999460433205,0.010933960371656289,0.012114904109702842,-0.0216793439888289,-0.000812716827690221,-0.0061080681181891515,-0.012392441328415976,-0.008837667271009562,-0.16443134172467808,0.017375024238999455,0.20744760783937188,-0.0028434731612528032,-0.02813352633824285,-0.0018446938692237467,1.25
0.0012794790769127499,-0.017605099207242726,-0.017647721810969696,0.033070847258996554,-6.276742684969691e-05,0.00814328096630026,0.01962335055365209,0.014149946850238576,0.2539866863893761,-0.025922533474129008,-0.32135787805947363,0.005452784362420991,0.04305383104476541,0.0037902807426636637,1.2578125
0.004917895024308243,-0.06377295037068667,-0.06577259705004715,0.12163306941771845,0.0011503775291393313,0.031187345030345218,0.07140653648546258,0.05133250074011495,0.930525259909166,-0.09593574246236677,-1.1767146621306028,0.018870945102403083,0.15820248627722616,0.0129044329192014,1.265625
0.0036317267568257575,-0.04745882524728529,-0.04876075482401803,0.09033352147267183,0.0007216672101873276,0.023042983642943465,0.053111177216486005,0.03819188405574461,0.6913663615399638,-0.07117445782977842,-0.8744019062228902,0.014129385734914637,0.11752930628957016,0.009682814477343336,1.2734375
-0.0013514797261184007,0.01577258161636499,0.017152732896948533,-0.030964138207609352,-0.000939864444483734,-0.00851504562535473,-0.017808028051389823,-0.012729999548545546,-0.2351752286000735,0.02473064852519261,0.29719271219492294,-0.004246653948514844,-0.04013406950196004,-0.0028002066229445657,1.28125
-0.004466305543845485,0.05530621774430807,0.0583608524481067,-0.1067982785137015,-0.0019784876938053397,-0.028241752121446265,-0.062152625706750425,-0.044557160535147765,-0.8143286529929442,0.08466837440822374,1.029635489419218,-0.015733566413855777,-0.13869133514623044,-0.01060476944711671,1.2890625
-0.005130342496283102,0.06374163312996758,0.06714819272051753,-0.12297650221397285,-0.0021996067558754657,-0.0324471272688815,-0.07160885249773309,-0.051335253488877575,-0.9377401408586593,0.09742489828950594,1.1855867777398492,-0.018181469088179223,-0.15971999214295649,-0.012271169495388787,1.296875
-0.005339842444389097,0.06640350553518759,0.06990779844858103,-0.12808231714937407,-0.0022689614850624736,-0.033776402874241815,-0.07457645563767627,-0.053473440333444575,-0.9765579444979035,0.10143678578015808,1.234366641113403,-0.018952214774478785,-0.16638870163528569,-0.012797287630350951,1.3046875
-0.0031082582369370854,0.03808804222637427,0.040379740660574655,-0.07376545531533354,-0.001524843008683006,-0.019655294118734137,-0.04281821973391223,-0.030681123258856188,-0.5616462562420232,0.05850128853789719,0.7096836577150911,-0.010722006687124544,-0.09581453868692587,-0.007206282001766151,1.3125
0.002892358539243726,-0.03805846187490364,-0.03898499889677891,0.07230919339291851,0.00047545749297005463,0.018333428750612543,0.04255134546192624,0.030622359969929836,0.5538006514208345,-0.05695185975893101,-0.7003999639485475,0.011406171060332614,0.09405682371976348,0.007826883563312645,1.3203125
0.0071967686679423725,-0.0926915768778955,-0.09591334060678122,0.17711777361430917,0.0019103933469772876,0.04559658233486009,0.10380180912748146,0.0746072650864817,1.3539683522870753,-0.13978549311640195,-1.7119430542498228,0.02727863973105626,0.23028747733956403,0.018611760361546947,1.328125
0.004798495109961621,-0.06227084985432437,-0.06419823383637611,0.11876291656538933,0.0011109675996324488,0.030427504431939277,0.06970987984444857,0.05011255659106229,0.9082490211257365,-0.0936470604326243,-1.1486108977374752,0.018432388187289806,0.1544274253184659,0.012607185395402142,1.3359375
-0.0002389352794266879,0.0016538943083697242,0.002431843629934747,-0.003872186094613219,-0.0005685006663384125,-0.0014609910593694994,-0.0019470740545634807,-0.0013534524674505082,-0.02816226640282123,0.0033007232374901363,0.03504723057135636,-0.0001469531136588771,-0.004946280693806314,-1.0196350535244752e-05,1.34375
-0.0014353979678647848,0.016843253452659943,0.0182754185299842,-0.033019816345060016,-0.0009677224830259905,-0.009037981589592755,-0.01898965021123168,-0.013578156758141717,-0.2507463009953699,0.026344660343698856,0.3164843901743238,-0.0045607562405981334,-0.042773332485630665,-0.0030090706549418204,1.3515625
3.905853690832182e-06,-0.0014239983099863772,-0.0007562633446386898,0.002024002006444517,-0.0004880632129059203,7.670773750488971e-05,0.0014692270610117358,0.0011276884229946677,0.01671765082410522,-0.0013635797614835541,-0.021417150772587545,0.0007470979956600573,0.0027842705225576466,0.000594389162855892,1.359375
-0.0006902812736688153,0.007382229626187594,0.008403510988489921,-0.014855791906211616,-0.0007193431289139198,-0.004318585379842652,-0.00840531965288354,-0.005970286631762747,-0.11217389796527892,0.011965009410288599,0.14176006061876206,-0.0018114577163937302,-0.019215562194729675,-0.001144537019465802,1.3671875
-0.0030641302081321677,0.03751526718373254,0.03978992032225558,-0.07265310779198239,-0.001510682892434758,-0.019359771582497402,-0.04218378985484617,-0.030233131610167475,-0.553354548034438,0.057646756319422315,0.6995962985878026,-0.010563125188643826,-0.09437538617872843,-0.007091219050171456,1.375
-0.0036240365233545058,0.04462848447527232,0.04722114143945465,-0.0863110764767827,-0.0016976178390366158,-0.022915676809891965,-0.050172365069713766,-0.03595266725013803,-0.6576494462805215,0.06845186191085666,0.8313681608011732,-0.012625782622347018,-0.11208960990110192,-0.008496249136148068,1.3828125
-0.0017166551617722643,0.0204195552200354,0.02201842717459267,-0.03989107501986642,-0.0010618854567279214,-0.010836916543255649,-0.02304432280920502,-0.016454315684590163,-0.3033136823365491,0.03176178003463422,0.38325809826107593,-0.005591483385908988,-0.051705187217106756,-0.00372096740101616,1.390625
0.0013861167959476836,-0.01895433019597751,-0.01903513466303928,0.03563725618226855,-2.713056126216836e-05,0.008809647035401928,0.02111557755681092,0.015247040492914683,0.2735816343601065,-0.027954774631327162,-0.346123784592312,0.005850297646242986,0.04646202784224388,0.004051101217282553,1.3984375
0.003981378726580073,-0.05187392629830958,-0.05339214204646566,0.09880560977180555,0.0008385327051406484,0.025229330743442326,0.05805138278927318,0.04174831268907514,0.7562832094716786,-0.07789769083048363,-0.956289529479208,0.015420985654488985,0.12852934988215275,0.010554018581879172,1.40625
0.0030437570142719064,-0.03997198456258689,-0.04099658862845082,0.07599161942746335,0.000526013574023249,0.01928795803283498,0.04471411237367708,0.032162973079030766,0.5820160047918818,-0.05985352182463622,-0.735951687514668,0.011962635524168829,0.09884073710668355,0.008208028785352765,1.4140625
-0.0015677754942114116,0.018526174191504555,0.020008508476817774,-0.036227217578400826,-0.0010114596534773956,-0.009888663079510189,-0.020878397423826432,-0.014936418483769816,-0.2753481806829928,0.028863838069099892,0.3477694645275003,-0.005045471130041904,-0.04704066048054031,-0.0033412675307843,1.421875
-0.0036485795778137707,0.04491125048901083,0.04753050423520503,-0.0868548204370247,-0.0017050432190315668,-0.023040895022257004,-0.05045951986417925,-0.036179330449561516,-0.6621182168395836,0.06887696244732795,0.8365282955236044,-0.012719961285780245,-0.1128441891686034,-0.008553026571598765,1.4296875
0.0003424995046540249,-0.005728558858500178,-0.005261104182985579,0.01028203916162662,-0.00037454225026968487,0.0022222388081863703,0.006313618153356199,0.004590892645700702,0.0799074552222769,-0.007914428888153288,-0.10149025362278419,0.0019991229409304077,0.013440239848610345,0.0014428885319659177,1.4375
0.0034513255767839746,-0.04516275227770404,-0.04637180952056031,0.08593537715989535,0.000661390046983578,0.021887515474780354,0.050509773494330334,0.03633652906634681,0.6577690639145836,-0.06770454324100222,-0.8317571985166284,0.01346437989316935,0.11180201996712881,0.009229169197218202,1.4453125
-0.0004160879607527235,0.003914623601888919,0.0047881909168986615,-0.008201507877041698,-0.000628249433458103,-0.0025975360847479614,-0.004520905201036286,-0.0031784532246043233,-0.06127539681787867,0.006724716570266495,0.07737890553643217,-0.0007983354706015014,-0.010554407152155663,-0.0004571560101094487,1.453125
-0.004652552976437807,0.05766422079880525,0.06081592569857382,-0.11130907871309462,-0.002040250044783704,-0.029407255581083504,-0.06476844105547667,-0.04644998407962047,-0.8487753364520917,0.08822810922553095,1.0727688609768566,-0.01642143333174262,-0.14458911281968023,-0.011067393074387524,1.4609375
-0.001476207176332002,0.01735503120449224,0.01879990130749467,-0.03399167238097251,-0.0009809320303287917,-0.00929719750126817,-0.01956911242563219,-0.013992711557817191,-0.2582138263896603,0.027097515529976034,0.32606951450464083,-0.0047071854161904745,-0.04409221843928713,-0.003112197262448622,1.46875
0.0038625666691051064,-0.050383692598820876,-0.05180314576724957,0.09594191963224186,0.0007986393418060855,0.02449190401174047,0.05635742787056263,0.04054466058829145,0.7341895067519951,-0.07562189409908776,-0.9283138578299829,0.01498033932063416,0.12482445688593069,0.010256870110668928,1.4765625
0.003217077807726907,-0.042183366739878665,-0.043259147862263495,0.08020849472290824,0.0005830786732074697,0.02039858511366817,0.04715200311455786,0.03394246568775952,0.6140834419987212,-0.06318731031635684,-0.7762457343189738,0.012599572881884832,0.10440076289046978,0.00863772367633712,1.484375
-0.0003243720010099463,0.0027589875158004684,0.0035683793339666265,-0.005994657785339909,-0.0005972461179574767,-0.002021801136721541,-0.0032142979786314143,-0.0022377165583000462,-0.04423304875399935,0.004956193446901303,0.055863907396716816,-0.00045745451112357466,-0.007661964094263549,-0.00023113721769471273,1.4921875
-0.0007845373624541052,0.008595892483167741,0.00964065523734006,-0.017177998580169072,-0.0007501454288895889,-0.004934309562502324,-0.009737865845030188,-0.006934845401687364,-0.12968888973142334,0.013797259212272907,0.16361002337686884,-0.00215112426943105,-0.022242601932748376,-0.0013809808887367942,1.5
-0.0006661237995828896,0.007091519341177649,0.008084682884734438,-0.014294181837987491,-0.00071092248078624,-0.004185280604755369,-0.008064996591520775,-0.005726851365342385,-0.10775330918663177,0.011515680685757328,0.13584551575742748,-0.0017170674464990863,-0.018510411841182427,-0.001085041257952378,1.5078125
-0.002834243424981422,0.03460347959943926,0.03678247973930893,-0.0670902458627032,-0.0014344187134455722,-0.017910254103630844,-0.038931400183548556,-0.027881815985008503,-0.5109848221954975,0.05325259625247627,0.645725930973048,-0.009718886907752588,-0.08710759763893736,-0.0065178172139257915,1.515625
-0.0028034613135075985,0.03420738223195946,0.0363738521913841,-0.06634175996376,-0.0014241850993114368,-0.017710038242565264,-0.03847828036345416,-0.027564652228164274,-0.5052468274653261,0.05267274945712712,0.6384322623524648,-0.009606204829640115,-0.08611512657141347,-0.006439170878219692,1.5234375
0.0012031126506126162,-0.016644130176144977,-0.016642129903410196,0.031221895360101785,-8.781425901020011e-05,0.007662890392444979,0.018555041764352666,0.01337748869017476,0.23983194453032913,-0.024443671078959006,-0.3035714782995333,0.005174763221579779,0.04067871605875978,0.00359999330049671,1.53125
0.002546567754216998,-0.03369419193164927,-0.03441864748060448,0.06394824614121256,0.00036039448896178425,0.016171258362893844,0.03766633161884606,0.027107896728340766,0.4897376168745919,-0.05032635702958878,-0.6193995095660214,0.010132117124964531,0.08319568424673908,0.006964463531200262,1.5390625
-0.0013149032310020195,0.015315979473817902,0.01667755733805627,-0.03007414677538301,-0.000927342461788087,-0.00828182910891511,-0.017301300323541734,-0.012346225358331657,-0.22828650787214702,0.02398337361570016,0.2884124568205818,-0.004111905358286859,-0.0390015051349034,-0.002711850425568912,1.546875
-0.0029034234062401917,0.03548242635299624,0.037707338613909513,-0.06877870980749498,-0.001457376633303235,-0.018348119386347932,-0.039912360684319366,-0.02858202379801011,-0.5238548056266635,0.05458839063116061,0.6619570014090066,-0.009974522620188648,-0.0892915175418535,-0.006691490618060506,1.5546875
0.0015688036406446167,-0.021269552435987864,-0.021455106171084887,0.04008855928024887,3.359958431992308e-05,0.009962908861384834,0.023729775321429787,0.017103508363112817,0.30753867177197747,-0.03145230071149314,-0.3891529557314788,0.00651729360238012,0.05219938238482549,0.004514396098284648,1.5625
0.004890105212358023,-0.06341933921503155,-0.0654056514457469,0.12096214322794743,0.0011411482618215265,0.030993939571031706,0.07099064205644892,0.051033983020082975,0.9251929061093729,-0.09538783883937235,-1.1698329457658285,0.018766664297397758,0.15728975579178203,0.01283545151703666,1.5703125
0.0020372721631826195,-0.02721934811964419,-0.02768087836691244,0.05152856756764186,0.00019035227706273178,0.012936729141229156,0.03039812836954936,0.02189138440150012,0.3950206109068764,-0.04052339300507636,-0.49948056383575334,0.00824872095491986,0.06703682626008174,0.005686851511274032,1.578125
-0.0014239238129773626,0.01669626581278456,0.018095613293880423,-0.03271972898234749,-0.0009633075644832464,-0.008971591119612649,-0.018839254325737655,-0.01346346316900077,-0.24836244030461543,0.026070153172798986,0.3137918720000818,-0.004510650462845661,-0.04244680411428274,-0.002984703669912957,1.5859375
-0.001039151925057765,0.011805685310266706,0.013002634630620477,-0.023343809155701667,-0.0008350476760163444,-0.006530524703937189,-0.01335312932122813,-0.00953037372558403,-0.17685092358307583,0.018676755137548563,0.22337237154253953,-0.003090253829984018,-0.03024022131957328,-0.0020188508376118132,1.59375
-0.0013887553677281931,0.01624570193305218,0.017639117139316735,-0.03186695057138717,-0.0009520174066314297,-0.008746975097417627,-0.018337381172372828,-0.01310734862883203,-0.24200663136330935,0.02542573983913294,0.3059241900670785,-0.0043848507252291155,-0.04131021884798129,-0.002893520809116066,1.6015625
-0.0046075082017528034,0.057103948326913664,0.06023426640663225,-0.1102527615990674,-0.0020254159116823802,-0.029137310920583293,-0.06415510800736879,-0.045996415868264064,-0.8406140497529807,0.08738421177430658,1.0627242455771595,-0.01625781327906193,-0.1431889692455761,-0.0109588352843069,1.609375
-0.003743937022841845,0.04614938678425726,0.04880499328788908,-0.08923350037710356,-0.0017372091476025753,-0.023673906233526904,-0.05186339429961389,-0.03717089362526511,-0.6800491495914046,0.07076671901926006,0.8594409325836627,-0.013065094440117218,-0.11585846062612862,-0.00879662458514821,1.6171875
0.0031947210194301296,-0.04190643313494678,-0.04300419821361067,0.07970204678110362,0.0005764738728538885,0.02026832254086016,0.046888052501736645,0.03372316702117589,0.610186352669237,-0.06277122446536842,-0.7719753882956534,0.012532023209528478,0.10373291014843584,0.008587969599857921,1.625
0.006051176993722125,-0.0781504098212518,-0.08078677048139841,0.14922994281256668,0.0015284697620477142,0.03836107562004395,0.08752991702057397,0.06290481048360125,1.141308010972462,-0.11774298773949851,-1.443353211887995,0.02306052760900404,0.19410822291773586,0.015744625048359856,1.6328125
6.909015639120648e-05,-0.0022261437914123943,-0.0016119684611874546,0.003557030021487883,-0.00046670505818625045,0.0004724092885735848,0.0023710884527253346,0.0017818637902169234,0.028792430793598167,-0.002611209574645245,-0.03661213958782419,0.0009850551515017125,0.004745316044993387,0.0007539211802126204,1.640625
-0.003959020496505796,0.04888632781620754,0.05170593816516127,-0.09451071660947759,-0.0018099221000979792,-0.025047766920399093,-0.05497273328909206,-0.03937415502245236,-0.7204703523430014,0.07491391132195299,0.9107099817032744,-0.013876668373863603,-0.12276869480305078,-0.009340849628063454,1.6484375
0.0009863402374915935,-0.01389279761468928,-0.01372939108841267,0.025937470346032,-0.00016067063492785632,0.00627302663498117,0.015425420538271147,0.011156457506484278,0.1990871337889603,-0.020266378186259416,-0.25200882490689785,0.004364929126373206,0.03374493377181863,0.0030529388815621434,1.65625
0.004797001372102857,-0.06226374528070048,-0.0641793095112829,0.11875457711316521,0.0011103963098311564,0.030425437895977937,0.06970385937223314,0.050096890049091805,0.908045319359024,-0.09361981457833427,-1.148466841868902,0.01842279436161514,0.15438950964545478,0.012607161669373536,1.6640625
-0.0005939277861451203,0.006155723854848025,0.007115933491837503,-0.012498812135944023,-0.000686662988624551,-0.0037022364362173225,-0.006992847119140671,-0.004977785734622451,-0.09398561352884763,0.01011389269299112,0.11844542281020734,-0.0014556212067937215,-0.016169473925337664,-0.0008984153921887713,1.671875
-0.005940359294223549,0.07401537637491204,0.07785093956254528,-0.14269470439301135,-0.0024691702991651372,-0.03757271752247638,-0.08310640980565136,-0.0596049915401537,-1.0881688844197022,0.11300773788803385,1.3756080124753838,-0.021168603505274313,-0.18536321632739947,-0.014299332649971793,1.6796875
-0.002519557070632724,0.030610164717649012,0.03260699804813082,-0.05942826587115297,-0.0013288413833783248,-0.015925626573984757,-0.03445755110379462,-0.024661912727372934,-0.4523617181143292,0.04718760898002673,0.5719143541591267,-0.008550107837123117,-0.0771348495458557,-0.005732295625358878,1.6875
0.002153895210642274,-0.028693665268880807,-0.029224623144953957,0.0543551790394208,0.00022908549265245536,0.013673668824514363,0.03205555175292677,0.023081349670167305,0.41660228446499614,-0.04274750549118036,-0.5267866700387067,0.008683101085575632,0.07075291982425629,0.00597954010385158,1.6953125
0.00016964941497237267,-0.0035128288734536882,-0.0029860921174649246,0.006054126909863766,-0.0004325036663981808,0.0011184059892485275,0.0038373159772807958,0.002807196917606319,0.04780006246643906,-0.0045660675521254955,-0.060639868286147015,0.0013627386476017696,0.007979731549787832,0.0010108894130827785,1.703125
-0.0022238061844767104,0.02685216374550982,0.028681846479192197,-0.052213987570952976,-0.0012303679909388728,-0.014042783853615343,-0.03022832970852487,-0.021644919613072185,-0.39728014827497704,0.041496470167006985,0.5020971040375145,-0.007462575574788011,-0.06775588739479506,-0.0049879244356278345,1.7109375
0.0013095201393550104,-0.017992692388508036,-0.018040718380508615,0.03380164029704172,-5.23703200399479e-05,0.008320094842241369,0.020034246506906484,0.01445766845613143,0.25947781787925966,-0.026491504530300525,-0.3281818337514484,0.005569487968295292,0.04402373578268304,0.0038612530827168653,1.71875
0.004537396475816674,-0.05894541783027012,-0.0607291923839239,0.1123728932067993,0.0010236159140138107,0.028758851500899858,0.06596383341744497,0.04743807164136911,0.8595763626974271,-0.08860829259989951,-1.0869888976882705,0.017470677338329122,0.146133054393772,0.011948454777491917,1.7265625
0.0014665387636557947,-0.019965524215680677,-0.020115021114816743,0.037611460206948076,-1.9621286525708104e-07,0.009323345581517232,0.022278120013550007,0.016063987092253963,0.28876955978900903,-0.029523273223847842,-0.36547248223087997,0.006143635222314744,0.04897552404369399,0.004257287169993778,1.734375
-0.0023804291048099818,0.028841776086948944,0.030753329305900568,-0.056015360441941976,-0.0012824497150846275,-0.015023654988885846,-0.03244325565305986,-0.023236118383159095,-0.42627339042558177,0.04449618555348731,0.5385750255958297,-0.008039733074943486,-0.07269048639622935,-0.005378167923452436,1.7421875
-0.0011523440512969825,0.01323965669892968,0.014501831169224301,-0.02609403620787704,-0.0008728741417939039,-0.0072410426684216935,-0.01495570888519019,-0.01068308026892628,-0.19790442063014507,0.020864817926713904,0.24996162199764801,-0.0035070154571110227,-0.0337904239881522,-0.00230043874492481,1.75
0.0009656882003707464,-0.013633057002894343,-0.01349253176999182,0.025445184604208103,-0.00016710562383868218,0.006162574686548818,0.015166227644758222,0.010956388060425823,0.19565124916539348,-0.01987776787433462,-0.24763968951580625,0.004301092759318565,0.033192385050812734,0.003003554788676871,1.7578125
-0.001153285189909976,0.01327444783710224,0.0145631323911206,-0.02618170830701739,-0.0008739875846118781,-0.0072688253566583726,-0.015016468310798167,-0.010699488375845917,-0.19855934069753656,0.02091444303680916,0.2506396555170877,-0.0035180416948995107,-0.033915591388344137,-0.0023084136788796656,1.765625
-0.0037790083785180437,0.046593624014338274,0.049288895748563474,-0.09009785116651549,-0.0017493636588349966,-0.0238959886833802,-0.052377971996928806,-0.037531334660802766,-0.6866680673567604,0.07144398925878502,0.867792570698642,-0.013202074149682294,-0.11700237379968591,-0.008884963881734893,1.7734375
-0.0013587820250174618,0.01586588069218617,0.017249812179699058,-0.031140634281672522,-0.000942279105616229,-0.008561465777412047,-0.0179081375884697,-0.012806444177551106,-0.2365089901332711,0.02486636954398913,0.2988186229203129,-0.0042783398441748706,-0.040400871271779916,-0.0028158720985152403,1.78125
0.0033258568068040375,-0.04358229427690392,-0.04471703259647297,0.08290589577243754,0.0006194811919100319,0.021101231239897243,0.04875952872965704,0.035053492938102615,0.6343708237092541,-0.06528040067512059,-0.8022272427587693,0.012992335258541017,0.10780657079309969,0.008921577838670062,1.7890625
0.0036823423134381963,-0.048092254742185404,-0.04941408644250348,0.09155196735439645,0.0007382603257249942,0.023348606493789628,0.053804328939160304,0.03869620382835243,0.7004744983979029,-0.07214562832519338,-0.8859161833824957,0.014306801330628706,0.11905650094952118,0.009808832762102534,1.796875
4.1414070999272725e-05,-0.0018833861892589344,-0.001261006709748113,0.002910733658854498,-0.0004752995292374864,0.00029435163971028414,0.001978732488129047,0.0015018540475405422,0.02374180904701562,-0.0021040968357997555,-0.030205290438718762,0.0008893102064047536,0.003885373190085569,0.0006829638106608677,1.8046875
-0.0018694161111479043,0.022361174553731433,0.023984413292007158,-0.04358184125800768,-0.0011119870288654684,-0.011796897389009362,-0.025199353167717615,-0.018020217765276045,-0.3311747446349823,0.034650279539563504,0.4188331540769831,-0.006149829664914776,-0.05652443179532781,-0.004102090945019348,1.8125
-0.001081398240473388,0.01236172144757229,0.013556174778014199,-0.024393968352135236,-0.0008492440014838411,-0.0068089396064298785,-0.0139756976976686,-0.009972926590558267,-0.18468095120749695,0.019495271517650077,0.23362791718422304,-0.003246588736291723,-0.031605955637040564,-0.0021251645646358187,1.8203125
-0.0015721813793238835,0.018594021734102087,0.020075692716265074,-0.03636642343865461,-0.0010130119241326984,-0.009925120002949223,-0.020964517718750075,-0.014984342316246811,-0.2761944385118219,0.028955443832531434,0.34891526629563396,-0.0050609017564035436,-0.04718519642925828,-0.003356458742265868,1.828125
-0.003025419446921811,0.037034603115398156,0.03931652155991463,-0.07175662537909706,-0.0014975076989598658,-0.019126809545495845,-0.04164599012122981,-0.029822360958307637,-0.5464599352261074,0.056921555065350335,0.6903270198269439,-0.010418161179012977,-0.0931682534350153,-0.006999943638705448,1.8359375
-0.0008338452237026965,0.009215406649274208,0.010319170541816825,-0.018387229898902357,-0.0007667750873792319,-0.0052434238742556,-0.010451966590652137,-0.007428312336227848,-0.13892533079218503,0.014743547972463867,0.17519240310767156,-0.0023342323696605794,-0.02378849618439639,-0.0015088190495636923,1.84375
0.003985107204966466,-0.05194968002949813,-0.053434850716176714,0.09895171209831664,0.0008398137556572408,0.025272758948343813,0.05813067062281227,0.04180129333764596,0.7569880015806175,-0.07798663871922024,-0.9573923915383297,0.01543387760821273,0.12870304040419556,0.010566523322560108,1.8515625
0.0045782002089414945,-0.059486202381242685,-0.06128186391810125,0.11340344433834816,0.0010374196257022612,0.029031069892354322,0.0665768058307115,0.04785845199987341,0.867210121019486,-0.08939404149624454,-1.0968080579513753,0.01761952042230963,0.14747492298101675,0.012054323764146604,1.859375
-0.00038853564920444223,0.0035436721931228167,0.0044129812584876174,-0.007507093103162453,-0.0006186756989419781,-0.002410285411458231,-0.004095132868626098,-0.0028848155832171154,-0.05609907050472161,0.006185853980773876,0.07060268715031674,-0.0006937623406047549,-0.009651266550394194,-0.0003866795257067684,1.8671875
-0.004042163242974398,0.049918814549186626,0.052734949320962114,-0.09645285069349019,-0.0018369317482151122,-0.02553908900786085,-0.0560829814060625,-0.04021468033085686,-0.7352415138508399,0.0764922649424612,0.929455414543408,-0.014166887891134818,-0.1252429191074381,-0.00953749432810325,1.875
-0.0018384367762277675,0.021959223820629963,0.02358357891142213,-0.042807020950576154,-0.0011021371353084795,-0.011588739873460149,-0.02472580704015203,-0.017702386043887658,-0.32552760242400164,0.03407765890101801,0.4114369629054434,-0.0060436265719778365,-0.05554796895379782,-0.004016338477160154,1.8828125
0.0024697088072514095,-0.032706183623981526,-0.033395510657117176,0.06204668329973466,0.0003342717476111188,0.01567710137005398,0.03655866589267432,0.026308974331992783,0.47529856305956025,-0.04882445643052702,-0.6012018800506489,0.009842061782310164,0.08071933478412358,0.006772566861952836,1.890625
0.0032179668547172267,-0.042184515835308294,-0.04328167346823274,0.08021240220495798,0.0005834768929955167,0.02039847981532487,0.047168106600185895,0.03394478394554795,0.6142251390563576,-0.06320203707835843,-0.7767306771242385,0.01260285443939514,0.10437267577909091,0.008641638586780857,1.8984375
0.00020379276570381562,-0.003921315624311347,-0.0034033086826255146,0.0068120772298475,-0.00042175267296315185,0.0013078158083997978,0.004259057525073866,0.0031446053977347652,0.053740945539127526,-0.005184690831629627,-0.06791388808825888,0.0014875983700773508,0.009004163133203022,0.001088886668718515,1.90625
-0.002362224910917938,0.028625212075580764,0.03053771812157011,-0.05561071884885863,-0.0012770487919677033,-0.014924033291739884,-0.03222455926054997,-0.023060352312202475,-0.423207997062222,0.044171037146500725,0.534940545812365,-0.007976813188291503,-0.07216234645649611,-0.005336189157466492,1.9140625
-0.002153478336970503,0.02594678932172147,0.027769260251565932,-0.050467855635720954,-0.0012069153019619336,-0.013582014352645904,-0.029213282563780932,-0.020910641292003526,-0.38417436676694,0.040119113926905134,0.4853783234930348,-0.0072085770406620075,-0.06552081093199963,-0.0048096818483652996,1.921875
-0.0013901283686624454,0.016255300963831282,0.017666958358994005,-0.03187956520871515,-0.000952141043474659,-0.00874890624428314,-0.018346789584433885,-0.013110049316275435,-0.2421651973887679,0.02542589141682564,0.30600406814193065,-0.0043944974201233925,-0.04135935478758091,-0.0028973963194967676,1.9296875
-0.002183342254358875,0.02633700863909605,0.028158188672235056,-0.051222499709293566,-0.0012165924419617047,-0.013787574332787478,-0.0296480944323868,-0.021223111274286534,-0.3897283193496393,0.04070782899181237,0.4927027724281327,-0.007318050804615465,-0.06649571997032057,-0.0048864540779166915,1.9375
-0.002374740248909472,0.028767946490004744,0.030691668735909484,-0.055890751844094075,-0.0012804085567013363,-0.015007057876656677,-0.03236699001440283,-0.023179042374846956,-0.4254493589404299,0.04439931711821045,0.5374699868709756,-0.008018680402290578,-0.07258886535514886,-0.005366360211739759,1.9453125
0.00024125987289049636,-0.004441203406182494,-0.0039066331777566346,0.007807605255912197,-0.00040835221272957306,0.0015627667633339062,0.004866342777968777,0.0035542311528634573,0.06083473587617583,-0.00594000051593108,-0.07774112746828624,0.0016320189151885795,0.010196069170451384,0.0011879661817023282,1.953125
0.003170637870527063,-0.041614295534834735,-0.042653098852611454,0.07911822261355542,0.0005680560689114468,0.02011548880622794,0.04653701367640269,0.03348115106086997,0.6054924375733879,-0.06230589049763721,-0.7661064687129258,0.012432545287930703,0.10292292491020659,0.008526398598759982,1.9609375
0.003566187553039537,-0.04661979804475947,-0.047891296840623494,0.08872857127014477,0.0006998315287261529,0.02261655890727156,0.052147523846734864,0.03751349721207208,0.679116947542373,-0.06991438203826214,-0.8587392096401499,0.013887790901118606,0.11544850442404,0.009516267687701212,1.96875
0.0028191899627946983,-0.03713449285011162,-0.03801343339200733,0.07053140102465286,0.0004507494337667022,0.017880868057298438,0.041515536817336565,0.029876232204035805,0.5402023730790937,-0.05553505639190305,-0.6831350571309853,0.011133082981843222,0.09178563410106713,0.007644545444025173,1.9765625
0.0022920091910901214,-0.03044720448222108,-0.03103595479851018,0.05769574897631929,0.00027479505654741913,0.014541704475240502,0.034016329038539295,0.024489392676490526,0.44210675332715443,-0.04538079082844157,-0.5592600133315917,0.009189784083520317,0.07508795360647903,0.00632460596171743,1.984375
0.0004430261087734173,-0.006981164209622581,-0.006589395640567896,0.012694028280234032,-0.0003416261531369991,0.002842994311449278,0.007709681915743698,0.005599890529291567,0.0985477088730273,-0.009810088836413686,-0.1245746054575318,0.0023716565240167304,0.016619125273359084,0.0016940059471311983,1.9921875
-0.002343962935371233,0.028387594300376517,0.03024692243578175,-0.0551250050537429,-0.0012702567256531769,-0.014789666737526663,-0.03193177045817194,-0.0228693784692447,-0.4192206781329242,0.04378493248821309,0.5303843150314375,-0.007902985448372167,-0.07150513655731787,-0.005286222627213353,2.0
-0.003265408974430142,0.040069557520122714,0.04243541197889994,-0.0775341212110434,-0.0015771429965945763,-0.020620835372455307,-0.04502987497813028,-0.03227704536096577,-0.590590394951218,0.06150229829625324,0.7466957525919118,-0.011299184621823378,-0.1006556513534953,-0.007593992605417184,2.0078125
-0.002826961424741777,0.034492589248729166,0.036685633969481976,-0.06687483275727756,-0.0014315589493502873,-0.017856977995004335,-0.03880573866070295,-0.02779579955921928,-0.5096554378114346,0.05309822839698204,0.6437355409704797,-0.00968896874903327,-0.08685072781430103,-0.006497346476767228,2.015625
-0.0031060607035541046,0.03803912832392623,0.0404178248104001,-0.0737068587070754,-0.0015253702784362693,-0.019634713050481017,-0.042803972384942685,-0.030650816783494055,-0.5618772896378305,0.058500152252341724,0.7097533971344331,-0.010727551664539257,-0.09574107375929801,-0.007199415826318343,2.0234375
-0.0020439814639100747,0.024578590156414906,0.026346186221742292,-0.047867218985847775,-0.0011710993121272952,-0.012907310845963364,-0.027694268186567315,-0.019802815087818695,-0.36408956302560885,0.03804909358527807,0.4602036548279434,-0.0068087659091272575,-0.06211659299242311,-0.004539802596095708,2.03125
0.001794167096054945,-0.02412053622780178,-0.024471450711585047,0.04558869529757951,0.00010934511675235658,0.011399702639299607,0.026936938825516857,0.01941053164030051,0.3499092620917553,-0.03583626229390772,-0.44230633809268877,0.007357679133637119,0.05938621869845889,0.005076953355205417,2.0390625
0.003531783977733489,-0.046182068355432516,-0.04746462851694261,0.08791683965369528,0.0006889882135854279,0.02240119011337013,0.051672691477049185,0.03716437997027369,0.6729368880771369,-0.06927396334834099,-0.8509903050364407,0.013770796599044892,0.11438975123225854,0.009432245315995147,2.046875
0.00017137688544945905,-0.0035551823874627212,-0.0029888930447231846,0.006120634221452814,-0.0004317690998111818,0.0011265376772893534,0.0038629588129631322,0.0028332262806780298,0.04793995851024328,-0.004592787878244893,-0.0610494820615754,0.001369087920289241,0.008038047645257725,0.0010153840096847743,2.0546875
-0.0023885632637575867,0.028922846283561315,0.030886761509055748,-0.05620672092508204,-0.0012856507401744336,-0.015075861432882896,-0.03255025956092411,-0.02332013506409753,-0.4280785416357204,0.04467680468958448,0.540763511606366,-0.008081882034410454,-0.07299618144346909,-0.005397114421414121,2.0625
0.0007937245042172114,-0.01145412034736174,-0.011215244097297109,0.021248697602612637,-0.0002246319471117503,0.0050692603885584475,0.012731761625540768,0.009190319940088797,0.16357915479476307,-0.016559520733188074,-0.20724451252256376,0.0036559067317428607,0.02767565288609869,0.002574083577634162,2.0703125
0.004699859766503505,-0.06100869981501345,-0.06289129622640888,0.116326030483694,0.001077849263633496,0.029785848099874272,0.06828741623611549,0.049092434548227634,0.8897617473659898,-0.0917222031727951,-1.1252704692053734,0.01807102935576951,0.1512698871813984,0.012357015649842288,2.078125
0.0030309390962778393,-0.0398201190068055,-0.04081309503160601,0.07568798020135231,0.0005214064705788645,0.019211514275686504,0.044519383049770385,0.032038249202277956,0.5794867361517908,-0.05960358637515896,-0.7328072269771111,0.011920343232072743,0.09847514762146169,0.00817414972836543,2.0859375
-0.001606860780738709,0.019033298341375494,0.020536806084051996,-0.03721458630299867,-0.0010248423865042778,-0.010142277111108744,-0.021459018506981675,-0.015338584322527424,-0.2826116840017719,0.02963302919642073,0.3571794815633281,-0.005187470271376409,-0.0482600737511182,-0.0034436812998090067,2.09375
-0.002919091712823321,0.035682822237691626,0.03789289627177855,-0.0691480007598764,-0.0014620813779808138,-0.018437510064237505,-0.040109196893044305,-0.028734390159997483,-0.5264036321021888,0.05486124335666641,0.6652691652752044,-0.010030223687448077,-0.08977822275753287,-0.006729497612040772,2.1015625
-0.0006626770290478945,0.0070507076552246695,0.008043588934975303,-0.014206671028799762,-0.0007096088440134066,-0.004150677797822787,-0.008009397624135148,-0.005679339407843549,-0.10688763834721905,0.01142553354507923,0.13490307771969745,-0.0017075758578548284,-0.01837723494092621,-0.0010767430765817926,2.109375
0.0003196189707570621,-0.005414902788007378,-0.00495020151324232,0.009705565445341685,-0.0003823395756349477,0.0020631862390664657,0.005948397086358118,0.004348202334043456,0.07558891684100134,-0.007465309383341229,-0.09562438840118548,0.0019163595066083667,0.012721262332764783,0.0013832820271018407,2.1171875
-0.0018027835062883952,0.021511169389290066,0.023124056676769658,-0.04196879841170357,-0.0010901972801371617,-0.011374321471420224,-0.024250753376745746,-0.017340208362860765,-0.31910608172526483,0.03339569904223294,0.40332655432493036,-0.005910323822442104,-0.054414444336003315,-0.003934059909273187,2.125
-0.003020899489651576,0.03696412348244041,0.039238429496818134,-0.07162407801606543,-0.0014962230816918177,-0.019086188478722843,-0.04157759332126207,-0.029781805147906504,-0.54556954712526,0.05683734827667242,0.6894167824699161,-0.010400215235640012,-0.09295660280057538,-0.006986265280935083,2.1328125
-0.00010562430773427455,-2.7676991890254577e-05,0.0006835508679925385,-0.000652737208711326,-0.0005242824823132692,-0.0006361330959141812,-0.00011063148416182416,1.560237015817186e-06,-0.003633162917718142,0.0007365802949304197,0.004279272248445903,0.00035212890764998127,-0.0007381172245414265,0.0003164381644607461,2.140625
0.0029075786496756597,-0.03826364961011466,-0.039171151710922565,0.07270436559965698,0.00047997144262976595,0.018437079897624824,0.04275556389123601,0.030778445129586628,0.5564706217658565,-0.05723515560826325,-0.7036702512986687,0.01146154449707551,0.09458474202642464,0.00786681096126393,2.1484375
0.00043616954574828806,-0.0069072070862212075,-0.006500154827477088,0.012553663585008432,-0.0003439523470480762,0.00280195910714349,0.00762061801611247,0.005528506636584033,0.09717665687186319,-0.009679757170693505,-0.12302555374123986,0.0023463181959899777,0.01640749568113431,0.0016791633730036404,2.15625
-0.004013481540580514,0.04955325889103586,0.05233155967261644,-0.09575161879381126,-0.0018268462255850485,-0.0253551499931717,-0.0556543245518768,-0.03992282329431432,-0.7297222541386283,0.07591999574914413,0.9223015390335746,-0.014060858252314882,-0.1243531542399478,-0.009466248202960189,2.1640625
-0.0022655594240305775,0.027371506760770676,0.02922378296806629,-0.053203918018661756,-0.0012440053807877933,-0.014293639610646076,-0.03078796703799617,-0.02206235376218326,-0.4048288061206659,0.04228556197246708,0.5116296240250139,-0.007619302518296302,-0.06907210754495892,-0.005088868223560976,2.171875
0.0039825814516143716,-0.05191481622664588,-0.05337413662799331,0.09887202293182033,0.0008383251352497736,0.025247186153029975,0.05808103068005384,0.04176583496487337,0.7562584335568104,-0.07790804856943875,-0.9562755070433554,0.01541037699487281,0.12855441504301318,0.010561683008557506,2.1796875
0.0051620147757975915,-0.06687504168984316,-0.06895859986115552,0.12756361946314237,0.0012312529133378931,0.03271119414171513,0.07485239321774698,0.05381529463931905,0.9753695469695731,-0.10059506769288437,-1.233491210431755,0.019757449102430408,0.16584955778129892,0.013515394610907514,2.1875
0.00044852559560963894,-0.0070532852597918385,-0.006655759999223776,0.012832636801676355,-0.0003393639263393919,0.002883331830065603,0.007809484496230488,0.005668303547371828,0.09958023660428085,-0.00994055675948637,-0.12634102828442467,0.002389030886122609,0.01676765711236884,0.0017075257002522872,2.1953125
-0.0015221021287292204,0.017951750792524777,0.019375668395807098,-0.03511506619974737,-0.0009957898705273093,-0.009585022696765826,-0.020212525328516067,-0.01446110177745807,-0.2664410455715013,0.02795723779853264,0.33657350483158716,-0.0048673496204492605,-0.045529022229176076,-0.003228047938825395,2.203125
0.0011054715902554754,-0.015399942913194981,-0.015349556097443392,0.028843474618220028,-0.00012041530057805399,0.007041258636377195,0.017155960953807423,0.01237875847361089,0.2216882311312116,-0.02256178313677777,-0.28049810749034465,0.004817651921679825,0.03760121842344432,0.003354509647810256,2.2109375
0.0011483872403237128,-0.015940043360307264,-0.01587585758756561,0.029854794437842065,-0.00010674203080017116,0.007301509465384909,0.017731754557587596,0.012814885639053647,0.22927564302997575,-0.023357891839499698,-0.29022348672988385,0.004970469679618625,0.03893203793665241,0.0034585821104270633,2.21875
-0.002912603520965734,0.03560647716127773,0.03782281343444724,-0.06901112295563794,-0.0014601160099468123,-0.01840844195637527,-0.040062147331795195,-0.028671152554828168,-0.5254541925975601,0.05474519461826017,0.6639703659026445,-0.009998259272685788,-0.08955101086150816,-0.006718580205052857,2.2265625
-0.004551272073077682,0.05639957428705983,0.059457004484881025,-0.10886650447269365,-0.0020056792848596604,-0.028777685574270222,-0.06336025401447064,-0.0454129462383105,-0.8296998574214335,0.08623414073534785,1.0487868048470608,-0.016034054567988017,-0.1413828291950541,-0.010822291360579904,2.234375
-0.0023621440664890444,0.028608452916774687,0.030508121570842667,-0.05555965738311364,-0.0012761920740355394,-0.014922431438566051,-0.032201632168605984,-0.023055671111345523,-0.42289259877902713,0.044138751538052697,0.5345118144012408,-0.007968040804642465,-0.072144016027318,-0.00533419652155981,2.2421875
-0.001620023760899579,0.01919349038851816,0.02073106036367782,-0.03753471157528556,-0.0010297189646493816,-0.010234247220212864,-0.021660015448250063,-0.015482526911217055,-0.2853998693400781,0.029914171551664624,0.36063354718015167,-0.005243559722537535,-0.0487095313867276,-0.0034754011049591936,2.25
-0.0021616675818837547,0.026074686429355818,0.027899637354491535,-0.050749099838046714,-0.0012104405474839654,-0.013661938060706763,-0.029376686544769024,-0.021016616114067393,-0.3861626155942549,0.04033673089143563,0.48806466490432615,-0.0072441213348539875,-0.06585272341506249,-0.004834861264516774,2.2578125
0.0015671710515622413,-0.021256040339987518,-0.02145339564185055,0.04006770255549943,3.341830922224005e-05,0.009961448579878799,0.023709820556437104,0.017087954967881718,0.30739244292497553,-0.031457329253719295,-0.3887846452555852,0.006510601088707911,0.05216554986922887,0.004509085591430373,2.265625
0.007666044133861239,-0.09866955533169583,-0.10213762361455485,0.18858928062579436,0.002067093837283572,0.04858589751083038,0.11052484989673922,0.07940562324545006,1.4414138163539043,-0.14882927533678578,-1.8226469312864844,0.029002757234800027,0.2451572602519408,0.019793338438377623,2.2734375
0.007425527189523208,-0.09561487704723243,-0.09894747867395583,0.18272191907930405,0.00198654369389142,0.04706336563001496,0.10710179963485045,0.07694772357609547,1.3966524282931143,-0.14418458688055674,-1.7660773135771315,0.0281151848381443,0.23754312787942922,0.01919129674264634,2.28125
0.00032465797346350377,-0.005490270998061391,-0.005032372155635778,0.009829035401376534,-0.0003810585351902848,0.0021083423322690383,0.006048100627781546,0.004396435845349617,0.07662489817224764,-0.007548660422746218,-0.09696267153927876,0.001933389835047586,0.012894540905218629,0.0013989010837104788,2.2890625
-0.004240345797204588,0.05244300255578593,0.055326930907388085,-0.10128859437598209,-0.0019025968070344218,-0.026789253419233272,-0.05890704963121698,-0.04224175941389015,-0.7718257543265497,0.08027237397717044,0.9758821691410731,-0.014892974311148976,-0.1314889453246022,-0.010038284551120895,2.296875
-0.0023925863316513318,0.02899561459896633,0.03089749303106397,-0.056298690864917705,-0.0012862239560135346,-0.01510126801463223,-0.032618564155151755,-0.02335922343391248,-0.42836999039081314,0.04472405853200631,0.5414941340487962,-0.008074942822166161,-0.07302816510440452,-0.005409297402102321,2.3046875
-0.0008775417330388394,0.00977965118988417,0.010903422158756117,-0.019456732468066833,-0.0007813900688999965,-0.005530328246067991,-0.011083563862170801,-0.007878076464373125,-0.14709557522139302,0.015602898225417577,0.18554504359056986,-0.0024921674795478294,-0.025176441303284974,-0.0016168252660214634,2.3125
-0.003572334836611135,0.043977979189906195,0.04657502312570924,-0.08508511790513341,-0.001680241803280132,-0.022595517164395906,-0.04943713777618755,-0.03540984368379929,-0.6483387962062982,0.0674665316496333,0.8190410100302441,-0.012438737373033474,-0.11050521363614087,-0.008369838093411127,2.3203125
-0.004718450819970922,0.058505795699643544,0.06172334518219873,-0.11295521946072302,-0.002062466630638583,-0.029837645662522477,-0.06572674648947499,-0.047121876592403585,-0.8613610558006677,0.08950876211031403,1.088419085130762,-0.016672036042973713,-0.14674931443976835,-0.011237995704349331,2.328125
-0.0005824218805254126,0.006010434268762645,0.006997017375640957,-0.012242503643049199,-0.0006835740030277574,-0.0036479224624982407,-0.006866558630350569,-0.0048727650605291835,-0.09234672985048215,0.00992766077855951,0.11645177417545778,-0.0014194653709387105,-0.01584860771030427,-0.0008732632071896912,2.3359375
0.0028591249572453323,-0.03765170653522298,-0.03853336499094711,0.07152091110144337,0.0004638010154805784,0.0181315859542311,0.042087244655719294,0.030282509258354427,0.5475163726663473,-0.05628703483520105,-0.69226154629397,0.011278226276518729,0.09303930229663468,0.007746983553171144,2.34375
0.0005897885993659346,-0.008845570123240592,-0.008527037885018489,0.016271083830902602,-0.00029246628585172094,0.0037660290169552507,0.009791254194751796,0.007102051598112454,0.12578276180546422,-0.012646293758253489,-0.15910934323019582,0.0029156435522670384,0.021239186089846877,0.002059733751334486,2.3515625
-0.0019749646944483114,0.02369325622083902,0.025389713586334555,-0.04614059495280822,-0.0011471436270624987,-0.012458935403973,-0.026688020380012684,-0.019092788832464045,-0.35091184689237837,0.03667524267457521,0.44332004844128076,-0.00654274246966498,-0.05987874101810389,-0.0043645435121242825,2.359375
0.0016541837773939635,-0.02236563674086236,-0.02260738185159272,0.04220641324748632,6.270359480128827e-05,0.010518431021682713,0.02495529322777333,0.01798356549664328,0.32366749767718134,-0.03314436994867661,-0.40962043318072194,0.006836097618505149,0.054958438181141656,0.004727972797212713,2.3671875
0.006957871444129687,-0.08965960027525213,-0.0927603393851415,0.17129347756356197,0.0018306534591161741,0.044088905826868495,0.10041214539697732,0.07216206527783266,1.3096317529387744,-0.13517967077346846,-1.6559081942560292,0.026394047695728444,0.22274999619694946,0.018013676973109637,2.375
0.005240012135194265,-0.06785098902610019,-0.07005606922336761,0.12948055378477588,0.001258098368304052,0.03321595459017659,0.075970570566714,0.05461115970081047,0.9905160722276971,-0.1021455249945736,-1.2521589190058875,0.02006305569977888,0.16840200329318744,0.013710262173297927,2.3828125
-0.00183803927050584,0.021964431596210508,0.02356751658124818,-0.04280261126379391,-0.0011014859009244294,-0.01159105716702039,-0.02473579594931618,-0.01769720037936293,-0.32529430616048355,0.03403903921413991,0.41136084416026375,-0.006038406612416292,-0.05553032764290265,-0.004020190382315393,2.390625
-0.005032748031689096,0.062494499920883,0.06586272160705595,-0.12058968504158964,-0.002166972396917788,-0.031827562838546465,-0.07019912918344043,-0.050335128640197846,-0.9196477320755579,0.09555771249644812,1.1624270448054623,-0.017824862528306767,-0.15663740666557466,-0.012024014856882707,2.3984375
-0.0024043499248242845,0.029135610042815594,0.031119826627174437,-0.05663524003901065,-0.0012910849139116964,-0.015197087017233086,-0.03280157489553323,-0.02348303089392049,-0.43131261843499324,0.045022254232225764,0.5447372165305164,-0.008134441852047737,-0.07352047142799982,-0.005440591556905905,2.40625
-0.00036349852892368444,0.0032397701617598207,0.00409746654547585,-0.006942779393792311,-0.0006104118007550032,-0.002265909006526322,-0.00374560667115957,-0.0026300119340294673,-0.05160864282645982,0.005721951153665028,0.06473856001704928,-0.0006037499655115347,-0.008941534771542017,-0.0003268482976885444,2.4140625
-0.001124435739604057,0.01290196816195772,0.014132675491819983,-0.02544563391661486,-0.0008637820499443207,-0.00706990566776183,-0.014568771352121097,-0.010402890659678034,-0.19274825621293257,0.020319451052038657,0.24341792240279717,-0.003405794716618768,-0.03297599584676315,-0.002232454058693002,2.421875
-0.0006361865816945524,0.006713373670130464,0.007688943369663053,-0.013580151116040856,-0.000701319806990378,-0.0039857513138705876,-0.007650567973383053,-0.005420293022020537,-0.10216222403523186,0.01093692424450633,0.1290322158497885,-0.0016071885602405862,-0.017519795233278047,-0.001012105072948389,2.4296875
0.0014294977022105927,-0.01949712321438215,-0.019613188619520376,0.036686811576590754,-1.2947263503016932e-05,0.009079608704708567,0.02172063392010684,0.015678128593024632,0.2816439816142213,-0.028781892497082552,-0.3561644059716221,0.0060075877216101085,0.047824755928206224,0.004160972829331613,2.4375
0.0008009200004868884,-0.01153065950003848,-0.011316912462000147,0.02142919125514734,-0.000222098801257761,0.005108726363739218,0.01280246376776044,0.009259385410884264,0.16504121690368656,-0.016705744887871122,-0.20873373903157766,0.003690423672248875,0.027960552212075475,0.002590614544336879,2.4453125
-0.002405061261035255,0.029133976276322443,0.031062949080938377,-0.05655341373162347,-0.001290432685940052,-0.015168008384320772,-0.03277445120266232,-0.02348634885511354,-0.4306609226806191,0.04494547062638336,0.5442646339262137,-0.008131516635888392,-0.07343859524043929,-0.005435091596285105,2.453125
-0.0034172769253108825,0.04197268352980229,0.04446460335767811,-0.08120279478908203,-0.0016280872879453625,-0.02157558392790232,-0.047176387874945755,-0.03382528047643611,-0.6189928130058738,0.06442709694754654,0.7821164310056871,-0.011867325598245165,-0.10549030221795277,-0.007971720681766105,2.4609375
-0.0007747046660962407,0.008455553699445496,0.009543530046814408,-0.016938821870173315,-0.0007475477405167249,-0.004868233439549631,-0.009607460952772649,-0.006833074826224445,-0.12805692259059942,0.01361835810692195,0.16139141579435407,-0.002125167723621403,-0.02195774166517748,-0.0013573615632320429,2.46875
0.00261408613272335,-0.03452959018612258,-0.0352753103335458,0.06552543190104174,0.0003823069731863425,0.016568043303296972,0.03859707387847177,0.027784093700372013,0.5019262972465985,-0.051566746926302316,-0.6348606958794304,0.010374468442023117,0.08522637789908326,0.0071301259495148445,2.4765625
0.004092024590850206,-0.05328520073695297,-0.05484537442115446,0.10152907392348454,0.000875490833129129,0.0259293373061897,0.059639259552383625,0.042886675041019416,0.7768993392150176,-0.080020409160751,-0.9823730605492382,0.015831048434798153,0.13202608676903774,0.010835060371428564,2.484375
0.002438692727066438,-0.03230877344215168,-0.03298767273998398,0.061292680812684276,0.00032442653698921275,0.015474494656653646,0.03611284016910651,0.025999672789199662,0.4695985702932335,-0.048234413894433135,-0.5939278940878147,0.009736758035278356,0.07976025181572184,0.006692519276039814,2.4921875
-0.0017037105101515618,0.020269216533008467,0.021815054064212754,-0.03958197560780895,-0.0010569255640145,-0.010749978840743689,-0.022857547497055056,-0.016324261794602207,-0.30064056352247803,0.03146499976496402,0.37990086286098934,-0.005542955008937173,-0.05130144590508715,-0.0036900021786166136,2.5
-0.0045164056770775505,0.05597026767243844,0.05903001430130956,-0.10807416506028016,-0.0019949880974981203,-0.028561545531440413,-0.06289142318548227,-0.045065913782338124,-0.8236655646017231,0.08560321708466488,1.0413055413416294,-0.01592035846152675,-0.14030220089825068,-0.01073768203532987,2.5078125
-0.0025390742097610225,0.03086140582588866,0.032872139340869085,-0.059910286835981076,-0.0013358787009406998,-0.01603864703451527,-0.03472706102468806,-0.024864055471995567,-0.4560706881012634,0.04757797301941999,0.5765325687414155,-0.008629456831424399,-0.07772937235764506,-0.00577862116400525,2.515625
0.002418754229702232,-0.03207499769304325,-0.03271336557357711,0.06081081202324197,0.0003169844755697968,0.015357248622353688,0.03584815482315268,0.025791294691813,0.4656643191787808,-0.04781065182371528,-0.5889886326573864,0.009654849057425838,0.07913848373100556,0.006646403306859162,2.5234375
0.005477273234005,-0.07088856564274736,-0.07316884426012293,0.13526035081312143,0.001336686720712058,0.034720834304636176,0.07936454153272504,0.057039087671371586,1.0342839880582786,-0.10666846997638156,-1.3079479479098195,0.020933235448312108,0.17589586207701344,0.014307539613430939,2.53125
0.004143498600171494,-0.05395633607437638,-0.05552829779183015,0.10279100885385743,0.0008922894299477,0.026276467846734344,0.06037769495057542,0.04341372127964156,0.7863943344795806,-0.08102309286584827,-0.9945404832094319,0.016014189461498848,0.13370233418236227,0.010964577265637175,2.5390625
-7.541238885585447e-05,-0.00042309243709723126,0.00026160529091019533,0.00011952236769537564,-0.000513839758458722,-0.0004254347540240327,0.00036283271058005877,0.00031580294774885857,0.002238809945506653,0.00013182887390486908,-0.0032345555014898415,0.000458832573676018,0.0002460456232225667,0.00039750609082582364,2.546875
-0.0030327791179319634,0.03710247140115989,0.03936679258774465,-0.07185546628087025,-0.001499756094553524,-0.019145822134358448,-0.041706027079691406,-0.02989968275947317,-0.5474522828080387,0.05702902995567964,0.6917523269653154,-0.010444760778003883,-0.09332798801386183,-0.007009554307510693,2.5546875
-0.0022148019514805516,0.026731014559939186,0.028559986758473214,-0.05196600527698243,-0.0012275178334006118,-0.013980905345818336,-0.030088420228559426,-0.02155282728805195,-0.3955414448824472,0.041312002477206615,0.4999187428159845,-0.007431087615695529,-0.067496105040114,-0.004962263768030294,2.5625
-0.0010971139790361974,0.01255127982998401,0.013804058534922815,-0.024776339895432965,-0.0008552566525080506,-0.006916683462872962,-0.014207513759478634,-0.010136391262330534,-0.18801000236279738,0.019829737179131515,0.23759006442577688,-0.0033133412421867438,-0.03216163382543323,-0.0021641776218268402,2.5703125
-0.0035929356068758285,0.0442177120398344,0.04682471547696194,-0.08552662202967376,-0.0016871449163224006,-0.02271023532502846,-0.04971481941775176,-0.03562375841714423,-0.6519856933043601,0.0678448768607437,0.823968772091098,-0.012515653894461524,-0.11109853864789637,-0.008416685102868042,2.578125
-0.005344685183008406,0.06645747255277873,0.06997636968001082,-0.12818336270496256,-0.002270773604484734,-0.03379103105200122,-0.07463690966233925,-0.05351463101121846,-0.9773840540904908,0.10152754657199826,1.2353736727113696,-0.018970057345095537,-0.16648117700107135,-0.012806787100188007,2.5859375
-0.0014922874694680026,0.017598429256055415,0.01900801375513097,-0.03444917063578386,-0.0009863225731475095,-0.009412947886429976,-0.019846139983137785,-0.014165839620607022,-0.2611067872990285,0.027404304362022715,0.3301156677862971,-0.004760407933674318,-0.044597543831869306,-0.0031599448845997433,2.59375
0.0015360620002321588,-0.020821450258954554,-0.02103119711070658,0.03924716095252656,2.3244896740591227e-05,0.009739906769018387,0.023226772563274944,0.01676809019593024,0.3016512173600024,-0.030839075837397655,-0.38135566952116545,0.006406466125470461,0.051173128585332385,0.004424576112101471,2.6015625
-0.0021349233615796026,0.02574154278734732,0.027545716386945064,-0.05009010358374852,-0.0012005511428289347,-0.013501085140606614,-0.028984974183261066,-0.02072594123807215,-0.3810015798957088,0.03980573436711047,0.4812871002843804,-0.0071326866935894125,-0.06500572073740174,-0.004769756104484252,2.609375
-0.003067376076964511,0.03755249905969267,0.03986641998706229,-0.07274985667669963,-0.0015113532895845948,-0.019385966571305077,-0.042221179811821524,-0.030245264721622426,-0.5542216760717668,0.057726915187933485,0.7000994007048948,-0.010571907820904487,-0.09448641543136344,-0.007102045303622313,2.6171875
0.0064994293077940265,-0.08385116199431744,-0.0867106140047196,0.16015790374570874,0.0016779738799419734,0.041195292751028526,0.09390957674294728,0.06748287108411156,1.224543820875627,-0.1263729949327716,-1.5484607896055549,0.024707207197479104,0.20825268770610428,0.016867826804348438,2.625
0.01412488640585157,-0.18061602359390874,-0.18758655620828205,0.3457941658956997,0.004219927380670483,0.08947235065267435,0.20240561135982366,0.14537542229187733,2.642166161296112,-0.27309261114101396,-3.3404910371049343,0.05282490857426525,0.4495345934731357,0.03597364571737956,2.6328125
0.007608160744355481,-0.09792753123437725,-0.1013635274170779,0.1871542000254023,0.0020470107671494565,0.04821042561660916,0.10968118916017426,0.07879889848507758,1.4304367352039344,-0.1476791413830138,-1.8086022198709195,0.028786945335381144,0.24331230162231385,0.019648421345763813,2.640625
-0.0030941198242038976,0.037878768249776734,0.040226918775359326,-0.07338852321275557,-0.0015212195275241115,-0.019549027659712937,-0.04260523157584997,-0.030534114173734216,-0.5593755550818069,0.05826226892338952,0.7070076948703307,-0.010685117732761927,-0.0953370272619176,-0.007165442629100174,2.6484375
-0.005321584778379497,0.06615257355649377,0.06968996618800889,-0.12762297227173022,-0.002263713030334334,-0.033651719408587924,-0.07431214298082535,-0.053289406526284715,-0.9734305718196883,0.10111521904936756,1.2305277253130453,-0.01889685315046745,-0.16579734332621887,-0.012748077655589716,2.65625
-0.00440711637031706,0.05455492127075944,0.05757183607915637,-0.10535202497247938,-0.0019583904815743823,-0.027856082874882893,-0.06129425952685088,-0.04394334370357192,-0.8031899272734284,0.08349977162766303,1.0152247117507527,-0.015516199358620848,-0.1368188759288647,-0.010456398100165378,2.6640625
-0.006974703758963681,0.0871333284606594,0.09152031014333284,-0.167838499319496,-0.002814057367921723,-0.04410092225566802,-0.09780551732279259,-0.07016661845095802,-1.280346198072044,0.13288875500714054,1.618348638777895,-0.02498035834169346,-0.21802571199197499,-0.016887067793914735,2.671875
-0.006239960669579632,0.07780356438260713,0.08181131973108613,-0.14995408307519242,-0.002569219787096772,-0.039448346383240976,-0.08735086000059293,-0.06265815659653699,-1.1438478016205629,0.11875376709183123,1.4457530001246197,-0.02227380656606494,-0.19478042310891625,-0.015047543655242962,2.6796875
0.001878386019441453,-0.02521137225038512,-0.02555539226020769,0.0476470754734573,0.00013702122457447672,0.01193389593895668,0.02813491914217604,0.02027353278808821,0.3651801536956406,-0.037436979449226894,-0.4620705326730704,0.007661839672121466,0.062047035454198894,0.005287735138288266,2.6875
0.008663427255197047,-0.11129579232590285,-0.11530630002941845,0.21278775100738354,0.002399015482549562,0.05487502513857417,0.12466286636367827,0.08958378063942042,1.6265799444451068,-0.1679763287415028,-2.0568083967300588,0.03268706533065577,0.2766802238769946,0.022285048679582982,2.6953125
0.006623600641008094,-0.08539932682555341,-0.08835090749441166,0.16312972490521255,0.0017192855708304566,0.04196309992161838,0.09565640291047812,0.06874515422922223,1.2476754888431212,-0.12873663468612315,-1.5775749156815464,0.025171179141932676,0.21213756189866165,0.017176594140440062,2.703125
-0.002072832985915677,0.02495144967667776,0.026664019531321997,-0.04854015139517879,-0.0011795545837644556,-0.013082858263646368,-0.028067442081296863,-0.02009300392131292,-0.3688522958881793,0.03856616158582421,0.4663392791216644,-0.006896247574306398,-0.06297603740913411,-0.004609416538116351,2.7109375
-0.010658803647340249,0.13389495462751216,0.14025535631818625,-0.25753099929550155,-0.004041856799175746,-0.06744195967315934,-0.15024956840361894,-0.10780451084030972,-1.9652487284174156,0.20375995399096886,2.484429326225067,-0.03856171878947072,-0.3346273842924602,-0.026121392017042815,2.71875
-0.010774611513990113,0.135365713187517,0.14182298575158453,-0.26037345631040515,-0.004080836242271836,-0.06819067350819914,-0.15192087737609675,-0.10899148900020515,-1.9871337018759896,0.20601667065515425,2.5118063051754422,-0.03899491476745614,-0.338349431399187,-0.026413278273399256,2.7265625
0.0006819137848680334,-0.010008585875634418,-0.009710336851251795,0.0184854642398656,-0.0002619700712852498,0.00433081618735492,0.011088070553180082,0.00803982753987794,0.14259874626022875,-0.014383462566222686,-0.18059203319975367,0.003247672827639278,0.024091774581014896,0.002289118942110607,2.734375
0.011874405603258475,-0.15204448244648142,-0.15777960125738502,0.29096115953505913,0.0034692387068683056,0.07519868993675462,0.17035603779214878,0.1223780487673094,2.223496232443739,-0.22974181395734114,-2.8110053809029347,0.04451998169893896,0.3782559685484625,0.03033127538794769,2.7421875
0.008405547205399008,-0.10803727032974557,-0.11190837231633143,0.2065549268211021,0.00231301382424617,0.05325418039011361,0.12100930438872241,0.08694571104268053,1.5787597701414469,-0.1630319632383981,-1.9958883311704982,0.0317281467511949,0.2685520760688562,0.021642181366846,2.75
-0.003522990322030313,0.04333203174988607,0.045881496033340824,-0.08381533752808619,-0.0016635637451557937,-0.022253816811078287,-0.04871052906042125,-0.034907290888599604,-0.638792627891369,0.06646606193560022,0.8073309793594473,-0.012260665176479862,-0.10886167529246676,-0.008240731470844878,2.7578125
-0.0059292023298913735,0.07386941545455027,0.07771160325880043,-0.14240095245504208,-0.0024658304639486347,-0.03748463508208411,-0.08293758286820394,-0.059486744178772505,-1.0861652465093907,0.11277597760078054,1.3727669356365146,-0.021133882180036305,-0.18499952817792265,-0.014267118184695485,2.765625
0.0018123418995689249,-0.024374513319018073,-0.02469596909903164,0.04605323733719713,0.00011488345958550314,0.011523898119975435,0.027217965703161234,0.01959651679775247,0.3529429842352796,-0.036161289221204145,-0.4465338635233109,0.007416422630811914,0.059957743988654444,0.00512791010860913,2.7734375
0.0048903306393855315,-0.06343563488804561,-0.0654090815995754,0.12097428702674205,0.0011409006542189412,0.031004320488992862,0.07100318856148508,0.051037706982647785,0.9251030893586332,-0.09537891258245224,-1.1698148290843982,0.018769390656588867,0.15734136081192826,0.012836469044765054,2.78125
0.00015492740029002415,-0.0033327949308369206,-0.0027664842333815056,0.0056732632897243404,-0.00043775867701673717,0.0010197970086094326,0.0036130242897981094,0.002662182904843546,0.044848838911832174,-0.0042676734487475075,-0.056934866947753626,0.0013088216570572866,0.007488050596900183,0.0009696391412019706,2.7890625
-0.0010212086176436738,0.011596531303292763,0.01278400542848693,-0.022957250039732317,-0.00082953005458545,-0.006425915369443166,-0.013118754704286835,-0.00934945035769494,-0.17365770114200757,0.018353964412199456,0.21932525977350786,-0.003024845660092904,-0.029712397464618137,-0.001977408385918356,2.796875
0.004716861631302525,-0.06123571890520472,-0.06312769415747886,0.11677035264788325,0.0010838495599766926,0.029905301735569812,0.06854212094092789,0.04927355532460022,0.8931004370636343,-0.09206162397386645,-1.1294548315934057,0.01813808142776748,0.1518858965472259,0.012400815343109623,2.8046875
0.006544493261689338,-0.08444159171341069,-0.08730324404539333,0.1612883925026915,0.0016932542191953786,0.041480444380502926,0.09456398256635597,0.06794657747490121,1.232830027856589,-0.1272273330172899,-1.5591887942930547,0.024875826918236994,0.20972318766589562,0.016982820191017253,2.8125
-0.001672694005493019,0.01984464103272934,0.021390250718531144,-0.038768258066504434,-0.0010463083562034698,-0.010537446411849795,-0.022346626959104974,-0.015998535905363227,-0.2946704349374083,0.030883157731442165,0.3719728333416876,-0.005429299495022149,-0.050292592032489675,-0.0036026572470903213,2.8203125
-0.010529414150788698,0.13225063284558636,0.13853658997200785,-0.2543951810374981,-0.003999002858628656,-0.06660938947309665,-0.14837559387453625,-0.10648067340328485,-1.9410589690896227,0.20129102021245193,2.453736575462631,-0.03808870068992314,-0.33053057361976795,-0.025793141599046474,2.828125
-0.00999607526424175,0.12548072277681643,0.13149325473334625,-0.24140990170353208,-0.0038214465661463217,-0.06324471948807214,-0.14081778426976796,-0.10104118885557278,-1.8421579602987288,0.19103277912968308,2.3289032564727035,-0.03612395704179698,-0.3136751763827487,-0.024459178667903484,2.8359375
-0.00502639394404968,0.0624138146437979,0.06579559172497684,-0.12044363803605863,-0.002165355426204425,-0.03179669820959271,-0.07013862927553112,-0.05028116216442324,-0.918741779666097,0.09543904170666574,1.161393692484703,-0.017809199327215593,-0.15649216033758845,-0.012009394645606308,2.84375
-0.004437715351048441,0.05496136810403086,0.05803267836833106,-0.10615514675122034,-0.0019694826906471595,-0.02807360371130386,-0.06177697050528589,-0.044266996696346345,-0.8093766950806225,0.084130095006236,1.0231071031986512,-0.01564525916937449,-0.13789863865128443,-0.01053603341795045,2.8515625
-0.0028737449511132686,0.03513935458032857,0.037319914861636654,-0.06810490169969932,-0.0014474211808765032,-0.018171161099773032,-0.039527492451658514,-0.028280949543378626,-0.5181840643169662,0.05400776186485316,0.6551964742340931,-0.009863933812929314,-0.08837357507425478,-0.006622470873189906,2.859375
0.007234425620839827,-0.09312452660657927,-0.0964266377560927,0.17798429732552185,0.001923379183590075,0.04581473892182433,0.1042919241449717,0.07498595944537985,1.3613292227510845,-0.14052825356807044,-1.7207982822814654,0.02743215778545974,0.2314859101575133,0.018697369581508073,2.8671875
0.014268552033084539,-0.18239952382235886,-0.18947959338821235,0.3492523798039465,0.0042685028244543455,0.09034084471297334,0.2043845389916288,0.1468401829309935,2.6689364739763324,-0.27587805815858746,-3.3740753496043316,0.05337308670230907,0.45401762255340994,0.03632227521882267,2.875
0.00483927266480706,-0.06276629492208574,-0.06474167304326774,0.11973257172026366,0.0011245044247658485,0.030660365381684953,0.07025522134887126,0.05051118779720832,0.9158252781406576,-0.09442825667992334,-1.1580148893615745,0.01858659958014692,0.1556525920589367,0.012706254060564859,2.8828125
-0.006681363968439453,0.08340511113227358,0.08765114978302922,-0.16070778144420358,-0.0027164531006778443,-0.04225070631868859,-0.09362307163421227,-0.0671735175883741,-1.2259670241169678,0.12725609516508185,1.5494713271149478,-0.023906602803088435,-0.20882484234186935,-0.016151489652884946,2.890625
0.00031768908706599023,-0.005429356017819879,-0.004924819087127105,0.009674752345634342,-0.0003833057707861658,0.0020686472850204147,0.005984303926785923,0.004333738906107356,0.07502208219783492,-0.007391508292740538,-0.09550188862847492,0.001901566400573915,0.012658395248123748,0.0013845571800969176,2.8984375
0.013114356743335416,-0.16782685489263624,-0.17417895986492724,0.3211929201052058,0.0038823388402356453,0.0830848928676946,0.18806636097121596,0.13506200019904802,2.4537747951181474,-0.2535866294650095,-3.1029061842829684,0.049085695474362576,0.41755460830900143,0.033446104060116506,2.90625
0.006665890624696719,-0.08600247941683564,-0.08888766710589852,0.1642443768297753,0.0017325364193410747,0.04227546023834516,0.09632245860732871,0.06918784354880435,1.2551634992961913,-0.12952698023368947,-1.5874412388923493,0.02530405296547731,0.21357787678727808,0.01729340547137961,2.9140625
-0.01007624549193553,0.1264545765621753,0.13253460146689933,-0.24328258229063698,-0.0038480250739667266,-0.06370746753627922,-0.14189094290291954,-0.10184256628331785,-1.8568164294554832,0.1925559264870548,2.347029661800054,-0.036422568479168686,-0.3160730145258118,-0.024652075612244945,2.921875
-0.011275807794325696,0.14169639098845352,0.14838826925441773,-0.2725031771572754,-0.004247267804727567,-0.07132533622873291,-0.15898565311959104,-0.11410276927486204,-2.0797347231607155,0.2156225594253736,2.6288947508302525,-0.040833702761132296,-0.35406220549809075,-0.027662517597144425,2.9296875
-0.0010253746021290004,0.011652344090305208,0.01283464528833745,-0.023042082964027565,-0.000830570576647388,-0.0064667588879814076,-0.013183730667255424,-0.009400479012230505,-0.17446691573500253,0.018437050959075333,0.22029098013439535,-0.003039130637483818,-0.02986514134719026,-0.001985962327806347,2.9375
-0.00039035448319537703,0.003617242198303833,0.004466865359100032,-0.007631218351936013,-0.0006197300219929605,-0.0024561476585176585,-0.004182107432586599,-0.002920293841257122,-0.05656539037329741,0.00624358077107465,0.07160165877093459,-0.00070731143887185,-0.009833862799404637,-0.00039653719688823036,2.9453125
-0.006133457391836709,0.0764983791176062,0.08042460040773024,-0.14743393831298734,-0.0025342496064645137,-0.038806896156483625,-0.0859075201929723,-0.061585932500954114,-1.124092733201009,0.11672068052337693,1.4214638236908819,-0.02187987369360704,-0.19150470305691675,-0.014787149932434495,2.953125
-0.0025323572622823667,0.030792386352265153,0.03278060739321257,-0.05976190352226293,-0.0013331892242426757,-0.016012347682146277,-0.03466808823822452,-0.02479116149862297,-0.45469241883308453,0.04741611914330938,0.5749340356102219,-0.008589915757379774,-0.077548639878878,-0.005768608596946007,2.9609375
0.005028286188536523,-0.06515647063092406,-0.06720292957370974,0.1242746337413328,0.0011872233810019542,0.03184478097883064,0.07291205942568113,0.052449376261750114,0.9505536845230409,-0.09803228358402133,-1.2020560618139684,0.019284627380093598,0.16162258213200248,0.01317252325383348,2.96875
0.0032487464905432742,-0.04257559565975826,-0.04364668005971041,0.0809475143874323,0.0005935632858878573,0.020587401782674236,0.04760115485798097,0.03426991062487184,0.6196806622322274,-0.06377773949613126,-0.7838150885507328,0.012708942828008113,0.10530539998931523,0.008716980973768194,2.9765625
-0.00214436690282512,0.025859659365539765,0.02765417943676493,-0.050309911253487105,-0.0012040233176169451,-0.01353848048470873,-0.029118072290337867,-0.020827180556452406,-0.3825641890726353,0.03995844565946658,0.4834893086072073,-0.007176697651336844,-0.06527036552364604,-0.004791176331546952,2.984375
-0.0005654086043181206,0.005815410766407597,0.006713994280662836,-0.011825703198148897,-0.0006768569944514432,-0.003534070215674916,-0.006630012583415321,-0.004699650920944346,-0.08865909936086815,0.009538860734355142,0.11205573852529925,-0.0013414961467469795,-0.015251201851312728,-0.0008325320167095789,2.9921875
0.002564675983179516,-0.03391748147890175,-0.03469920786231557,0.06440315733942305,0.0003667250876656145,0.016285056947282977,0.03792856281032757,0.027277407749333824,0.4933279646923901,-0.05068470869397909,-0.6237443006103476,0.010203111966573582,0.08379482043138382,0.007012629147554622,3.0
0.00018512422407825264,-0.0037337053395474985,-0.00318875467803457,0.006477468866594172,-0.00042722193044189463,0.0012217354553736867,0.004080923590900348,0.002971528413172898,0.050757016832544764,-0.004862672328860411,-0.06436789723705895,0.0014191065006101812,0.00848421453768917,0.0010530076164285925,3.0078125
-0.0013008536805431269,0.01511928864049061,0.016503164674618112,-0.029722076651625438,-0.0009231165649695127,-0.008193747050649042,-0.017072862196105352,-0.01220805943295301,-0.22588608973941662,0.023762165235221497,0.2850717945376881,-0.0040664415302716,-0.038569699680912006,-0.0026718308203426944,3.015625
0.0032571935107910625,-0.042715876309543654,-0.04377816781948484,0.08121095793151316,0.0005964702490360676,0.020653857899200427,0.047768262828904964,0.034356889490801505,0.6212225172326694,-0.06393752740920876,-0.786125305935642,0.012742196956348878,0.10561177378202036,0.008744347335736273,3.0234375
0.006402238192774228,-0.08261965899882198,-0.08539391218525423,0.15777313069058096,0.0016451645375794954,0.04057271903919675,0.09252530635198007,0.0664901447640987,1.2061117304125553,-0.12447348319932762,-1.5253715791742883,0.02434022711700234,0.2051287686666757,0.016624204285844425,3.03125
0.0022180224521558176,-0.029523009954141914,-0.030068188945537207,0.055933205131723465,0.00025030515511376643,0.014096791679040255,0.03300553142494391,0.023746152805925708,0.4286269255738156,-0.04397817160219645,-0.5420096048926308,0.008911134548805669,0.07278383828296005,0.0061444402897731535,3.0390625
-0.0034815702721859108,0.04279989017807928,0.0453202663144111,-0.08280628640664024,-0.0016498527998460126,-0.02199023298000959,-0.04810034021646813,-0.03448540265725858,-0.6309747559608093,0.06569431889220273,0.7976354179013149,-0.012103348771823622,-0.10753251016326325,-0.008134789922310627,3.046875
-0.004023609177641675,0.04967857639906371,0.05250458617887172,-0.09600542198547997,-0.0018305560536410399,-0.02543313234857023,-0.055839673291163905,-0.040025369056235785,-0.7320140021008628,0.0761226012158004,0.9250838262421822,-0.01409913036954099,-0.12469412404217246,-0.009496166483823277,3.0546875
-0.0012766843803759043,0.014828727045616618,0.016172643624564866,-0.029142126467889225,-0.0009146592298236558,-0.008039404623506528,-0.01676361577233225,-0.011957133614486437,-0.22128360753854776,0.023250529521570588,0.2793968248855035,-0.003968678950322764,-0.037770046554960815,-0.0026165045086881263,3.0625
-2.7621880763350523e-05,-0.0010091862148382937,-0.0003637301471670892,0.0012462956117549272,-0.0004980697582769089,-0.00012559739515567665,0.0010190176442517402,0.0008065871260963132,0.01119380138837464,-0.0007841132782688503,-0.014196858420999417,0.0006383268915624697,0.00177250822733277,0.0005129924237691598,3.0703125
-0.0010921217709183209,0.012508534201307197,0.013714160569742551,-0.024697419620233137,-0.0008529303992680871,-0.006877471762978728,-0.014130577647737234,-0.010075639220291699,-0.18680079180491194,0.01972475034233128,0.23613976581979043,-0.0032861483066379408,-0.03193986669214703,-0.0021541785775648463,3.078125
