AF3,AF4,F3,F4,F7,F8,FC5,FC6,O1,O2,P7,P8,T7,T8,time
0.10815091245054496,-0.6679951066013298,-0.5518127966168123,2.188577673109757,0.141113005701795,0.29386126288990067,-0.14474414444402223,-0.9330731356582266,-2.083810441387479,0.21153333618494666,1.657308803916448,0.14876496312327683,-0.07871884243571524,-0.28697955764635963,0.0
-0.06830506547839749,0.4675510693361635,0.4080770833797433,-1.5629949909346637,-0.12742127432946004,-0.12707568795304625,-0.015556844764908222,0.4487743003690515,0.10970894669010503,0.008596211617210067,0.5145754020116243,-0.0602408114785261,-0.07631272766306958,0.08274865608975883,0.0078125
-0.03308095422715288,0.16336073350993316,0.12163464590433999,-0.5149651475723812,-0.017882743576570253,-0.1233348936048971,0.11222248964011608,0.3600996551212207,1.3969154841956182,-0.15132952774818312,-1.5008118158149066,-0.06515870138053574,0.10501874979270863,0.1484834885673334,0.015625
0.12606665958406874,-0.9564023864774266,-0.8610545960826088,3.236523528505159,0.2930852881062957,0.15765258463354379,0.18429851987782173,-0.6561300686734065,1.5372634729083383,-0.2145174079073666,-3.226366260210452,0.06607653461988665,0.32601686807488744,-0.01360472121655813,0.0234375
0.1738365792201864,-1.3106814093177972,-1.1783440465589323,4.431808421919327,0.3993524723978097,0.2236797123952899,0.24101687421047668,-0.9183012243706763,1.97372608523373,-0.27932733672731863,-4.25733961660913,0.09483527212161709,0.43382941461953983,-0.03042071720764,0.03125
0.17603394631426766,-1.319076646920969,-1.1832642509284788,4.456279685604178,0.3985299409465488,0.2350151541133357,0.22793336930661526,-0.9496977518254516,1.8173997511131905,-0.26177725810280494,-4.074448501280558,0.10093347376928323,0.42029822004444983,-0.04550061501986339,0.0390625
0.19145508007413034,-1.3379367233147381,-1.1686722060113306,4.474178129583552,0.36423907821880147,0.3543158809703812,0.05866986661639785,-1.2629829931374938,-0.149387916270758,-0.03778190855228367,-1.6658066012819754,0.16713774222977573,0.23308615402633384,-0.22126828760402711,0.046875
0.0718405127066472,-0.42997934376615426,-0.3490619307503891,1.3973984344337878,0.08285506987077139,0.21116518969421214,-0.1262478973667421,-0.6576116857270962,-1.723538790201967,0.18022565499792373,1.538653566946443,0.10815975459096042,-0.08814935554457072,-0.2180474189051344,0.0546875
-0.13305154054571558,0.9302501843734405,0.815912328492344,-3.119401094798964,-0.25877574440369644,-0.23450698994331218,-0.058798299806362385,0.8469806473436339,-0.10319175944063626,0.05219403426305629,1.415475496930366,-0.10945528522438734,-0.18333041384135082,0.13628957412955586,0.0625
-0.16077523426084447,0.9937887378670779,0.8257378424393473,-3.264053548608707,-0.21812200959097186,-0.41888101833911645,0.18822068198158012,1.340039692523039,2.788864338193436,-0.27555679497938396,-2.075482756629221,-0.2110952945234449,0.08561809064681176,0.4002076452966285,0.0703125
-0.04750035392839397,0.22402817123364305,0.15987327983300548,-0.6970823454853229,-0.016447930598349664,-0.1907279809750571,0.18612711032763232,0.550686371480634,2.288456047539418,-0.2505858270740873,-2.520411706019525,-0.10145670871870309,0.18007296120334443,0.2361929451969336,0.078125
-0.05746594414513104,0.47013104134882494,0.4373058178473515,-1.6110934788102813,-0.16284678943883382,-0.026976288907120147,-0.16566958861986156,0.19096425583191012,-1.6218131916883383,0.20669500502837126,2.660700094742982,-0.0042672386214653675,-0.24489439341664468,-0.06907381375362744,0.0859375
-0.15542884085485226,1.248033461119956,1.150921254435488,-4.263264005843552,-0.41826028413623734,-0.1085964207347158,-0.3853453493688202,0.6033912271446222,-3.6766147094870427,0.47419387390989043,6.280756069808533,-0.03187078705260587,-0.5886894000302018,-0.12839811740648854,0.09375
-0.14381018250069577,1.0743315215654559,0.966719241300601,-3.6356571423556168,-0.32952822361809314,-0.18249886194229323,-0.19942990303265926,0.7495133479850697,-1.6362000049338234,0.23366031347925637,3.515783220234182,-0.07713081171339475,-0.35871529527482243,0.02389066573498973,0.1015625
-0.11653564784650035,0.8058553678208474,0.704867230864527,-2.699864897807527,-0.22137408033880068,-0.2125676357743259,-0.03721378728407262,0.7579044204303256,0.0704893059679321,0.02727218642242482,1.034121514870883,-0.10007321602152161,-0.1433996358436555,0.13214631815422284,0.109375
-0.19959811601970465,1.465466099494363,1.3099593456088627,-4.949886158656281,-0.4378409991358057,-0.2814880236140971,-0.22364686892169816,1.107062642243224,-1.676153616860494,0.2545274118061021,4.110063469413728,-0.1233316174340188,-0.4350366699796908,0.08149870468364602,0.1171875
-0.17119125623608364,1.316391065092036,1.19629967718318,-4.473038185019862,-0.4184376584525687,-0.17962689509156982,-0.3095365370289908,0.8050057369032323,-2.7610867195168534,0.3722028593444534,5.243937396263948,-0.06992241184487731,-0.5124113565507747,-0.03718455347943569,0.125
0.12202722771721822,-0.8991610895080128,-0.801538095231823,3.0329569918575765,0.26474392131409785,0.18027963919050413,0.1259744561311281,-0.6995007293323878,0.8988168121001952,-0.13914496019374054,-2.3562869586450113,0.07994933569426858,0.2536245633051867,-0.060947686965747205,0.1328125
0.36682245836769983,-2.8184882520839865,-2.5542328783176598,9.564158334498071,0.8847602541065817,0.4096923099525105,0.6254018267055668,-1.7897623720742921,5.480624550770504,-0.7433759363470762,-10.684215535106283,0.16384319784843568,1.0539144885767942,0.042627012373605624,0.140625
0.27810252591738366,-2.177145987382966,-1.9850423444653487,7.402920267366322,0.6987831922550372,0.27100947485326027,0.5504273118055709,-1.2650279936058058,5.011759494267414,-0.662852211554275,-9.214360719360979,0.10123796903372907,0.8892997082092151,0.10147662640706501,0.1484375
0.07070604098330079,-0.5280563026329077,-0.47193517217835745,1.7803375078079835,0.15701932333560942,0.09995665843367556,0.08241828027278936,-0.3956176343403762,0.6258722825160725,-0.0923845528627492,-1.5039640094546005,0.043747007327864317,0.1579896939930121,-0.02694546031754541,0.15625
0.04556824441272453,-0.22518891731309412,-0.16277597000585745,0.7041672335400355,0.017601881513065784,0.1845940167223024,-0.17599706861310113,-0.5359529175774262,-2.1723907081299116,0.24009810171216692,2.375400816796056,0.09797464412768779,-0.16951977308743146,-0.22569646723014808,0.1640625
0.12548948760047565,-0.7947951549972719,-0.6650885827615022,2.6165765475349256,0.17896897110061366,0.31827097159690765,-0.12536354132273378,-1.02908652197769,-1.9400861540373633,0.18963949654067697,1.2975956081995816,0.15948201568733622,-0.04129774916943436,-0.2940271332725207,0.171875
0.10569335489738906,-0.6845840732909948,-0.577837693004134,2.2593042622193305,0.16072069237536538,0.2542277574222611,-0.07858293324501392,-0.835098921808723,-1.3307248931837,0.12471837852727466,0.6972461671015479,0.12624109818666124,-0.002619750009885882,-0.22326444023870418,0.1796875
-0.0016272488329737902,0.07898094343563439,0.09546268336535445,-0.3042958615245082,-0.05541895616557183,0.07406662188770488,-0.14505613452290456,-0.17168382071574392,-1.6253353011459322,0.19060986739866478,2.121622082400601,0.043182247611216876,-0.17275078748241932,-0.13021161826857472,0.1875
-0.08447727223212516,0.6717179800937871,0.6186046997989347,-2.293812759078688,-0.22427870694075672,-0.06220635718644979,-0.20178330769717556,0.33424576422626406,-1.913676661759434,0.24857163622189715,3.3016990858223685,-0.019292270011475297,-0.3106385896280446,-0.0632631905363029,0.1953125
-0.11740403411281548,0.880696637051428,0.7937374622085922,-2.982600942708286,-0.2720793970700358,-0.14405597258592936,-0.1715866019588367,0.60012956115746,-1.4353909709955248,0.20263967329327928,3.000625702824911,-0.06013663449086628,-0.30315726515037594,0.011350470562202,0.203125
-0.12948519526845306,0.8922660403052858,0.7786303825288997,-2.9863876872778246,-0.24287835591942958,-0.24104421154185193,-0.03261863493125298,0.8537402597545923,0.17724175279114232,0.018662356530865735,1.0205393422902675,-0.11395529095903394,-0.1490573380972569,0.15497788158790604,0.2109375
-0.15291771685595326,0.941870884474762,0.7823762810374717,-3.0951358803853357,-0.20588470457508526,-0.4008484980860302,0.18342975038689266,1.279526675503487,2.7027642507824834,-0.2679684464114194,-2.037541205395416,-0.2020748128425379,0.08672931124926574,0.3847117947135421,0.21875
-0.1799208234189768,1.0741817547157424,0.8779692514720013,-3.5073699195693604,-0.21700623644366474,-0.5079167488620564,0.28518559497935947,1.5907847603969234,3.9583997382633394,-0.40588305460632496,-3.408788239168415,-0.25890983672277007,0.18412200394472808,0.5156271147718964,0.2265625
-0.11910457813121589,0.7528583092988098,0.6323220860472476,-2.482081143959896,-0.17441371070801912,-0.29131562554896817,0.10389590855779324,0.94799826095181,1.6650699183897264,-0.15730894828340947,-1.0155533684680087,-0.14534774202980147,0.02129460136288108,0.2639376707904091,0.234375
0.05036991019756944,-0.2532128551076593,-0.18568344392329109,0.7954141615241145,0.022822357889044822,0.19944967615732037,-0.18587556246898193,-0.5812534078784374,-2.303037533752709,0.2538475187379524,2.5020517633470183,0.10565215980555191,-0.17709617923489354,-0.24158929061682785,0.2421875
0.12358139945576238,-0.7299699183029134,-0.5899574428394758,2.3719720870003047,0.1378766584968927,0.3687504869184366,-0.22919154999406874,-1.1426476424044674,-3.097096771998327,0.32464162669664215,2.8251925146185,0.18923077571912625,-0.16567759426067355,-0.3856747806876036,0.25
-0.0504157884573313,0.3294272268038515,0.2827199174346448,-1.09623702118718,-0.08390168128496181,-0.10743640960737777,0.015542421169134622,0.3626971519853307,0.3842090415187812,-0.028495176878812825,-0.01524239119742019,-0.05244073699362058,-0.024304035312189318,0.08532328211939921,0.2578125
-0.23579296110217557,1.4830912137449284,1.2423422392053487,-4.885435643245719,-0.3375909963415814,-0.5899930734497401,0.22863688871778062,1.9090303338894572,3.557299250507277,-0.34258923817994136,-2.345812691505495,-0.2954651850095354,0.06966926200422326,0.543943483652563,0.265625
-0.1244351821572164,0.7481946098487449,0.6141121125520477,-2.445392013678286,-0.1546358409032677,-0.34405224651429495,0.1846257240141114,1.082690943083463,2.5938151353078367,-0.2635197041377168,-2.1741383152261236,-0.17498850732737564,0.11253504749697331,0.34478177839482355,0.2734375
0.1590273031442387,-1.087797316383936,-0.9416553287828557,3.6279150428456024,0.28526741844162107,0.3193395370130311,0.0014653292012007757,-1.108115652791608,-0.6559970080911194,0.03059695578936376,-0.6956691263322848,0.15330142407636244,0.1377863901076674,-0.22691386318572648,0.28125
0.2838060545973024,-1.8830612405074671,-1.6105098782551046,6.250039094944467,0.46943962966537883,0.6250048464895903,-0.10524183178003409,-2.104339915551916,-2.3783588536865636,0.19406459411959792,0.3368607179591595,0.3057153028997211,0.11813951901372394,-0.5022323889273045,0.2890625
0.2631550323121202,-1.7429424781560772,-1.489311955811483,5.781210199039353,0.4327648123925943,0.583166439862893,-0.10464019155456131,-1.9597539258304715,-2.283354636658144,0.1891653088767786,0.41504296102147875,0.28561682168962166,0.1011469290959819,-0.47199755070148564,0.296875
0.31657825108683874,-2.106084401695809,-1.8034382357400858,6.990348326536759,0.5279371606264205,0.6904133481448471,-0.10558853288414599,-2.3309157261551254,-2.518537641500928,0.20071579620350935,0.20224219422450282,0.3372575052465944,0.1453600416400032,-0.549100117150074,0.3046875
0.3586362094396622,-2.3681885922263444,-2.021706776476951,7.851805959986904,0.5857294221826876,0.7995913570122926,-0.1533725527754616,-2.6808428725222075,-3.2333766587317236,0.2712866190750722,0.7226845996107095,0.3922438821386556,0.12451647993271753,-0.6526841502100738,0.3125
0.11660660433372601,-0.7186142495430856,-0.5932390256806924,2.352644715197497,0.15134694880553978,0.3174738964883802,-0.1580049440258382,-1.0070570527357792,-2.268751210887799,0.23037978271890946,1.8136552813138656,0.16087453997848455,-0.08755748591145207,-0.3109539574291348,0.3203125
-0.33088188663285806,2.2524333663576632,1.9517034389636732,-7.512687248863604,-0.5951208332819965,-0.6554013674706968,-0.011047907465920707,2.2774391679284522,1.2636231224272845,-0.04833770152423299,1.557275080439396,-0.31418620505266,-0.29549855963920685,0.462339409944549,0.328125
-0.5638623054412846,3.7116395603578316,3.169766720583975,-12.312797320781959,-0.9209516819162037,-1.2518880562807004,0.23751571851131414,4.197225466925134,5.035876448231064,-0.41804656438345944,-1.0902948268041017,-0.6137575922820494,-0.2000827198679536,1.0212561762026442,0.3359375
-0.3810621827504873,2.397851348600855,2.0077040278399916,-7.897872207938459,-0.5442298545073913,-0.9570125784934859,0.3738946153829521,3.0946973538607696,5.7996132610218725,-0.5605780287911422,-3.854730465783488,-0.47929033597670906,0.11743858478074577,0.8837001352668361,0.34375
-0.04533376250019951,0.1617805325518547,0.08926131013579484,-0.4672306374049233,0.021039220886857186,-0.23437371955957528,0.2778882920092265,0.6475167683128342,3.3098728674047373,-0.3700625165042917,-3.8696177797235105,-0.12717752308852734,0.2904523088062531,0.316394244035624,0.3515625
0.0910295818987486,-0.6659276176564946,-0.5915178404805196,2.2425963167657805,0.19299698670917798,0.14139275593498923,0.0814408913252206,-0.5384585630254949,0.5301437323018298,-0.08712248630534941,-1.575500561426753,0.06360139283147136,0.1744129519410261,-0.05698711847568611,0.359375
0.008674988256977385,-0.02112742483598874,-0.0027593133743187303,0.04898326105141897,-0.014809689856805723,0.06285760071751446,-0.08411441618607206,-0.16863861718282808,-0.983078695109346,0.11299192169060768,1.1902076509584254,0.03459519519369222,-0.09184835591836372,-0.0895273793947813,0.3671875
-0.048858330739267486,0.4751376092635817,0.4648624687556248,-1.6627621001682915,-0.19312989630931132,0.05562333915774315,-0.29109382106876,-0.021196580014646416,-3.0661398887208113,0.3718803550946345,4.455794871200356,0.04207387642744883,-0.38613452994261493,-0.195209702930656,0.375
0.031115525917733058,0.0346937492071104,0.12084231473003323,-0.25011748969635145,-0.12493567855567274,0.32294118224700796,-0.49638415523641427,-0.8259982552275331,-5.708341779126589,0.6552357036793385,7.116307806569039,0.18133102501596834,-0.56105971067991,-0.4959914286991137,0.3828125
0.10488257684527898,-0.5388774512841428,-0.4014610208337656,1.7002245531707123,0.058286057819411215,0.3971483662895477,-0.35557693866143725,-1.166555418327282,-4.436655493395206,0.4858006607477778,4.747865730253779,0.20954346067860416,-0.3313278058790266,-0.47357699365402073,0.390625
0.0678451283260481,-0.5603935640226565,-0.5180804598481279,1.9155971039809587,0.1886585988620422,0.04155724278226485,0.18340902802045073,-0.25337804939586167,1.7732295220797953,-0.22470619574814887,-2.9686959557628727,0.010306207819142769,0.27536943280756454,0.06884595467361375,0.3984375
0.04272360238893688,-0.5524841318456071,-0.5696855369242931,1.9741273779593451,0.2610608800547593,-0.1764985829388872,0.504755015241525,0.3122642103001411,5.48740980947193,-0.64886243823958,-7.555826211453706,-0.1113694616023663,0.6344171560922375,0.3965255005276612,0.40625
0.13032312807199964,-0.977944809285605,-0.8771860173747802,3.3036250572375745,0.2952900538361747,0.17427993467936465,0.16908542312470742,-0.7043098342061341,1.3472666865642517,-0.1937303419699458,-3.021122281115562,0.07482617560359556,0.31162529610846923,-0.03362791770292866,0.4140625
0.1880385556924921,-1.1307754546891218,-0.9239143882065198,3.689160704701222,0.22626358884734116,0.5363180300472269,-0.3027972283201969,-1.67945944529283,-4.196125755449153,0.43330875467535046,3.6286937495987113,0.2735766208208486,-0.1978879764486292,-0.5446822947357568,0.421875
0.06777959818474007,-0.3557963665813064,-0.26865834525464244,1.1291729988557597,0.04246083295558718,0.2506510539095679,-0.21700532609166992,-0.7404325544326422,-2.725772396968012,0.29793102695083157,2.882002059190415,0.13181275197471243,-0.19890434859973385,-0.29475816065366683,0.4296875
-0.10692750325024823,0.622242710594586,0.5027328985079528,-2.0218860412621886,-0.11853765969244857,-0.31600636397393284,0.19790883625371708,0.9773361566490101,2.670201705060091,-0.2775651690089677,-2.442740564424982,-0.16220697499615616,0.1432661097024606,0.3319025919131943,0.4375
-0.12546701449158756,0.7033000462433476,0.5570798444973016,-2.270040875289718,-0.11945764696160431,-0.399268232430673,0.28608229833105087,1.2134466327465139,3.738594632189052,-0.39629586018261004,-3.6521374394250232,-0.20678321936638505,0.23181862593549865,0.4384974895154642,0.4453125
-0.01083178580402007,0.03581474736140452,0.019622199029598778,-0.10437529605329805,0.004626121835175177,-0.053740260081870474,0.06412739193620284,0.1476431031435692,0.7636160308582364,-0.0843993546239292,-0.8924273279805819,-0.029116430678289236,0.0668722980784689,0.0729945179878138,0.453125
0.0462184616121896,-0.311983462589687,-0.2673174597727062,1.0344018903516352,0.07780110671038962,0.10198865585059755,-0.015114929164926731,-0.3446155107756847,-0.36614223744836005,0.03012057363316891,0.024611813695640094,0.0498113580089609,0.021704368755623475,-0.08056971236468481,0.4609375
-0.026114920371311648,0.1439087326942355,0.11409478400839444,-0.4660309896777215,-0.025446653221068944,-0.08033098510954514,0.05653425374252993,0.24489983899545606,0.7419542012199478,-0.07731694515757921,-0.7173912940593263,-0.04153385609503943,0.04463042078523512,0.08793196751045801,0.46875
-0.11968088325335456,0.8119412058828936,0.7038678226711641,-2.7099150329017108,-0.21562058227436093,-0.23539448529331478,-0.0056473975828079444,0.8186021333418124,0.4358008094992368,-0.014216888164302539,0.5857304474244969,-0.11268318352790012,-0.10897924686231623,0.1653003257567353,0.4765625
-0.11214119508789334,0.8297870804905075,0.7444337985388506,-2.806097903842792,-0.2520245298801702,-0.1490916122290115,-0.14207889294051443,0.5999291734160045,-1.1276433947144326,0.1652612912365391,2.547256672025295,-0.06404261774033328,-0.26396055086885484,0.030677420627336204,0.484375
-0.003096906380714374,0.08142215556043096,0.09430127765522611,-0.3076864605066868,-0.05226541586730188,0.0627193922600889,-0.12926493017784108,-0.14146681208716344,-1.440232305467988,0.16953898270938475,1.8997431029468552,0.036957125367325934,-0.15548865826988212,-0.11360628644043327,0.4921875
0.09061657211455228,-0.5982910674942387,-0.5092509639114184,1.9807691037324804,0.14566498772301326,0.20726970906954834,-0.04647286625917248,-0.6911861866362059,-0.9037501034192268,0.07956879610070303,0.2941892156358551,0.10200815879303085,0.02262004343254831,-0.1724856770036781,0.5
0.07674379508365801,-0.4900279162373137,-0.41032272508496803,1.6128704419838344,0.11072130799667267,0.1939464624704122,-0.07419455827607631,-0.6289416682089841,-1.1577789039589153,0.11307063811898195,0.7566530733931037,0.09710553570729212,-0.022036264779172386,-0.17787706109019577,0.5078125
0.014981638684510213,-0.03684008100901041,-0.005990511721783842,0.08535085961001565,-0.02350564781988527,0.10402944508790611,-0.1389449100459029,-0.27945256409603675,-1.6257447432323244,0.1856491167397092,1.9617493401132486,0.05732228426181434,-0.15135668020027956,-0.14835116138890955,0.515625
0.012874753296061529,-0.05149169935116383,-0.0292899010978785,0.14983110580659895,-0.006280144821249593,0.06975008960155651,-0.08127320958901908,-0.19457966325446613,-0.9687633661925432,0.11004159001346214,1.1280460844870903,0.037764135090556705,-0.08484057491300548,-0.09296038897300675,0.5234375
0.03574504116249582,-0.28825668096448764,-0.2637137050899538,0.98105741976041,0.09308768274252321,0.032227970375870496,0.07850841736183545,-0.15842045712941788,0.7291989081414918,-0.09397689484255274,-1.2999469888128428,0.011304503624171458,0.12375684275557859,0.019362149766153275,0.53125
-0.012383090605521545,-0.02184081760442121,-0.055074357111975274,0.1239687053960697,0.0509037206077102,-0.12667198950241357,0.19826738151868945,0.3216901556379026,2.275752060098734,-0.259606622512225,-2.843636405935312,-0.0712945102660069,0.22433821773508344,0.19688309766751289,0.5390625
-0.08080819429433932,0.4598165286804885,0.36767882532985713,-1.489961913837891,-0.08299232486302643,-0.24739746304625881,0.1667727121762655,0.7583952827974708,2.2099783772720643,-0.23186272188997314,-2.095924153125975,-0.12758743523988245,0.12857598891344799,0.266219955040724,0.546875
-0.06887518075926646,0.46230555381873983,0.3997690522348067,-1.5416449599972042,-0.12174438207128639,-0.13790265245109298,0.002533416957218121,0.4758157486950141,0.315697151850173,-0.015246741610834908,0.2498340379624924,-0.06632052757624667,-0.05576989931059514,0.10014529659778736,0.5546875
-0.0355514728716244,0.29481928923470413,0.27599104559742066,-1.015131012056449,-0.10475667895737105,-0.010198809692039514,-0.11421567402111273,0.10246815326652937,-1.1364345920545167,0.143656003209795,1.8146888791211695,0.0011789386132842587,-0.16561755964501673,-0.05354419386903647,0.5625
-0.06302061461239848,0.44471351102947926,0.39253182622004895,-1.4959674186735596,-0.12724470271709465,-0.10300459895925261,-0.0415482347775229,0.38133650780239786,-0.20573606949523685,0.04357983914954889,0.8721504073481411,-0.04724860630877312,-0.10294285986727282,0.051605834487816866,0.5703125
-0.059107599006101234,0.3488819278791347,0.2847227203470669,-1.1385376677699346,-0.07037637229607378,-0.16652823313632742,0.09523263082800403,0.5204678462629749,1.3146818229518773,-0.13416582327313176,-1.141145890117045,-0.08499841108058136,0.06250635310035975,0.17021751457951664,0.578125
0.05303278183181982,-0.4183729926528102,-0.38098049865581696,1.423170824631757,0.13314339270242814,0.05340045839996559,0.10391317844735097,-0.2471453597166413,0.9420120939079423,-0.12379789670300194,-1.742865345325312,0.020203600231924673,0.16852773482064684,0.017858167611801787,0.5859375
0.14676876802461591,-1.0292538556232484,-0.8997900330685149,3.4440399911409854,0.28106379254872954,0.26916717928134054,0.05000789317115186,-0.9631657442774918,-0.05728495322973671,-0.03530882308554137,-1.3518948384620344,0.12674270876314153,0.1846307756757296,-0.16510868594085706,0.59375
0.11962032802629474,-0.8542694698534091,-0.7513645597667136,2.8630126651524526,0.23924172001772204,0.2054650849659169,0.06804252671098167,-0.752971628497554,0.2587933580993273,-0.06409348328880196,-1.4993355228713083,0.0952024061461902,0.18282999745867987,-0.11003215019093239,0.6015625
0.06809732058425769,-0.4916619654882711,-0.43329702074282167,1.6484004278075701,0.13859758158657948,0.11468011926453804,0.044594867526662675,-0.4242690265867044,0.21168606689103928,-0.04341510848796105,-0.9387842682576798,0.05276719678225163,0.1111958968741615,-0.05773876946254533,0.609375
0.054836828472905455,-0.31263932146009976,-0.24711840993581166,1.0084438094009232,0.051416457277808685,0.17879878304522603,-0.1290265558433435,-0.5436939736353356,-1.6825684749237886,0.18061989342036885,1.6510260989971346,0.09266438102356651,-0.10568838472221036,-0.19638957348169572,0.6171875
-0.004115313712519466,0.14858756444944246,0.17344892921028987,-0.5594838924138443,-0.09704171760162845,0.12213854223168595,-0.2468616136597299,-0.2778203774149395,-2.757898462350054,0.3228468182858081,3.6182967591257325,0.07168075302203337,-0.29562802768219987,-0.218996133441703,0.625
-0.09198559142158966,0.6853699143581206,0.6166278908462377,-2.3197204369151154,-0.2103822722988057,-0.11643885169897993,-0.12717667949323433,0.47796772570330953,-1.0436004676307282,0.14946024486882475,2.240732096554306,-0.04917387779146803,-0.22897870603239245,0.015376351413834595,0.6328125
-0.061921749023349806,0.398933581613033,0.3396500020122113,-1.3244236837801693,-0.09799481829155184,-0.1399829646285738,0.03324882437568034,0.46478846081697234,0.6323221917380183,-0.054055327276416584,-0.2276248314832502,-0.0689341707389998,-0.013354106435929096,0.11805265930889323,0.640625
0.060238539023443526,-0.4258143569218758,-0.3722121582728747,1.4226992386313515,0.11568303472974123,0.11149483164482657,0.020321307903731965,-0.39874936693415974,-0.026653371392889272,-0.01335229452734737,-0.5534421241464607,0.052495755286217236,0.07562736438500157,-0.06837673381253997,0.6484375
0.07736042212835693,-0.5153987754307892,-0.44031236416923514,1.7089900717914817,0.12693641520938573,0.17340645650389866,-0.03253798162873245,-0.5820475429624458,-0.6927514983421535,0.05899187464628249,0.14537050236275023,0.08498816912116673,0.027666925221273668,-0.14084020686037796,0.65625
-0.031213247764026293,0.2002270693581729,0.1712372373212939,-0.6658658218309421,-0.05054594585244936,-0.06790589312382485,0.01308894495655472,0.22690215598857308,0.2760525710940418,-0.021697278992663535,-0.0636616945966896,-0.03331178473332954,-0.010950262295637066,0.055859951345631015,0.6640625
-0.0894608415999745,0.5933622410824642,0.5107597052108487,-1.9769407431891999,-0.15229379971381987,-0.1878518958765599,0.019449397349922723,0.6387881805600216,0.5920477916855352,-0.04131915680196887,0.09079231392518175,-0.09123895145887138,-0.05310286484211048,0.1448598615690001,0.671875
-0.06776092235601801,0.48141627711458057,0.42627167543854816,-1.6209797810902953,-0.1389287221101707,-0.10770934070192516,-0.050481603808811004,0.402873645286196,-0.28536142021521144,0.05422905378396169,1.0233375747308133,-0.04907051839513635,-0.11737732066320045,0.05017863921362736,0.6796875
-0.11079884949762908,0.7391724021355095,0.6361442587007965,-2.458134897289882,-0.19043466896539238,-0.23022793980243497,0.019272481653729582,0.7864277856526605,0.6788586143454479,-0.045140919902293776,0.18686910245307947,-0.11160508872013956,-0.0715689068071058,0.17498356690427347,0.6875
-0.20154233310964778,1.2737602003573028,1.069166807477368,-4.196076029664573,-0.29310712031298086,-0.4976057431494779,0.18293494385725026,1.6157462128383782,2.8991667194839246,-0.276405308219734,-1.82250935334298,-0.24861125693928388,0.044661059564779,0.45348079015044185,0.6953125
-0.14119280019966426,0.9117353150506481,0.7737138477685334,-3.017087489084676,-0.2203220096009577,-0.3269983442858952,0.08715462830724734,1.0806216404953821,1.5697173675550937,-0.1396753090316989,-0.6797763354428774,-0.16155012343083888,-0.017294050063763566,0.28039323131278276,0.703125
0.07040403284577636,-0.3948396838838317,-0.3093992756356598,1.2675714889252214,0.06213003300912987,0.23402738782834864,-0.1756654196178678,-0.7079527641984861,-2.2724200231643756,0.24450552345397797,2.267099451788189,0.12177229322437519,-0.14779744786238,-0.2608326212293048,0.7109375
0.1627695700622464,-1.0919762445642507,-0.9378616295925742,3.6284871854577587,0.27666580860964973,0.3489287127492888,-0.0409767128953736,-1.185158331360071,-1.147353169980744,0.08665692063489301,-0.08787018598719548,0.16979927694916838,0.09064353540883793,-0.27073093724695024,0.71875
0.025804419487873702,-0.4185188592887758,-0.4478205911426207,1.519070512340484,0.21766217970405152,-0.1910940374932808,0.46800950556171456,0.3853694847620075,5.147306619861667,-0.6043635594737609,-6.944314843661949,-0.11644145684506459,0.576388268586183,0.3873223246642049,0.7265625
-0.09082914301164184,0.3311664608802518,0.1856423308131452,-0.9580059682455336,0.040603831978217875,-0.4702080174744876,0.554756300234341,1.300758922686243,6.6126609345804255,-0.7403138858964258,-7.7220247666434565,-0.25504579112841724,0.5794308052178532,0.6330426012996405,0.734375
0.03166358729747531,-0.19444392798425267,-0.15853535196869073,0.6329284365928997,0.038077529867466944,0.09153774076770026,-0.0515264763520487,-0.2878388776476569,-0.7138872790685327,0.07485366700898821,0.6137547983310611,0.0467473686413469,-0.033893776577278815,-0.09259131812497431,0.7421875
0.27407792081209337,-1.5761418373333385,-1.2583782977202107,5.0995015508168295,0.2788611329424219,0.8528208699486001,-0.5793682130034845,-2.6135836901390928,-7.6638008989099475,0.8110168923269915,7.300568981431842,0.4401872645273736,-0.45182645318605086,-0.9187090017199651,0.75
0.41352638849441353,-2.5747657792003418,-2.140747299957915,8.454624556691082,0.5639561331248146,1.081610960770467,-0.4820847986922391,-3.463260776057534,-7.157887592144509,0.7112262758704421,5.2935667257082,0.5448928534393356,-0.21749106971052623,-1.030004298225345,0.7578125
0.38300441684230446,-2.5038223832641706,-2.1285686302085107,8.289520729786343,0.6077452978970103,0.8801593366032278,-0.21309720117715192,-2.923831274868,-4.008246454680672,0.3542035748410821,1.4952599112601441,0.4339395805870342,0.07492106188541997,-0.742192294005001,0.765625
0.1827053189901039,-1.1426731075672247,-0.951034687997592,3.7530170051613636,0.25100319070856847,0.4767532645435357,-0.20908727349051368,-1.5286172899571322,-3.120960669545003,0.30993214189457124,2.280950748329567,0.24001029332805174,-0.09141615062374697,-0.45201913522535103,0.7734375
-0.14627524293687677,1.06231866370381,0.9458205100087563,-3.580770979406698,-0.31291239685763134,-0.21746199881641054,-0.14200327708223584,0.8366069302849545,-0.9827849520202607,0.1582772263968208,2.6869471607225432,-0.09690169331987736,-0.2928794438204926,0.079563188868656,0.78125
-0.3896506650380872,2.532666953768947,2.1521753626256235,-8.386609166080886,-0.6144130721315749,-0.8963237803378918,0.22431069802930986,2.972125317772111,4.157377237660869,-0.36721510623663495,-1.6369678335178748,-0.44225239825154955,-0.06690042096210677,0.7603668128239123,0.7890625
-0.37366735793236056,2.3138028060674247,1.9229961100110915,-7.5993954476791705,-0.5066416859035389,-0.9772085879843597,0.4408533312070579,3.124967421328788,6.5231373575515,-0.6466730035650684,-4.864807524974812,-0.49256207587546436,0.20315003104635881,0.9340411092538118,0.796875
-0.29866969378974845,1.907989461043273,1.608751854201626,-6.300025511722113,-0.4476912635961353,-0.7189843345106048,0.23448737887411844,2.3529717734488034,3.888693818232043,-0.36266963846954337,-2.1646891519245273,-0.35771290709922005,0.022794740692566595,0.639195285314959,0.8046875
-0.4251127395944916,2.872381719914183,2.4808366772052914,-9.569361586930325,-0.7485477224700641,-0.8653346812245555,0.029715146229257815,2.981072158939271,2.119727143481198,-0.1200303105210606,1.359373974476581,-0.4171960745519011,-0.3276449346250788,0.6340546943138351,0.8125
-0.520740591998207,3.4881975962905374,3.001763974164069,-11.60479900550844,-0.8945353407481734,-1.0931818157319018,0.09880472172629258,3.7289181377975056,3.298232053316221,-0.22886394187856723,0.7522805681647803,-0.5302058267546237,-0.3274522428094242,0.8337085585058427,0.8203125
-0.16308527552039648,1.0520117505117006,0.8921102468819679,-3.4807685645623017,-0.25344308131135573,-0.37935647826970964,0.10355979867991609,1.252269752821492,1.8469180827019895,-0.16543344703033155,-0.8256456532624884,-0.18758518925913395,-0.016407039431662405,0.32660066683663797,0.828125
0.4825203696672288,-3.2404274193470513,-2.7878222960815293,10.779077329296404,0.828400118912323,1.017787931019313,-0.09529235795916435,-3.47094501436748,-3.1034236379575475,0.219843808878317,-0.6433753091413026,0.4938970343635654,0.29937113139302524,-0.7773698878022103,0.8359375
0.7790433478821596,-5.243420666650058,-4.516555841660854,17.449619711814094,1.3479703217486485,1.6270481320062287,-0.12453458748503671,-5.56454444300643,-4.6794587205847264,0.31576203815987147,-1.4678964377991282,0.7880400254777379,0.5178870383737046,-1.2280201645725695,0.84375
0.5060756369282394,-3.471222443384914,-3.012780903201281,11.584596716302729,0.9212635480768522,0.9921182694471071,0.04396045640560971,-3.4645380474763092,-1.6379803609352013,0.042707470209383945,-2.7802808612475314,0.47423358995064524,0.48429238918558665,-0.684494543887028,0.8515625
0.09485717980209284,-0.6175834884585725,-0.5224733070664234,2.041019712799305,0.14632947437830204,0.22491551235093107,-0.06438866812509364,-0.742309313533365,-1.1253774712298483,0.10410676688202071,0.5356782903352776,0.11146080555819773,0.004890898706208906,-0.19470539989520394,0.859375
-0.05731923420118316,0.5862230518450794,0.5799103573016496,-2.060901263687681,-0.24656049132455726,0.09329771603735586,-0.3957547002569029,-0.08978151958044077,-4.208203650147226,0.506997294412661,6.019289973766381,0.06565998814125262,-0.5173803262210405,-0.27809480042860263,0.8671875
-0.03821410908511152,0.3928237081172141,0.38984769826097193,-1.3851115141784762,-0.16685109626709188,0.06690910958339279,-0.27173105342555115,-0.0712086420187478,-2.895017210528475,0.34873757643527614,4.128677142834515,0.046457006019216096,-0.3542648856422579,-0.19290220659832813,0.875
-0.08570477167161647,0.4079349157435626,0.2926443462805004,-1.27649363452762,-0.030467807639005022,-0.34487901610322486,0.3343517568096552,0.9969736676666169,4.114569477486142,-0.45173210549087145,-4.524900554440195,-0.18316667359891325,0.3227019653680286,0.4254666639465757,0.8828125
-0.1794608347907861,0.92164530391662,0.6926576426993011,-2.9226121440432427,-0.10869811836551237,-0.6608886744615233,0.5796336284451312,1.94647742722708,7.265082953749977,-0.7901741444946165,-7.7139796571000305,-0.3478307200390875,0.533079396240331,0.7823813041072423,0.890625
-0.1725515692450598,1.0858452539598815,0.9103292984557866,-3.576933312556218,-0.2480042310917329,-0.4298944808861254,0.1642111949668077,1.3918486260488259,2.5686737241414743,-0.24653262906768203,-1.6744920528601848,-0.21509195392544075,0.04734816409580626,0.3951569971441144,0.8984375
-0.0978728466447609,0.7732605627337592,0.7100893720403576,-2.6368698782407454,-0.25531113432982244,-0.07837891519148031,-0.22195162998359008,0.40247861318759476,-2.0842239698369336,0.2720764868181143,3.6535080430292917,-0.02600154937177322,-0.34588466932239575,-0.0624889490681849,0.90625
-0.0863861669469021,0.6808247004325377,0.6252507918779395,-2.3238663206759185,-0.22501789494924992,-0.06942272223129393,-0.19519947017808367,0.35551180074163136,-1.83176943756058,0.23935844385115262,3.2149990584425883,-0.0230656313842153,-0.30449716801199583,-0.05460857600638542,0.9140625
-0.0906045948008329,0.7072512284856213,0.6469602442820162,-2.4102332545100436,-0.23092627273228256,-0.08082602940286333,-0.19003912560518824,0.3917424487234709,-1.755683342883576,0.2318363426546135,3.1558587901527675,-0.028749108759150346,-0.3022564304597769,-0.04372712313519978,0.921875
0.03608635029801784,-0.06946456427973005,0.004544105199285237,0.13872989809029374,-0.0652595750805955,0.25974726493453015,-0.3562552401710337,-0.6899326801315918,-4.1565004676002735,0.47361074730728764,5.048498757772154,0.14354059590788376,-0.39092305899900864,-0.375808562103434,0.9296875
0.22131503372912448,-1.4034832343258303,-1.1767174569985523,4.625791792150461,0.31900894824822074,0.5552348500368325,-0.21121588626093,-1.7992785905546316,-3.3072288108212335,0.3204579450300609,2.1497464878277315,0.27775771107549124,-0.06087852386888207,-0.5091168565450881,0.9375
0.22860151230362705,-1.6931240831714163,-1.513141497963786,5.713273702324557,0.5042146051635047,0.3238387402060315,0.2598322023568447,-1.2760083961312798,1.9543167885317079,-0.2930642359560982,-4.760640023887174,0.14184897023283904,0.503060697228711,-0.09181312093862655,0.9453125
0.03404816584628964,-0.42922970865612275,-0.440510301850808,1.5286843383521318,0.1992767225950454,-0.12758318460450746,0.37755903999797047,0.21834935096930538,4.096900874048429,-0.4847684725899896,-5.660279899803578,-0.08108853149216652,0.4761440568597964,0.2934904978409154,0.953125
-0.13774128799135651,0.9353862272856341,0.8107149066016303,-3.121093480497568,-0.2481942388312535,-0.2714609787052397,-0.006085044577734174,0.9436018029324602,0.5103763602621962,-0.01744895837195768,0.6678292935829758,-0.12999931705636933,-0.12480811648591857,0.19092980497048145,0.9609375
-0.16487961131223502,1.2097818152902602,1.0806090570859357,-4.081432525971845,-0.3609386324800858,-0.2339292633424023,-0.1817937707152573,0.9174740599196517,-1.3505217316112264,0.20676049784189116,3.349818977333051,-0.10278673621777004,-0.35584662871706474,0.07012325450936417,0.96875
-0.15404898618803162,0.9507509940849506,0.7903758875645297,-3.1232465650607475,-0.20842245059444256,-0.4022592798401454,0.18234427508080497,1.2854742222174858,2.6933803919474335,-0.26639860588343967,-2.0145655994134053,-0.20281481563201542,0.0846375370918439,0.38516001003650824,0.9765625
-0.1973442502802857,1.0914476482386564,0.85709705302359,-3.5142930290342353,-0.17528349907294846,-0.6468593492847939,0.4845802409728553,1.9542800278619084,6.270902297245141,-0.6694868973684525,-6.248324215138598,-0.33614973183655406,0.4054242086643607,0.721503772599734,0.984375
-0.2107599154551061,1.3141625562953652,1.0968616610653779,-4.324994636526916,-0.2936795306523302,-0.5388097921156371,0.2260191242570573,1.7327213008852531,3.423082339155539,-0.3347183758548808,-2.4162197562158405,-0.27060103184336654,0.08772139281637678,0.5059554138896836,0.9921875
-0.06293703721666942,0.5370916278583391,0.5061990267792373,-1.8518430036516667,-0.1938061390848379,-0.007647138947405224,-0.22407023654677857,0.15840473127783286,-2.2557825460663197,0.2816710655414144,3.535721689307184,0.008196889463070971,-0.3189592829958518,-0.11418360212308683,1.0
0.20967500337673312,-1.2738306980645122,-1.045609141579506,4.163989697534064,0.2619201706573395,0.5839039726008468,-0.3109047111910896,-1.8398540333827904,-4.379413839542537,0.4482885763458013,3.656163338397017,0.2968562662026021,-0.18890616756679804,-0.5830369206621404,1.0078125
0.36459563354926555,-2.416633520865083,-2.066742537328251,8.020126941022953,0.602578427967916,0.8034435210092213,-0.13684622402140945,-2.7033593884143254,-3.0760722219434466,0.2512808048981956,0.4608984607712074,0.39312274169261685,0.14953751131427656,-0.6466416725269916,1.015625
0.2306054726659349,-1.505018257806826,-1.2776232782339139,4.979016047008379,0.3628349247986967,0.5353681717427681,-0.1375120222299031,-1.7740370534521168,-2.518735848450696,0.22591567635167298,1.034879874410048,0.2644085735852109,0.03431022132296665,-0.45558650681529017,1.0234375
0.013563082853795393,0.04285198942000025,0.08782891615355541,-0.21998888326519292,-0.07660048035071398,0.17383524783190432,-0.27800008906261053,-0.4383344249693185,-3.182269858060375,0.36690585088101674,4.000667854766829,0.09816834886965063,-0.31745551135740624,-0.2726168222014712,1.03125
0.06695092394779543,-0.38740167589352537,-0.30884694993568756,1.251514181859851,0.0670417915584503,0.211469975897995,-0.14551733489818489,-0.6473823563469315,-1.9174373410884347,0.2043406871739294,1.838337835954154,0.10926157790614897,-0.1150165553228217,-0.2285308284786849,1.0390625
0.31722672521387657,-2.2931200742950617,-2.0315574307974265,7.714801049398627,0.6605670076505574,0.5036646988695453,0.254906334543919,-1.8970236944430294,1.5284278559487152,-0.2695916950518582,-5.067290888962119,0.22850450408941855,0.5729253500355171,-0.22279145504022327,1.046875
0.3133450561090598,-2.351269162674978,-2.1122052371104156,7.9533694109696516,0.7144604565218091,0.4089035928167917,0.42157788829093473,-1.6672723633304767,3.4172844549600008,-0.4878775390865438,-7.484731320122778,0.1741962564109141,0.7670463502760613,-0.06590976063222641,1.0546875
-0.06163944145626957,0.32415420958176727,0.24834980664947318,-1.0340543047157715,-0.04517960633125507,-0.21442255425510656,0.1770141208544292,0.6377220466114374,2.2475461963333805,-0.24160280865277142,-2.3288767575843243,-0.11233659837632891,0.15723003973637978,0.2482353198703756,1.0625
-0.41713223436633756,2.875248750648862,2.5039187936145395,-9.609915790306113,-0.7755712159727047,-0.7906991706597232,-0.08291309490682826,2.7887995946015014,0.822760129840257,0.028502743701332284,2.969151121861868,-0.3754424130591593,-0.4541690974866562,0.5205645456690736,1.0703125
-0.48725711156488716,3.377402909022944,2.9473269992070614,-11.295714407162299,-0.9184727244139933,-0.9061112341761073,-0.13092245025547902,3.217038637422898,0.577261349916047,0.0774952817909727,3.967464663898881,-0.42829684825274333,-0.5709202161687659,0.5772463687628014,1.078125
-0.402271219129522,2.8224747463087105,2.4755872387957987,-9.45709578693282,-0.7833349788357816,-0.7120024325327865,-0.17679048821606658,2.5711726001985467,-0.29696780267295186,0.15391281365360526,4.279458171392319,-0.3325843347028681,-0.5526975922711909,0.41404187990033997,1.0859375
-0.2680439045019704,1.9379580644159091,1.7207663500192787,-6.525283603314693,-0.5645426681389859,-0.4127887387523885,-0.2349183736105171,1.5687660287546343,-1.5153776137433195,0.2560061174298981,4.562337745777018,-0.18580471853476638,-0.5069883256135895,0.16924021217144627,1.09375
-0.042988260580881156,0.3106256460486344,0.27783586349839107,-1.0519613721960537,-0.09342184415879028,-0.05998586423329579,-0.0470992302035584,0.23557274044751678,-0.35224497125560117,0.05473449758884282,0.8697667753626677,-0.026280276628614287,-0.09245952149074725,0.017869312708658366,1.1015625
0.14628314274393903,-1.1259487177018443,-1.0191592557653777,3.8153608025311936,0.352035580890865,0.1662011636708544,0.24583491253241,-0.7214368707941389,2.142369762722741,-0.2908325092537733,-4.207642767463916,0.0669277309424599,0.4160828238063278,0.013186730996417767,1.109375
0.13537229910977386,-1.0452955326926276,-0.9470206411881806,3.544897095663704,0.32806035591328275,0.15052937881729822,0.23390375741282013,-0.6605714905066836,2.0542053685428883,-0.27745840631879876,-3.9892132208209286,0.0600426583534013,0.39275631826397756,0.017997984928215627,1.1171875
0.110790197348129,-0.7769985843162901,-0.6784617743126864,2.5987354021711044,0.21144957210638263,0.20497632832697363,0.03531557104828851,-0.7320359155885515,-0.07327606522154567,-0.022984192883732622,-0.9871807055728273,0.09662271686578396,0.1366775575781973,-0.1271641774969237,1.125
0.30883246388792635,-2.1369559184449187,-1.860319897435986,7.139156340119807,0.5744857654397918,0.5888925852567166,0.05980586878126288,-2.076546110312125,-0.6311639814109746,-0.016309134853047556,-2.1805187771915233,0.27969684914840165,0.33471077534014354,-0.38815164911883404,1.1328125
0.4896742049603052,-3.4148308435258237,-2.983825432086979,11.424424363493326,0.9320429493994749,0.9021870447280584,0.15339159800832394,-3.217273216778755,-0.3402250818016939,-0.10330558924998753,-4.3089123713969135,0.425277047757693,0.5998096578600006,-0.5617357782089983,1.140625
0.28575878461342785,-1.907171527882761,-1.6358377406225912,6.336310565868702,0.48122833716280844,0.6168455728603468,-0.08256857373263278,-2.0891923971531976,-2.1322945241863827,0.16484037685970185,-0.002083341959499421,0.3006954903665041,0.1462765214432022,-0.4842876920293514,1.1484375
-0.14073497365221846,1.1601740528657716,1.0787371636372178,-3.9758507281148545,-0.4002231234708893,-0.06746537306879384,-0.4080000113489774,0.4742436170274865,-3.992815484052692,0.506502443674194,6.549048149271453,-0.010879353026400189,-0.6030555794012448,-0.16984813527439566,1.15625
-0.3395760234169009,2.450234727071819,2.1731013065965246,-8.245064016627545,-0.7107869103893886,-0.5298152808111178,-0.2850387692473337,2.0036570051734537,-1.7738006166679319,0.3072907189607019,5.5912274792292,-0.23950031279006453,-0.6270310267953694,0.2261217895057409,1.1640625
-0.23659589886268245,1.5035003916468395,1.2654890193594908,-4.961507036299721,-0.35017043390334407,-0.5758032746530137,0.19812334109056998,1.877378005258212,3.2217621960005522,-0.30333213859346464,-1.900105382154956,-0.28705428886903395,0.03302033337261623,0.5175778485806903,1.171875
-0.06722514533451747,0.21571197670516568,0.10217684832019205,-0.5974173190616664,0.04975175244314926,-0.37553074461861985,0.464102497551148,1.0261718598655654,5.497205368372238,-0.6175324881369301,-6.499163332741055,-0.20482398226865933,0.49238463546966277,0.5169102469787211,1.1796875
0.07883882686974927,-0.6597514915246602,-0.6132825632361705,2.259955385107929,0.2258685602142213,0.03862379799099123,0.23118977108333472,-0.27099944524308484,2.26434687502863,-0.28497614821627604,-3.7114740256679806,0.006419360216128002,0.3411157214290527,0.09647320470166564,1.1875
0.20564208726263694,-1.2822064230597974,-1.0659246474929929,4.209731182319632,0.2800114232113533,0.539651673426849,-0.2417377625060534,-1.7272028498091692,-3.5846117818882024,0.35715883363437806,2.6648116469940697,0.2720029830125913,-0.11062522258466441,-0.5144420126332985,1.1953125
0.1834878676098068,-1.0289907751172225,-0.8100304200478492,3.312462610728749,0.16699236560498484,0.600386878688394,-0.44290290124147635,-1.81869505874058,-5.752449095769641,0.6154609759638977,5.697849950503612,0.311767794422309,-0.36764819170301183,-0.6654776402456815,1.203125
-0.05176931110611451,0.4072565338044008,0.37406803774562275,-1.3893373964494315,-0.13504689514582258,-0.040617190852338676,-0.11787072138927397,0.21005674265043206,-1.110610555590266,0.14533813021146502,1.9401937290592064,-0.013242653041485003,-0.18363419653475535,-0.0337936175090698,1.2109375
-0.3043514260952311,1.921429279854184,1.6114175433356677,-6.331588096663236,-0.4394092335453378,-0.7572689032078769,0.28551863523833204,2.454760767062661,4.48420641501513,-0.4303948770647323,-2.8884795546549937,-0.3786996983132287,0.07826320871320211,0.6938198228960336,1.21875
-0.3713226606910675,2.4725416531537983,2.122982990230211,-8.220736791168887,-0.6277826029073046,-0.7931150260208218,0.09732333117408463,2.6904330692635083,2.6512922661025313,-0.19774462088200498,0.14394774013552641,-0.38600434979897874,-0.20177480677992632,0.6186618991675561,1.2265625
-0.26770970697982505,2.04170398162113,1.8486138901324631,-6.927663190602242,-0.6398807656481689,-0.3031599562038862,-0.44331545403708494,1.3124234275719164,-3.857876577099044,0.5280854248232529,7.604001249931505,-0.12223885538401269,-0.7533204622622712,-0.020537984031089203,1.234375
-0.07396478423170727,0.6917783286471936,0.6685292188691621,-2.4083134632355327,-0.2709430738046467,0.05252715880006674,-0.38128666583857385,0.04295625234062428,-3.9743215126745786,0.48472345988127413,5.877306024686809,0.045287100954225945,-0.5143205815452327,-0.24124757793090787,1.2421875
0.17789868393162472,-1.3994861459152925,-1.2774795213823145,4.762626737764585,0.45064564888052805,0.1686393290191692,0.3621597367060435,-0.7994102211595566,3.3192432259147355,-0.43668947972585254,-6.04735584375414,0.0619159802971127,0.5809549008909057,0.07381256038009888,1.25
0.38089391108826504,-2.973437707851509,-2.7089195771252625,10.10956704255305,0.9519353402429076,0.3771700989113605,0.741223152763162,-1.7463032284253162,6.723014238614005,-0.8918626143448312,-12.439083808418708,0.14216609617129558,1.202989281680247,0.12779170124789158,1.2578125
0.37401478200365673,-2.698265062810508,-2.388253310208934,9.070512813858114,0.7752317557050543,0.5987573793244667,0.29062684732482985,-2.2475046901187334,1.6892352849014762,-0.30500596140479214,-5.825218088498912,0.272334774322195,0.6636248699923638,-0.27163902490575315,1.265625
0.16319510145999502,-1.0087443443779083,-0.8340192177988749,3.3039854618316378,0.21495891678540693,0.4390911370821945,-0.2119694770234361,-1.396760815176414,-3.0693859941334356,0.3098787440033438,2.406180637114831,0.22207219050395746,-0.11134685097002181,-0.426648900648835,1.2734375
-0.05454882888653914,0.4592482930247898,0.43151463574469306,-1.5813385591753466,-0.16423434757960295,-0.011443396662464777,-0.1843532304731408,0.14820801149902257,-1.842886965087998,0.23138330162546616,2.9207228823275577,0.004212755266403557,-0.26458774455434836,-0.09017304678597376,1.28125
-0.12357144784862734,0.8551310715238547,0.747393205995382,-2.861349438376895,-0.23429093013718183,-0.22623243428446113,-0.0379624846071196,0.8059049631389842,0.09056505888100683,0.026972588073427086,1.0740005698903177,-0.1066190547071363,-0.1503627767900554,0.14152066024957682,1.2890625
-0.07103411642676984,0.5505123310784845,0.5027052212450983,-1.8746542363806835,-0.17842290509256256,-0.06666705743079353,-0.14209583253443228,0.31458325277778687,-1.301204334255676,0.17321931815767072,2.3741962342069964,-0.02447200497942573,-0.22888138283858123,-0.028168280160897244,1.296875
-0.014448075977605506,0.19581899220896212,0.20655241766022683,-0.7093344498139225,-0.09930611540000535,0.07841898649383944,-0.2027436187951741,-0.15214636322636765,-2.219389534994589,0.26335671186244247,3.0214143261985114,0.04837534359638713,-0.25227435430166484,-0.16419635083705136,1.3046875
-0.025028347279124976,0.18206226268723344,0.163461473261691,-0.6166210333098024,-0.05651827423805667,-0.030808000411463875,-0.03392249848322266,0.1266679326526918,-0.27770019129321766,0.04092335777653699,0.6004501788735955,-0.013012812722104647,-0.06130555960193744,0.0041847953796413494,1.3125
-0.09220755225388431,0.5822567246796917,0.489173011501817,-1.9180319383116102,-0.13536296777827256,-0.2244230796836339,0.07926674919880768,0.7305452757399072,1.2747249004815993,-0.11981326301291173,-0.7689204090038809,-0.1119573681362915,0.015363371820414827,0.20298969872823303,1.3203125
-0.15745187905453972,1.0541595873371197,0.9080997196377342,-3.507212916527504,-0.27196821846521174,-0.3267651231715411,0.024784780767097125,1.117035606819057,0.9360564050610706,-0.06143040503445623,0.3008566913141627,-0.15820781571483844,-0.10488632706537526,0.24687492264275887,1.328125
-0.1485643670028504,0.9917743231043594,0.8539123026515968,-3.3025449127644166,-0.2549117389482087,-0.3107502875429783,0.02784065120675318,1.0595188496895998,0.9350792612062808,-0.0638912360894252,0.2161612509404938,-0.15066212314637986,-0.09370203126144022,0.2371183980024961,1.3359375
-0.02860335837365814,0.14152467661490073,0.1055378682202409,-0.45079004688633656,-0.016232269009377527,-0.10502315039944604,0.09392784784167531,0.30777376952330393,1.1750629293636328,-0.12688781478626976,-1.2555308911965726,-0.05534362931617395,0.08694388209151943,0.1256504839701016,1.34375
0.12390607014777422,-0.8501396306640544,-0.7366651899652256,2.834846063289801,0.22318822172288894,0.24811155943829563,0.002971576193955887,-0.8618534767949808,-0.4891297790853575,0.02166473372226943,-0.5680796187595936,0.11904583956381833,0.10945359723029406,-0.17522434318628918,1.3515625
0.1588062112587556,-0.9954248871543807,-0.8289393827754277,3.272673205218146,0.2191682087301196,0.4129502127285308,-0.17858356179460477,-1.3258784629176794,-2.677113540831582,0.26553408880205165,1.937276589616819,0.20777341954288878,-0.07565638268558371,-0.39018843739910847,1.359375
0.0668932626307603,-0.36934384579895685,-0.286161947164708,1.1828421650970546,0.054340700228684445,0.22939686479997912,-0.1797419852791068,-0.6894759119628268,-2.302912240335688,0.2490790502055363,2.339731568635956,0.1196499154292937,-0.15542125130034007,-0.25973399682147585,1.3671875
0.01579432029882743,-0.10631259948990987,-0.08913500160784046,0.34860359509127803,0.0240914226763559,0.03967000005945711,-0.012561271213761178,-0.13071390224960158,-0.20897439001332788,0.02091108348957743,0.11237718693671693,0.019689362979204223,-0.0011097036517030976,-0.03468397057240171,1.375
0.06363626353613182,-0.48973326410952844,-0.4425333704709145,1.6577458334706452,0.1513998579859388,0.0759508963656862,0.10149591881350191,-0.3233909670096938,0.8698501914934114,-0.11848467090827548,-1.7530105251404255,0.031130202275706197,0.17464171984533625,0.0004771337769183909,1.3828125
0.04814603142959372,-0.4009362951811715,-0.37173631991011324,1.3704383859002403,0.13547666986232187,0.028041510690263734,0.1337385921741256,-0.1764148090041887,1.2956221888615287,-0.16349442947012147,-2.156487857807206,0.0065029226853547725,0.19939602613112326,0.051844369923991,1.390625
-0.08777735059705719,0.49303304299394796,0.3913693988492172,-1.5942213564767156,-0.08538205502778129,-0.2762712930421369,0.1948754356775034,0.8414838913925458,2.5546745518931475,-0.26986771060745846,-2.477456735609412,-0.14282985990279964,0.1556541962388299,0.3017893500170572,1.3984375
-0.15588000322187223,0.9308300717843402,0.7612297016364384,-3.039187626520496,-0.18841118810969787,-0.4396364044909812,0.24648817973855736,1.3768223357204534,3.4225555956537157,-0.3506224558068609,-2.9465922455194242,-0.22406861057833216,0.15876922283247172,0.4461251739005569,1.40625
-0.07126418759245003,0.3982927747155172,0.31574320227347835,-1.2852892357519423,-0.0680064831491669,-0.22562972689725688,0.16157290296168067,0.6856870004673057,2.113406571044443,-0.22332127675694957,-2.063219049263876,-0.1169045378188465,0.13073421709661034,0.24796723586665786,1.4140625
0.020196978070077625,-0.11591558725928147,-0.09028633002132956,0.37090778111560496,0.017442490369547235,0.06972743211783815,-0.05294737798218249,-0.21064724991952996,-0.6815030661331376,0.07450988556353833,0.6867050713679119,0.036231339497530365,-0.045049903521608266,-0.07773084692098307,1.421875
0.07303830016913898,-0.3682225066618145,-0.27006565441120006,1.154344881028048,0.03443447801241714,0.28652817294024824,-0.2654686183885751,-0.8361887054787603,-3.2918875063658626,0.362164883904077,3.5696707690997678,0.15160878662007227,-0.25164085317386137,-0.3463321356591479,1.4296875
0.17057968997235962,-0.993155839011329,-0.7974601486609237,3.2189761215369574,0.18102114997333174,0.5214260586966005,-0.3412951792423073,-1.6054871540177529,-4.554706777718097,0.48010362278894736,4.265062661347933,0.2684709576422146,-0.2582354125363635,-0.5546657474488658,1.4375
0.19622088558238865,-1.2323315373248378,-1.0280402781559357,4.052496486186967,0.27364378082253943,0.5055183564356567,-0.21259484511695273,-1.62672252365516,-3.2167939755538737,0.31713259823192075,2.275133559437905,0.254047830645213,-0.08396427579883045,-0.47440315375191483,1.4453125
-0.024221356410965005,0.14265833101844094,0.11737531460569785,-0.4663019493565618,-0.03050693171167985,-0.06487279766082876,0.03406576192275535,0.20386018734903374,0.48215022579141775,-0.04769187665133587,-0.3986124647570855,-0.03292519849232103,0.019864387520162036,0.06490196347882954,1.453125
-0.29340360448527025,1.9063385422799175,1.6197229731474394,-6.3120688170323795,-0.4628358763000928,-0.6737928727649743,0.16770508186508512,2.235135142110147,3.1160027521651887,-0.27450549855898754,-1.2141716903939943,-0.33243029046087663,-0.05178632006413316,0.5711831209099317,1.4609375
-0.27369441146117585,1.8186962413645598,1.5604769923499173,-6.0447016295153,-0.46092508937609666,-0.5862341667417069,0.07582259645073933,1.9863449816378735,2.0002041318900696,-0.15075764933620003,0.04579627522385672,-0.2855141501696234,-0.14375527117256728,0.45943640108568956,1.46875
-0.03551224208329871,0.26090675027201915,0.23474373688617345,-0.883999369354667,-0.08048041413731317,-0.04422040083737528,-0.048503587653712404,0.18153651991904246,-0.3988789947708029,0.05786509922583175,0.8566683136136739,-0.018612911157578717,-0.08756323741272654,0.0058537395101119685,1.4765625
0.09363089181984686,-0.6540233199635775,-0.5700324468726604,2.185458238908621,0.1761289983304196,0.17718161832542273,0.022675780778681733,-0.6280847987581292,-0.14211446399851987,-0.009865119979873502,-0.7288688380733985,0.08397101707276171,0.10694252189205937,-0.11412222757692614,1.484375
0.03446207336212082,-0.3303161965549172,-0.31828834413742196,1.1479650694667567,0.12707821023182164,-0.022794615696399293,0.1785971287728929,-0.02726986303919292,1.8590164584655784,-0.22483428125785995,-2.757128027484454,-0.020338027305462258,0.24097253655178116,0.1121702624740856,1.4921875
-0.057805205554525105,0.32201045534893113,0.25500795761250256,-1.0400253373107946,-0.055272123561340626,-0.1825095759901234,0.13068002322628686,0.5548601000748539,1.70935470428344,-0.18025166630056386,-1.6676848305918066,-0.09457920449012777,0.10550232998136147,0.20062139160842804,1.5
-0.058780232937563945,0.4409516103340784,0.3985727064680302,-1.4966553228908521,-0.13783465885481344,-0.06867981907398735,-0.09103876369774432,0.29154544102160285,-0.7767723953494046,0.10889263809790778,1.575043651080109,-0.028236102687989404,-0.15776604007928016,0.0006979361229271568,1.5078125
0.0850654091551318,-0.5082404531955691,-0.41205305087675875,1.652248019849476,0.09768353662814518,0.2501184518760293,-0.15005809471901607,-0.7786455143161073,-2.044762265361853,0.2138817835850333,1.8298875929318665,0.1280339344412078,-0.10488376071640045,-0.25853203970008237,1.515625
0.3043634235185993,-2.0884794212170825,-1.8116878148205748,6.968371013548013,0.5529535839080907,0.5987500874416861,0.02329892706087583,-2.089429978702508,-1.0204115514540562,0.030266669828184944,-1.627608401200645,0.28639561411538134,0.2874834401625137,-0.4146884609751046,1.5234375
0.37412813936651595,-2.5978860805065023,-2.265634735314287,8.685862468648233,0.7030336439508829,0.7026247906265355,0.09214098615815637,-2.4897891580130476,-0.5411782921751687,-0.046058711645295604,-2.9270560767435825,0.3326767249201699,0.4285618499264141,-0.4520090557797367,1.53125
0.20362080444280672,-1.3497202895903548,-1.153991444083155,4.477901766508129,0.335418185656098,0.4514140102842535,-0.08056637269629814,-1.5168296729983861,-1.7643708010778347,0.14617713839094346,0.3157034363442204,0.22112368717848507,0.07860614033024156,-0.36509294057743613,1.5390625
-0.007285724777778506,0.13675224369828437,0.15116413573155943,-0.5053464595724374,-0.07846134547621705,0.08163269438185111,-0.18136203576928953,-0.17589761387601582,-2.010123120924025,0.23680201824529212,2.678654186302841,0.04884566389370105,-0.22076345543958847,-0.15505872257610867,1.546875
-0.13028653577251742,0.9100527543812352,0.7979737591967966,-3.0503573254863006,-0.2527273083142755,-0.23021480242582398,-0.05595505645222431,0.8303693735021307,-0.08494430146789876,0.04929312558188886,1.3669178898136864,-0.10753178047728473,-0.17730406504134458,0.13468001412944994,1.5546875
-0.2840736506880015,1.9121886927439757,1.6500155319323029,-6.369218357319964,-0.49598303961807383,-0.5834985178594595,0.03086211367205554,2.003206995070055,1.537190073645958,-0.0939707036230797,0.748270249414912,-0.2818246627447682,-0.20573778174680257,0.4333896902472227,1.5625
-0.4608177119393864,3.113165559832482,2.6894292486068028,-10.373179348236793,-0.8109818197732878,-0.9389296416633701,0.03367088899554673,3.233144788728848,2.31369800996018,-0.13213285235269245,1.4517411790698451,-0.45275498476209264,-0.35320899816769663,0.6887136286884183,1.5703125
-0.4247388754576354,2.755899299144271,2.340078376543365,-9.122748780709331,-0.6663792116109154,-0.9816982640072911,0.2537387362938675,3.2509319301655344,4.6357472881765895,-0.4124032144883388,-1.917440870666761,-0.4849212871949071,-0.061878108704925376,0.837092457089872,1.578125
-0.14046829627737775,0.685274790580455,0.49844753417900267,-2.1468952061406035,-0.06026286231517731,-0.5527129314559669,0.5222696137902986,1.6054216459621147,6.4569496604855114,-0.7075762356198093,-7.040193574647974,-0.29298259251887554,0.4986162896045663,0.6745422028943595,1.5859375
0.12687927336241095,-0.9925879924790821,-0.9034965113066417,3.3727916902345285,0.31623158411462504,0.12820597291930805,0.24372537806501463,-0.5891400555871764,2.2026202585344294,-0.291984363892254,-4.098143260707058,0.04879915101995274,0.3969910040198314,0.03924330488582192,1.59375
0.2153963512320748,-1.25843972853228,-1.0129052330638597,4.082585877460672,0.23274010439867743,0.6518064666432157,-0.41917688872055797,-2.0110965577277464,-5.617257375036947,0.5904990815857559,5.212381066593265,0.33520523817041775,-0.3122628506108808,-0.6894618862145557,1.6015625
0.20720550902502424,-1.1219246730995247,-0.865836541647215,3.586252441947742,0.1600943560144756,0.7184234207622079,-0.577929725205866,-2.147911828594623,-7.3664317787312,0.7961705839322115,7.564896225476056,0.37550440579852984,-0.5071567488924091,-0.8219906547133027,1.609375
0.19001326013762895,-1.2207401207429598,-1.0291282066359404,4.030391677850041,0.28460166144821036,0.46163092702709807,-0.15213746370536205,-1.5099626602175238,-2.5109190138617303,0.23710702506547915,1.4171715765549335,0.2297045433807829,-0.017721610825471208,-0.4106972499416869,1.6171875
0.16109327006244736,-1.0909610873816036,-0.9410717694563075,3.633626669572302,0.2812346465469094,0.3343935105518374,-0.01958063265662098,-1.14753568583324,-0.9003601601395582,0.05843726596650953,-0.39599410213721337,0.16164793800515842,0.1144582688417306,-0.2488866406131971,1.625
0.1107958183316561,-0.5834495327827308,-0.44235496435323607,1.8546786497779628,0.07258081506444879,0.4034967653067897,-0.3449756015664929,-1.1946117618111307,-4.344582528535511,0.47332434552580677,4.57011397892204,0.2120299344386597,-0.3138086206673994,-0.4724178249159573,1.6328125
0.0424810736713522,-0.15475960178362935,-0.08399301370258856,0.44268540300899434,-0.023635437161359105,0.22962824085450628,-0.27409605280488636,-0.6340677768804941,-3.261172176080621,0.3675208267605154,3.8221502853852267,0.12479072573249539,-0.2882338207776583,-0.3103515868599352,1.640625
-0.02658735295905147,-0.017306331903212655,-0.0841530436785651,0.15598136021469172,0.0918107176645446,-0.25042186766695174,0.3802519460704316,0.642433136860068,4.38053011929337,-0.4999776301474805,-5.445272778926384,-0.14026367620208385,0.4275601954492182,0.38265966565391624,1.6484375
-0.051126078360504146,-0.014511664450887064,-0.1404331924269025,0.2309520854404296,0.16585083904075357,-0.4681834041144653,0.7030817996517543,1.2060116210064682,8.111179204507883,-0.9261625447786004,-10.056781723610097,-0.26185404592040623,0.7889023930934099,0.7109532351426725,1.65625
-0.022152182197485847,-0.006688083860074743,-0.05980904123252887,0.09794895460275208,0.07015505193005683,-0.199198465216626,0.29909060530344245,0.5126456206515994,3.4516527343383228,-0.39329769048273006,-4.277511061213423,-0.11137243234636533,0.3354011618125295,0.30265966204337624,1.6640625
-0.0022967415586875326,0.057533007401021505,0.06740875636796168,-0.21906638887179986,-0.03772996285008996,0.04569521106958248,-0.0935594592985759,-0.10377241471108833,-1.0428259546164094,0.12306801003249718,1.3740072764058486,0.026907633302092678,-0.11247257926621629,-0.08237426224237052,1.671875
-0.037366281064241155,0.2311439633614001,0.19417003766317315,-0.7629526118211051,-0.05362199505501822,-0.09129404613952438,0.034534652987722056,0.29537435668860124,0.5429721713083615,-0.05085788302607727,-0.34833165112976283,-0.045661792090977996,0.009303472234279457,0.08397817497032085,1.6796875
-0.09855207627047899,0.5405514855035214,0.42347618472017146,-1.7384053493568437,-0.08600646336066492,-0.32383689037527014,0.2452685441331516,0.9766321892027725,3.1671053023939337,-0.3377781644076047,-3.1670255982125863,-0.1684340879631422,0.20660505796869275,0.362786585360379,1.6875
-0.12193366480463251,0.7755060016917329,0.6540548907831426,-2.561193823508163,-0.18228655515545858,-0.29285668871945547,0.09611032948414241,0.9573639448890261,1.5900606993233357,-0.14770239400957325,-0.8897942975809636,-0.14566428408880308,0.010000852497988441,0.2608238022727271,1.6953125
-0.07040120056718083,0.589323877192089,0.5517252829679589,-2.0255262807493026,-0.208406856503586,-0.020702224562942358,-0.22752162321578556,0.20572368887982379,-2.2619380284631774,0.2847172017469914,3.6186051481046984,0.0020881042997732907,-0.3292894774971364,-0.10670073617297661,1.703125
-0.003165427079052045,0.23598248871537889,0.28297893676993974,-0.9007727144021304,-0.16309237240824576,0.22100477251420034,-0.4324257981420661,-0.5104506681014606,-4.847225853213321,0.5653457344695806,6.32725674308947,0.12893178215252118,-0.5145799932367513,-0.3889384498580248,1.7109375
-0.03533917429194068,0.4786363609974264,0.5016797065899836,-1.722372965717347,-0.23770147540101688,0.18096896058082548,-0.47912313917269295,-0.34412673240336966,-5.237728948135283,0.6201072453291412,7.145213799764322,0.1121479592909425,-0.5973573530431626,-0.3853513374705489,1.71875
-0.12758185480900128,1.0356567381041843,0.9589561089692019,-3.5445671321052568,-0.3518883501205528,-0.07636059226430188,-0.34025600534516687,0.465236377923317,-3.2899319409822607,0.4208354970872093,5.5056623858165485,-0.018747560690706228,-0.5116700170543197,-0.12728973485640127,1.7265625
-0.08316849978353702,0.5664862348676352,0.4929891996045808,-1.8946685353383104,-0.15240959101831028,-0.15901574355870143,-0.011646607018300295,0.5573744690233466,0.21593720141058462,0.0004903997373954435,0.5180316552491364,-0.07575690202751209,-0.0846229637960037,0.107639871949549,1.734375
0.09190811264015694,-0.7616532532829919,-0.7062957848635646,2.605895534030583,0.25920657250147505,0.05073975244324238,0.25829452495594424,-0.3288837592320362,2.5129375740783604,-0.31774866005143493,-4.163236119126511,0.010761418154411426,0.3845194944366719,0.10238766747548761,1.7421875
0.12032765385615796,-0.9457537713715921,-0.8628396031067037,3.2170404941486366,0.3036130185474169,0.11659508173325513,0.24105381059907038,-0.547000748862511,2.199616743875099,-0.28971143110767944,-4.031335833508267,0.04333903426261311,0.38830619972357405,0.046130475290958095,1.75
-0.05622060709382666,0.3152101164900333,0.25002876670205854,-1.017899310013589,-0.05487835139245311,-0.17613795761297685,0.12408064613458987,0.5362368185155811,1.6279630374240648,-0.1714928719526078,-1.5785108585720646,-0.09102689225132031,0.0988781950520304,0.19249610011493498,1.7578125
-0.12204316870613666,0.7218780503848835,0.5875398254985644,-2.353906732560118,-0.14319921108051992,-0.3499886513791179,0.2044542296998552,1.0912097922986657,2.8081570569975973,-0.289234986944583,-2.4742339269986275,-0.17875155932504042,0.13774364546850815,0.3596230685887623,1.765625
0.06343282416328855,-0.6135078651788235,-0.5943574396994389,2.1354559536393003,0.24077604780055628,-0.05302333706058698,0.3475996097084932,-0.022079323629406747,3.6364959164710444,-0.43982340164937844,-5.346014225036556,-0.04374283896017608,0.4657341914349309,0.22421836888564187,1.7734375
0.2395052895584028,-1.7419893271676647,-1.5459333851547745,5.861806175054855,0.5053773377723774,0.37162104700694626,0.21006053041859324,-1.4121480888007953,1.350729990562085,-0.22593470868739313,-4.080053120802852,0.16738632642720927,0.453406893148232,-0.15257089380976338,1.78125
0.25861277062190235,-1.6988795432094166,-1.4463547562601542,5.62786792817161,0.4150564835746852,0.587844802515785,-0.13091521943187834,-1.9601585357940488,-2.5602145827729177,0.22269151473569415,0.8177477628216733,0.28923091396210127,0.06603063013566832,-0.4894494944869182,1.7890625
0.2838840301919523,-1.7990339266041753,-1.5072935214126326,5.923876518281762,0.4085609984357235,0.7125060649060989,-0.27289715380940677,-2.3084604502543105,-4.261471876364391,0.4127413537988849,2.784698111888345,0.3566608878054648,-0.0804845962818951,-0.6544637328904391,1.796875
0.3055970793755544,-2.0093162711113166,-1.7118022845740681,6.658200243155594,0.49231862233346046,0.6921571692017529,-0.1503336345688483,-2.3103181211627453,-2.9762712739966295,0.257038618772827,0.9053116523090498,0.34043278786571657,0.0833569298304537,-0.574349151064565,1.8046875
0.0631708170927756,-0.39423105293016586,-0.326125651316875,1.293251853047736,0.08387520681135283,0.17099291967804242,-0.08175857512182495,-0.5447667567724083,-1.186942191295088,0.12053327067328229,0.9279164623223203,0.08642952383957529,-0.04225926698687637,-0.16553084220460818,1.8125
-0.37720023536232994,2.6411247588176905,2.3153650350341266,-8.84676650060781,-0.7311703822184781,-0.6717912025695566,-0.15701417794385952,2.420120334956774,-0.1806185126185381,0.13311218832273766,3.8837316603495293,-0.31444123421271514,-0.50746062180135,0.39594585870107346,1.8203125
-0.564662534317585,3.897172302103079,3.3957195506009508,-13.02695318041178,-1.0522946872053718,-1.0677063158596485,-0.11826127919406824,3.7691292960192055,1.0428423368339321,0.0459903031621941,4.107465771657391,-0.5065983344368128,-0.6219459015534075,0.6993449981334121,1.828125
-0.35736184601564597,2.380367783528435,2.044504615146951,-7.91674416395375,-0.6053368553394063,-0.7616594504879207,0.09059149725453526,2.5853248321778057,2.516640755684241,-0.18626135695967153,0.18305869961360474,-0.3705356568926452,-0.19790596415199857,0.5925661201464448,1.8359375
-0.12620463068723112,0.7570954971598511,0.6207397477640272,-2.47681253470789,-0.15553217268900624,-0.3508992534123907,0.19058827620565005,1.1030201536663817,2.6678333431155767,-0.2717408575622466,-2.2526021399283573,-0.17849817330551773,0.11779517468711174,0.3528194949526762,1.84375
-0.11367604102864418,0.7313165234634496,0.6190745661886504,-2.4182910695568536,-0.17540778482638184,-0.2656022080681657,0.07517900700064636,0.8756655303513151,1.31998131881535,-0.11869738411074907,-0.621513283245027,-0.1314844849875543,-0.008122805104445772,0.23023786873117977,1.8515625
-0.10779478068656972,0.7496953158749559,0.655712573354399,-2.508895156610628,-0.2068155331398198,-0.19401099401275418,-0.039436735343098855,0.6952813207140893,0.008891065917455322,0.03197515060887148,1.0267031104080466,-0.09108347644224804,-0.13876650755371583,0.11782783186866239,1.859375
0.08529285125591,-0.5641839416328389,-0.4812327794566422,1.8700885708645099,0.13795620000804037,0.1935875689875803,-0.040908088697442925,-0.6469686473662598,-0.8202290308861651,0.07147854716028408,0.23464388348456663,0.09517667512332141,0.02439420163542878,-0.1597709481391558,1.8671875
0.3054430005173867,-2.0627805692714505,-1.7780695699595073,6.865615395517218,0.5314518629397926,0.6348855508175613,-0.04139927370514808,-2.1760231387075137,-1.7527124132911616,0.11499008480637798,-0.686190865925866,0.3071811887210601,0.21184633461264107,-0.47520471238191136,1.875
0.33556219275484195,-2.2606730045555326,-1.9463596014539373,7.521385975957579,0.5799243363135753,0.7028192326744911,-0.05601065362838408,-2.4031224620042475,-2.0429998480252016,0.1398631163444123,-0.600763330689951,0.3405650458290628,0.22037488212424527,-0.5315112486808733,1.8828125
0.18782989128012745,-1.2909857325582448,-1.1194333557010896,4.305801752115557,0.3412504586964759,0.3705473782938223,0.013638261306689572,-1.2929970341908374,-0.6379230953916016,0.02014620316782862,-0.9947931472261436,0.1772659297324389,0.17683855884510122,-0.2569264911383242,1.890625
0.011615379856842975,-0.13928892786065297,-0.1394796759194073,0.4897944728304429,0.06033426515864177,-0.03082290563242844,0.10664599756813534,0.043179399332394806,1.1478113656330116,-0.1354820228590724,-1.6074086216790051,-0.020431707162256754,0.13658908437547998,0.07942432570684686,1.8984375
-0.0446324658415556,0.25454595272745273,0.20507635054105397,-0.8275633162648055,-0.04794663032133637,-0.1322132211487027,0.08525159243797889,0.40739511656792937,1.1428148859489202,-0.1184342934086177,-1.0562241247541266,-0.06798566569088972,0.0632124731082726,0.1403218711349809,1.90625
0.07455077435490635,-0.5149203143110546,-0.44645328228783865,1.718283273669963,0.13547483712267167,0.1485635451761558,0.004423692086151108,-0.5180247095272124,-0.26627414226361407,0.010187860810117825,-0.38104352928166185,0.07114996741003174,0.06918010856151505,-0.10338378665183397,1.9140625
0.20245898263129097,-1.3793028135403334,-1.1925234733747654,4.596372079512542,0.3598196742243788,0.4105002403302539,-0.00695131007100365,-1.4192324282147528,-0.9308291966010714,0.049839433118772695,-0.757680486580584,0.19754584195890784,0.16484199159417387,-0.29642227937225996,1.921875
0.09744469369929537,-0.6732812198885855,-0.5842156200827041,2.2447701349760933,0.1781704449173223,0.1915414705854178,0.009649740904548756,-0.6700684647857753,-0.30304436880760816,0.007823265929671608,-0.5561053462768896,0.09148138196470425,0.09480750370282637,-0.13120995319298062,1.9296875
-0.15815332407976412,1.0893229051823563,0.9497927730565859,-3.6436614511167384,-0.29537853312150125,-0.29628949854975006,-0.03622272617945944,1.0478943909682374,0.25465064204088683,0.018116320947638934,1.195609287547752,-0.14038616051268626,-0.17776925042832684,0.19246065085155636,1.9375
-0.23875920565493491,1.6663286962475787,1.4589244727257287,-5.579683306891918,-0.4596029166800731,-0.4289216996738014,-0.09146387357948639,1.5401679215365311,-0.027987896293342696,0.07453584530369804,2.343109313021688,-0.2011119671213991,-0.31208689032057196,0.2575477066154723,1.9453125
-0.12180876816447953,0.8598881035258528,0.7567049467762935,-2.88473296353214,-0.24271019667042695,-0.20607149222492085,-0.06991617683029788,0.7550160948160543,-0.2771581105801129,0.06905952776238092,1.5330598678702831,-0.09518147333498023,-0.18679049935816588,0.11000154781157831,1.953125
-0.08734227753958577,0.5820768381587766,0.5011110292431548,-1.9382805165525159,-0.15024998449745552,-0.18114105544715794,0.014615137822541415,0.6186901888441628,0.5284370364508069,-0.034595786916391334,0.15285783373146586,-0.08771409559747383,-0.057206461382735954,0.13748390852289527,1.9609375
-0.16066201327932808,1.0334415798626944,0.8754196854273048,-3.420120344474538,-0.24755826010862117,-0.376140976924831,0.10709704549357607,1.239809456696759,1.876268798946547,-0.16954149373568683,-0.887064926339628,-0.18630891136391428,-0.010164679995196933,0.32621159873733035,1.96875
-0.11741187741206652,0.7232297182958527,0.6013414496015808,-2.376481824832097,-0.15890555865713918,-0.30587120530980877,0.13836151821482717,0.9775716442698185,2.0461141258764943,-0.2019824388601189,-1.526954406714556,-0.15420134036395047,0.06381468759235061,0.2927687550810733,1.9765625
0.0016641217840732147,-0.03137152791718615,-0.03203993149822274,0.11169637517161463,0.014070338009375509,-0.010615209650842493,0.02940119268359911,0.018540570377009746,0.3216193042136646,-0.03667552637549514,-0.4405754154487208,-0.006621821782160386,0.03641453105402615,0.02364637591062837,1.984375
-0.005672220731630632,0.11185775994907507,0.12553910304185414,-0.4154572576841554,-0.06625166554115795,0.07086674100218267,-0.1547009745140411,-0.1548860896816079,-1.715886002337472,0.20223308242100466,2.279218372650384,0.0421920809300516,-0.18780580479035552,-0.13307799781668925,1.9921875
-0.018662092960487667,0.21649126507126548,0.22204598373929035,-0.7739293297787514,-0.10146847471232316,0.062336457527561645,-0.18789113734009352,-0.10538501059406108,-2.0344125242412288,0.2431541445959831,2.8215742520851355,0.039818614188402594,-0.23812120848751472,-0.14477596452976307,2.0
0.16348195696276244,-1.1107249427846146,-0.9588256965046429,3.6982701103903244,0.287356340355098,0.3367749745402312,-0.014892246467860065,-1.1585933341175718,-0.8571155879397784,0.05284191251989394,-0.4726374609760531,0.1625615527662465,0.1221474870296529,-0.24812903550960905,2.0078125
0.32792958367722075,-2.290044378909567,-2.0019431051653798,7.663495352464285,0.6252368051432792,0.6030355895782694,0.10556878015353478,-2.152628108973602,-0.1957306905864899,-0.07244523586684977,-2.9281865227367097,0.28416315621547983,0.40497897392716503,-0.37374038523647757,2.015625
0.1918006729931236,-1.3112099934031436,-1.135638313213597,4.371424994841866,0.3443796875405433,0.38389936994014356,0.0029500623745760783,-1.3326186133474136,-0.7763362912712972,0.034954742681928455,-0.8569260999133831,0.1843121815400311,0.16718478842216727,-0.272196396344665,2.0234375
-0.06934745130189297,0.5248597065342964,0.4755544412105963,-1.7834740024445717,-0.16522217890958285,-0.07779033322802137,-0.11435430997907821,0.3366816702050046,-0.9956591487650855,0.13724072792339032,1.9593439408918067,-0.03130080961730495,-0.19453504300022384,-0.005346895555917144,2.03125
-0.14810235328158128,1.0071115401833184,0.8739255570182595,-3.3628560420324063,-0.2676939982742653,-0.29018603535945015,-0.009511825684457659,1.0105986024944487,0.5137357685740693,-0.01493424360128332,0.7625094061962374,-0.13884668009359047,-0.13747340728948557,0.20242576075794536,2.0390625
-0.08993556539506543,0.5092947694697028,0.4060298638832939,-1.6466934506265898,-0.09015502617113971,-0.27887984355624273,0.19206070261155575,0.8521087637587563,2.533416634788267,-0.26671664053715205,-2.426300992960098,-0.14403761288982495,0.1509598061171742,0.3022650594054122,2.046875
-0.04798732848097013,0.21119978118548702,0.1432141265341037,-0.644657993258777,-0.005758140216439884,-0.20814374664332158,0.21771107207924364,0.5919996455548374,2.644726351550902,-0.2920018950444283,-2.9783961370025893,-0.11144922798222276,0.21720176618812226,0.265497572163416,2.0546875
0.022797784248109517,-0.18758508211541877,-0.17220729704933074,0.640130466066558,0.06118660357527246,0.019068356914352932,0.05410394319737093,-0.09831557614669967,0.5092791264498426,-0.06467182128086763,-0.8880004398144721,0.0062922123209406015,0.08385763346126478,0.01569643387407912,2.0625
0.12810028057473766,-0.828948014577072,-0.7003495394729271,2.7371690003776674,0.19514673084655595,0.30745239511358974,-0.09466334288972224,-1.009709349540672,-1.604101107619588,0.1499242709490287,0.8399227266913983,0.15269802712332442,-0.0025782846943268687,-0.2698350883496008,2.0703125
0.11376762301256901,-0.7183642544454985,-0.5997964427319595,2.3609948010997184,0.159898437208266,0.2921941869009692,-0.12067800113408327,-0.9417057851704047,-1.8358957671433318,0.1810249661292952,1.2799199497177476,0.14677683116100373,-0.04573381902808492,-0.2728817415618127,2.078125
-0.029471861428123254,0.2403084085351135,0.22454657798424482,-0.826722473330602,-0.08482582362384833,-0.010876619283201841,-0.08937699084678953,0.0900074188889789,-0.8826533637750109,0.11236426806505923,1.427914007345515,-0.00047530901562924425,-0.13088122541976957,-0.03979086404779963,2.0859375
-0.11200169600691089,0.791899207131219,0.6984404045509988,-2.660424303415333,-0.22519989904476984,-0.18616634714286434,-0.06987650387224724,0.6861241222408315,-0.3175210960883519,0.07099181097372928,1.4927452759483584,-0.08572364935596373,-0.1781673330049247,0.095753150711637,2.09375
-0.07222459973076314,0.5051101331170533,0.4442128814156313,-1.6960228057345785,-0.1423479443401999,-0.12334772097342211,-0.0377799961404434,0.4494430567513522,-0.12455033262656204,0.03687374828819109,0.8556792300875146,-0.05721445269044752,-0.10626470669398025,0.06809673928980159,2.1015625
-0.039779695327004816,0.24744140970322714,0.20803803028780765,-0.818108485787669,-0.05772638230726028,-0.09674972890307772,0.035388557979308184,0.31369677223874387,0.5616364674629593,-0.05240193588493549,-0.35265065015846064,-0.04829435434308321,0.008036743492292813,0.08833802245527725,2.109375
-0.07243400618082699,0.44795843408930835,0.37423053642143,-1.4756640013930034,-0.1006225971029653,-0.18444806672917843,0.07810265001297052,0.592148234804925,1.179968600071225,-0.114580520977176,-0.8405658844772179,-0.09272681488199606,0.03083928022709724,0.1738615047804483,2.1171875
-0.09402353952276854,0.6304244612859093,0.5449555415999555,-2.1022354619451225,-0.1648103983667178,-0.19104688517879273,0.00805090251112769,0.6565526214548063,0.4844605916435986,-0.027351261298254555,0.2751586535307486,-0.09221633803546199,-0.0704973349981624,0.14106364494100873,2.125
-0.06700479390653177,0.49077932309643485,0.43933764374708867,-1.658354671092047,-0.14795889251660732,-0.09192308446730424,-0.0782755711080819,0.36428529002108057,-0.5994572560485827,0.09060150834125223,1.4245828883405094,-0.03997961601217354,-0.1497780609496341,0.024056064654793093,2.1328125
-0.027098722938076913,0.17539060526046102,0.15000154929560086,-0.581987367975533,-0.04469323952844082,-0.05765679990712249,0.009044843862599787,0.19392331224240847,0.21265488685140135,-0.015571301418336615,-0.018888815028437873,-0.028071655224133855,-0.012397778816340813,0.0463343490304548,2.140625
0.023609142189781704,-0.2656054124835008,-0.26618585566948905,0.9394616437232941,0.11492478447928872,-0.05468775310549506,0.19798623509547958,0.07181680735712641,2.121783690204553,-0.2522797695788605,-2.9940571522431654,-0.0366379654376555,0.2547046962374061,0.14536490229853571,2.1484375
0.11361087369676025,-0.8579991123970058,-0.7713889502599193,2.9028691535457174,0.26102031544913207,0.14686839075170327,0.1573412262280818,-0.6025941164886817,1.2875423219667261,-0.18176448427102695,-2.7806486851537775,0.06227934470380606,0.2834984085459145,-0.02030972541804063,2.15625
0.19461863369165755,-1.2486984028264914,-1.0516431810202358,4.119295050430327,0.290102539984842,0.47491278470112114,-0.16013165086992287,-1.5514388622729467,-2.61890844362073,0.2482579908197322,1.5160222451003136,0.236583746421136,-0.023254214876900582,-0.4244854636740257,2.1640625
0.1585987194782991,-0.9226598942087093,-0.7403355941333652,2.989518749385527,0.16750609223089546,0.4863209100092881,-0.3199545973952174,-1.4962624171115981,-4.263067898020222,0.44984636250167387,4.0039601341922655,0.2504704961027165,-0.24316701179441985,-0.5181713958183803,2.171875
0.010610871948574203,-0.04935981953542289,-0.032579390850834965,0.1497019638951444,-0.0007521115343715267,0.052169033281310694,-0.05595278071966904,-0.14796666532975802,-0.67550005507445,0.07659881437136518,0.7722491320326074,0.027985388593961328,-0.05679095549245231,-0.06684817262743695,2.1796875
-0.0930795491785541,0.4966553424928615,0.38262051532086144,-1.5864439952195206,-0.07125716837204421,-0.3202385975728094,0.2592843593865517,0.9558613749911181,3.301400124173574,-0.35495823738467547,-3.3960542064968022,-0.16747747192038206,0.22782823664808294,0.3677846718277614,2.1875
-0.06944885353353275,0.3654550334131747,0.2798705913649759,-1.1669310750716444,-0.050373398405210254,-0.24277609876892467,0.20108452434318533,0.7216842268324963,2.54764030537324,-0.27444956289822797,-2.6466225852192187,-0.1271254251492062,0.17878060935620535,0.28128234210601605,2.1953125
-0.02430731421481719,0.18250180169050687,0.16660235322504216,-0.6247809390281296,-0.059292142863036,-0.024156885458147752,-0.044518041107382195,0.1094004249664511,-0.40142269109954504,0.054879222113364524,0.750682027468833,-0.009169661856882337,-0.07356282483345915,-0.006301435045771538,2.203125
-0.022727000309708575,0.19374786602810998,0.18443895514915343,-0.6731649239854,-0.07243513425218825,0.0021821777508130376,-0.0884833988822396,0.04427706393621509,-0.9011626985079765,0.1126327132832674,1.386779864269803,0.005716926088346667,-0.12401438815340933,-0.048620879318033494,2.2109375
0.03134302009674623,-0.2142686852695264,-0.1836160162178075,0.7111048877699397,0.05336511589248115,0.06905108976594936,-0.008883586917302344,-0.23438063920127664,-0.23357412781042905,0.01924906610924838,-0.004758111402693684,0.033605252780858096,0.01655544546664755,-0.053737071731502245,2.21875
0.12916304169456552,-0.8449000200716277,-0.7174926332078029,2.796391793047875,0.2034770154631491,0.30035998607499415,-0.076851582998613,-0.9956835943229828,-1.4090345353474587,0.12689074189368124,0.5739794923207422,0.14834984245266944,0.019415907708474296,-0.2552917742851894,2.2265625
0.07778429402289033,-0.4392358716581403,-0.34609432675308655,1.413122621833812,0.07126456439804311,0.2549507867466167,-0.18720517321746658,-0.7731867872653398,-2.433566707801773,0.2608952460352833,2.4026224724867697,0.132397236804406,-0.15527895208668538,-0.28195930795699126,2.234375
-0.12704535999174715,0.9068938459553811,0.8025369074788845,-3.0504703904741213,-0.2609547835241484,-0.20404270535305286,-0.09375356128456078,0.7618636055308367,-0.5218950459603835,0.09913839205460862,1.9029097365497774,-0.09303959407243977,-0.21934305767033566,0.0958087459217089,2.2421875
-0.20829099292046055,1.3566215957763645,1.1548888173686127,-4.494324161189976,-0.3320250108302532,-0.47276958370777844,0.10949082639707952,1.5727816382033453,2.1042560365852703,-0.1819287556212398,-0.7227723920219282,-0.232882940169538,-0.04779385668504415,0.3965137469909272,2.25
-0.078962745242204,0.43616475998309134,0.34328775002587675,-1.4036996401356365,-0.07144805570743,-0.25556710695485574,0.18956107916789502,0.7728413408224768,2.460233615393716,-0.2613707370772685,-2.4389918859065753,-0.13275658418409747,0.15742878924608028,0.28430554432794386,2.2578125
0.0008503826080139215,-0.0898293916333188,-0.10601598184407922,0.3393720395965532,0.05901749578114539,-0.07827327164641762,0.1558666430576109,0.1784787568973263,1.74564886965602,-0.20194360354538413,-2.28412521609977,-0.04576527000895477,0.1854578425700483,0.13967790251190842,2.265625
-0.08067347575056819,0.4881461245062581,0.4027141198269529,-1.6006067276238796,-0.10363189280963403,-0.21756349123131852,0.1097507296895739,0.6884254758658435,1.5702844325124585,-0.1575653463125251,-1.2655604627483816,-0.11021645078350217,0.06113606738521417,0.2144407799961047,2.2734375
-0.08247920525201698,0.5441658306382208,0.46686061142904883,-1.8083912504145025,-0.1384885093683724,-0.17593009489534747,0.0232700993699213,0.5952664793026816,0.606105609324157,-0.04490108666099707,0.007008126570098401,-0.08567195468505283,-0.04270865226802884,0.13839764919251343,2.28125
0.10565193541042983,-0.6746452039616433,-0.5662247073301462,2.2245579998632548,0.15362975919208152,0.26433446254170223,-0.09798841885808285,-0.8586422703266887,-1.5482444356575789,0.15008730033360607,0.9857573121875272,0.1321783755004028,-0.025540741111399975,-0.24089568758658375,2.2890625
0.21125366577302365,-1.3745370223221507,-1.1652781168638902,4.546723994397744,0.3289350660799275,0.49524923804704757,-0.13508930564164395,-1.6367341928201522,-2.409813517394172,0.21908314417272792,1.0828134249666814,0.2450376761721693,0.020672190652873297,-0.42562621671023043,2.296875
0.04099434564516807,-0.24420983135026222,-0.19693520959159844,0.790829700048177,0.044932742672613844,0.12497161888475777,-0.07915342978746803,-0.38645321777067954,-1.0649842100044642,0.11290869905841794,0.9842945900251351,0.06422215796517065,-0.05859626601304488,-0.13127249216751602,2.3046875
-0.15995282241432318,1.1116563953372542,0.9725047981827569,-3.723349778184537,-0.3058996672282863,-0.2897840090889212,-0.05577853317109188,1.0370061305291842,0.04325998226102999,0.04325134147452428,1.4895487522463229,-0.13622285162061692,-0.2026223762928888,0.17737227376759743,2.3125
-0.07026177613234823,0.5160364028125172,0.46225671758348125,-1.743938975395467,-0.15614128544284617,-0.09521213919006537,-0.08452198450585441,0.37943380850778446,-0.6567660114678563,0.0981404665379222,1.527795939151153,-0.04123244833350363,-0.1601354496989462,0.023026340972001645,2.3203125
0.22232831154025606,-1.4826768590969035,-1.2704050835430072,4.923412391964134,0.37237098857202816,0.4830863243912727,-0.06980553979191954,-1.6335132968996195,-1.7214435898175784,0.13573056522891128,0.07499039718561266,0.23575277804650277,0.1071565516426507,-0.3819906674562971,2.328125
0.3628271884425945,-2.4739066000630774,-2.1410029668010537,8.245152294280118,0.6488266308247131,0.7286866378578593,-0.0011237139730800243,-2.52503803870074,-1.5398473142680889,0.07333962066803092,-1.5210832261322103,0.35007085029960777,0.30855577442470966,-0.5205349116779692,2.3359375
0.2296301602512752,-1.599750031040062,-1.3960624397299202,5.347504024082604,0.4339830572639469,0.42889821574029435,0.06228557273966924,-1.5234037416785264,-0.26773619401181525,-0.035249337792685485,-1.8819758613135502,0.20274409642293398,0.26998015058132535,-0.2725478692276948,2.34375
0.019722290538872828,-0.20024571491928925,-0.1950652698471914,0.6979184621139091,0.07962517501230064,-0.021510585943861207,0.11977030179886314,0.003308234753318238,1.2591361437483837,-0.15093550116353166,-1.8335184151177886,-0.016586276887429183,0.1588356039058576,0.07975933673274437,2.3515625
-0.1330012794724038,0.8157756600044612,0.6762218288297769,-2.6765663385225147,-0.17659014211793408,-0.35159219087233723,0.16614648264885484,1.1194606079838152,2.422003600773122,-0.24111397591122627,-1.8672316478329176,-0.17758990289506252,0.08345871470226904,0.3402578400186648,2.359375
-0.3011820890138029,1.9782529819496881,1.6890918505008063,-6.5617964913941575,-0.4902630055320396,-0.6696875998094407,0.130435864989186,2.242874278788816,2.729850327789304,-0.22732244123059295,-0.6369362042918609,-0.328562669851357,-0.1022020221252887,0.5483178669681014,2.3671875
-0.4579649040216771,3.104306329747114,2.685075015229427,-10.346948078863385,-0.8133114594897143,-0.9224817323608202,0.013247900210501859,3.188273007734348,2.0739769313986947,-0.10497213937602604,1.7374896610945,-0.44381868870376384,-0.37478331003134846,0.666101197366685,2.375
-0.3937531895316333,2.708202806604637,2.356825415967586,-9.04741893208326,-0.7280374396383437,-0.7520308509549367,-0.0672397265187682,2.6451093187317696,0.8989032984010353,0.012569360100853338,2.643077738017364,-0.3576369408463103,-0.4155412711490076,0.5012820443693128,2.3828125
-0.09720205232102042,0.6876076092446848,0.6068030342403011,-2.309883160781175,-0.19595966658034475,-0.16113269905081648,-0.06172634586272988,0.5941590787951688,-0.28730107439301916,0.0631038685739948,1.309956385409264,-0.07407598234536979,-0.15606856710853872,0.08233182666258236,2.390625
0.1344001703854075,-0.8885914419330794,-0.7576634598395531,2.9442058601863157,0.21822433283886275,0.3028302920445796,-0.061721628534874354,-1.0133858783326046,-1.2608526048593045,0.10818323807360486,0.33180750564819916,0.14872271395633324,0.041772276753963125,-0.2489015355678188,2.3984375
0.14692068259795024,-0.9424879882507402,-0.7931613369401673,3.107598674395062,0.21798449544469625,0.36066870336100965,-0.12409196518823809,-1.1767259134427994,-2.0140043627922997,0.1920723533633151,1.1913953603563812,0.17976131505490153,-0.0212102453460024,-0.3236014545920576,2.40625
0.14210014014872002,-0.8872216763212584,-0.7374823724125007,2.913234086932005,0.1932786172333817,0.37386154734289806,-0.16791389741323454,-1.196629786303756,-2.4873893679843286,0.2483915943030537,1.852549715173843,0.1884592176104143,-0.077331396570641,-0.3565405264359699,2.4140625
0.2614241533873246,-1.7362156805143958,-1.4859666797675586,5.764529044392359,0.4335614550961953,0.5738636998458247,-0.0936117487890649,-1.933798318578008,-2.155669021104702,0.17463997592725308,0.26182177299579534,0.2806554371426066,0.11227221735691373,-0.45957945386780236,2.421875
0.32492297269704085,-2.2566198025243502,-1.968287648923395,7.545386908820883,0.610834721943618,0.6098158119642312,0.08098765095076346,-2.1615868881147,-0.46062874197277187,-0.04093340854763731,-2.5581325675630384,0.2887038412762882,0.3732043620524766,-0.39173582780634875,2.4296875
0.18142868616291707,-1.3501013837782325,-1.2085814571787006,4.558130997520083,0.4044794428144312,0.2508678418701001,0.2181451351186981,-0.9987413723869154,1.6849929753523785,-0.24791178831707114,-3.955149820455675,0.10904107729702887,0.4132458431821868,-0.06199895242776146,2.4375
-0.013308453388224332,-0.011092917514523268,-0.04423578470547733,0.0852703323193285,0.04608160393104552,-0.12447031197663953,0.19002059185184267,0.31847398405216526,2.188600133367172,-0.24912506087659553,-2.721168261914806,-0.06974418974060688,0.21373361627020515,0.19091647561828773,2.4453125
-0.07109243694861771,0.4568838446127382,0.38799571274171996,-1.5146663996265992,-0.11115571421715462,-0.16314343085801652,0.04237401561653813,0.5396738209733379,0.7730948274946243,-0.06769619040753834,-0.3208209180875804,-0.0805287642142928,-0.01043739603160745,0.13947862073320827,2.453125
-0.05184561398995885,0.3685377229724259,0.32696974646245625,-1.2422358341410695,-0.10740052108609723,-0.08064892611733421,-0.041685494573333905,0.3035153216829772,-0.25202881745763217,0.04574646073942111,0.8252511972771327,-0.03649986677050886,-0.09346387716267365,0.03558815881284902,2.4609375
-0.08741684465156799,0.5991442656001126,0.5225226545855852,-2.0048713791956922,-0.16276751384503874,-0.1634945807037165,-0.019298918812549713,0.5774276637327032,0.1490195929980779,0.00961526749135297,0.6484754503729991,-0.0774959613673535,-0.09724411288065475,0.1067238985289115,2.46875
-0.1470141391189686,1.028296905248131,0.902621790687886,-3.4486138941936417,-0.28642005811120813,-0.2583373203490459,-0.06623935403695089,0.9338629757057842,-0.12753268298995163,0.05926803238617023,1.5855977529352987,-0.12058105979346313,-0.20370273043255935,0.14930961386704789,2.4765625
-0.15113686742701454,1.135827437009225,1.0244198142478136,-3.849254503064796,-0.3510460041344749,-0.18459406298830258,-0.2232595134207865,0.7711963052417189,-1.8736761807166542,0.2633652169963045,3.896415507468034,-0.07689261503900653,-0.3931096026563392,0.012610163453054952,2.484375
-0.1436925238358319,1.0800801013719132,0.9742588392226985,-3.6594856889548506,-0.33389508391814726,-0.17497803497595826,-0.2129120583221829,0.7318177665011171,-1.789110098319295,0.251338806539429,3.714570773397773,-0.07283390624380262,-0.3743914027967771,0.011277560891749121,2.4921875
-0.170087466738564,1.1016411938333055,0.9358305701694951,-3.6462741779174968,-0.2670577959521144,-0.3909649045681874,0.09967615618079807,1.29539875881383,1.8318776288497667,-0.16165266017749447,-0.7392320355859323,-0.1930577653649038,-0.026748478782327216,0.33279776007213835,2.5
-0.12471123362634141,0.6696205187075227,0.5172998217137873,-2.1402699889377317,-0.09713302685762269,-0.4274391107346784,0.34347843415885687,1.2774706037741266,4.37895893839916,-0.47092339193834537,-4.49259334109415,-0.2234287081459329,0.30061665611583266,0.48936106271508867,2.5078125
0.06636043251380146,-0.5422364758119164,-0.5002843464036891,1.853720165988832,0.18087086919679898,0.0459648741484047,0.16948295624130785,-0.2601169314594762,1.6215261884280265,-0.20665646279429448,-2.7583167690812775,0.013128591645279762,0.2576286691487519,0.05827309517475608,2.515625
0.23162854848485942,-1.510950069869718,-1.2833145464199078,5.002271253502424,0.3642539760412246,0.5373398529083844,-0.1378196446391954,-1.7808661981677334,-2.5251085074234267,0.22653099020075845,1.033584486134629,0.26537477226197664,0.034699216715588455,-0.4570391847733875,2.5234375
0.18765214388743595,-1.2188358723662862,-1.0332701714698935,4.032446923489168,0.290888483818901,0.44172922634861916,-0.12355005389884771,-1.4578402755815578,-2.180615346090689,0.19931259365441356,1.0113902611016685,0.2187650999651664,0.013817896342806744,-0.3811890357791427,2.53125
0.058245346957592474,-0.43195933441661183,-0.38522280557917743,1.4559574093279175,0.12675025318584526,0.08612965234880027,0.06085199113489823,-0.3349782113058949,0.4348922745536522,-0.06661289549352883,-1.13744164483591,0.038289958995837835,0.12156407368588798,-0.028644265015198206,2.5390625
0.048219760862328195,-0.3334462341459785,-0.2880280503540502,1.1077979165696779,0.08651422825622222,0.09784360062710787,-0.000162221249462637,-0.3398748443490402,-0.20691561221067586,0.010955875250476295,-0.20548860313525374,0.04711291937365234,0.04087068565472959,-0.06966685164904977,2.546875
0.07017631548216643,-0.39120504129758005,-0.30458703808725085,1.2501134718893399,0.059439834484455875,0.23702437790057726,-0.182257224479242,-0.7142978573803022,-2.3435888597962045,0.25284775445032487,2.3629221412553503,0.12350387460562565,-0.15583541271941928,-0.26648545275817986,2.5546875
-0.034213771509762056,0.27683994419817715,0.25820049095354947,-0.9540223555377872,-0.09672018236491811,-0.01527710937820555,-0.09910070729040724,0.11127009087055817,-0.9708400309278385,0.12409109810492054,1.5913354285256165,-0.0021042708438257503,-0.14643416736079876,-0.04182693293669545,2.5625
-0.11838559593770563,0.7349550988932977,0.6130611955902812,-2.418253534085608,-0.16437108328738562,-0.3024504341508584,0.1281459778649755,0.9719335084080029,1.9350216104843945,-0.1887565032205919,-1.3726368945512692,-0.15202106478238106,0.0508488063672063,0.2848502252936332,2.5703125
-0.003362974298352278,-0.04655012489442721,-0.06326006133005103,0.1896935176720772,0.040765511543251094,-0.07166615667372292,0.1272866127501903,0.1722375203001934,1.441360566058024,-0.16518976466113203,-1.8470895900094917,-0.04112078396101536,0.14817761382359498,0.11962668127284765,2.578125
0.1266524281007129,-0.8526548570179471,-0.7328816481967177,2.8369972728752586,0.2167915448343081,0.2695428998760024,-0.027414712985124115,-0.9186551964155678,-0.843337665599655,0.062029027286546176,-0.13612803941527565,0.13091299156097194,0.07607887809154232,-0.20678551539088968,2.5859375
0.04367960563632958,-0.2808434914201048,-0.23539157484761272,0.9253087659907977,0.0632368076415262,0.11129710540038174,-0.04244650964553239,-0.36088247981370947,-0.6632145794169689,0.06545508958962512,0.4345059497964091,0.0556850274872939,-0.012620308590403157,-0.10184160420424877,2.59375
-0.10409761856654776,0.6766594391748457,0.5761067753867124,-2.2434134954832916,-0.1663450984216614,-0.23401903361097706,0.05197101985850221,0.7800565739509454,1.0195929646964252,-0.08665681623557274,-0.322358923822602,-0.11513758574366353,-0.027075007280454675,0.19525248146736834,2.6015625
-0.09595923489939774,0.5960848554156108,0.4973481723336175,-1.9615543751970308,-0.13357439738285126,-0.24415022651653187,0.10224814201720807,0.7850100303177892,1.5507513941589268,-0.1507912159441326,-1.0935340036711563,-0.12260862785070449,0.03934173368467691,0.22938999525011194,2.609375
-0.021098462121001287,0.07832641999580077,0.04635758288887,-0.23089765775861154,0.0061785779655697875,-0.10300480161598592,0.11892195914399424,0.2858396394989992,1.4225235372141851,-0.1579173054173568,-1.6520739420450035,-0.05565913122893501,0.12290440796634773,0.1374993914197796,2.6171875
-0.02532172822880285,0.13481737162401156,0.10541969035284438,-0.43501648533561854,-0.021602060410640604,-0.082326423669436,0.06335871452993348,0.2474366997442778,0.8148967641193378,-0.0860799147586654,-0.8190519756810105,-0.04281217551076157,0.05344574513464352,0.09295300421405081,2.625
-0.04925387633317249,0.3884471414339349,0.35759067046446197,-1.3288629449317628,-0.12979068019183176,-0.03637252148048762,-0.11620477185915438,0.1946906212196016,-1.1016317959561508,0.1436219462186842,1.9055415486322755,-0.01131743256535609,-0.17954332286473024,-0.03595883494006711,2.6328125
-0.04734644420828268,0.42060327143780174,0.4016159708212555,-1.4585624885170945,-0.1587742862359991,0.013626402838810527,-0.20477122381698223,0.07351960181365838,-2.1038030813888255,0.2594931130121587,3.1883687673607986,0.017343285130368195,-0.28271021853088524,-0.11900849012924099,2.640625
-0.07404492648876193,0.5392054302350486,0.4817652507980714,-1.8198988336361566,-0.1612238424179904,-0.10509349368969029,-0.08006435365098782,0.4108000635443018,-0.5906631063441136,0.09157556375215113,1.4784862783388646,-0.04625059302166338,-0.157885403717787,0.0325360518873618,2.6484375
-0.0671751556092423,0.48698336754728566,0.43466092242521454,-1.6430233231386715,-0.14519737697736487,-0.09680895149320351,-0.06951203024368123,0.3759675538713181,-0.5018068169464138,0.07929372337518652,1.297859764308923,-0.04283618858400258,-0.13957472292172193,0.03225227663317521,2.65625
0.056147978666035575,-0.2433430482702399,-0.15872144472902533,0.7354888654604994,-0.002908789788425822,0.26231690207418673,-0.28397596509426726,-0.7414197977240653,-3.429746237119512,0.38322507233440534,3.9113509073349033,0.1409400301687047,-0.28813641425160647,-0.33896854927658815,2.6640625
0.16293762737961479,-1.0113498337801747,-0.8387277111329621,3.3192515469841295,0.2180981399861945,0.43326129283407194,-0.201732119011604,-1.3826104179768963,-2.9539970614229603,0.296509322855602,2.2571243344368668,0.21872661315465344,-0.0994625038990072,-0.4169875576976079,2.671875
0.1375526527659647,-1.1099872913128324,-1.0215897831218288,3.7902394489547246,0.3680643938954523,0.10275495603643331,0.3335467955465169,-0.5542762137657733,3.1669492357717797,-0.4071941415648023,-5.45678221080653,0.031826440435692264,0.5126554167278606,0.10551547862291,2.6796875
0.11316284079181924,-1.0660576492239393,-1.027240942389414,3.7057323893475003,0.4121345944198609,-0.07154243143020132,0.5736187794668896,-0.0922691663949876,5.966783233690001,-0.7252839384097768,-8.860408663228547,-0.06450906225243255,0.7760204095731621,0.3584613321214733,2.6875
0.14172071565307015,-1.0428255903100352,-0.9290021934637229,3.512976847046713,0.30663819759606525,0.20995764238665882,0.14425352783333387,-0.8133838795203131,1.022941179169506,-0.15927793229053486,-2.7081236814468754,0.09329520024324174,0.2920019678752667,-0.0723527745681715,2.6953125
0.031792793546135074,-0.1239621530381318,-0.0723050073739492,0.36007604096762114,-0.012760216847957797,0.1658046260180652,-0.19261388557121642,-0.46080099587600004,-2.299741703683918,0.25905381860833554,2.677267206469343,0.08980394038167004,-0.20074462680323987,-0.22115083065051716,2.703125
-0.19824249718200518,1.2969357022993453,1.1058725324971794,-4.3015279252673775,-0.3201608542467529,-0.44368752746450757,0.09214857628988755,1.4827900521889044,1.8662522070580088,-0.1573586223598953,-0.5107466174651223,-0.21791792008087768,-0.06009625063027111,0.36641784756954393,2.7109375
-0.22724357507239104,1.374874168328854,1.1305899758021987,-4.499086057363876,-0.2861264091804713,-0.6249329228844098,0.3277123337268313,1.9712165235630128,4.634511841630616,-0.4704935976642589,-3.8296356273456786,-0.31732484017045576,0.19397323557714044,0.6218902207271255,2.71875
-0.02439431074743256,0.19904473566199304,0.18643408865012567,-0.6858831957633964,-0.07061079797057207,-0.008148260542589575,-0.07540373878724603,0.07207414965403927,-0.7473988291504138,0.09510570358518484,1.2012104296226518,0.00016179470769078148,-0.11005530052403457,-0.03427599940714907,2.7265625
0.053230645560608074,-0.09146349217197,0.020689224705397614,0.15809251612611244,-0.10308466659942911,0.3925398178755824,-0.5446383414228679,-1.0387952738184985,-6.345719307318546,0.7227431911949984,7.7278596121671885,0.21726400261898632,-0.5992170455797151,-0.5715352670748098,2.734375
-0.08449551422285793,0.7794787538264434,0.7508924260673528,-2.7111447262006854,-0.3019092640524839,0.048955966850748,-0.41465479677586187,0.0752272205973989,-4.30597086991977,0.5263802363461059,6.412271161156902,0.04531716223808954,-0.5628448145888528,-0.2566167276482706,2.7421875
-0.11893583676815297,0.809761485216846,0.7033481301371485,-2.7041568261978375,-0.21645106228605251,-0.23050206090889222,-0.011680709166611736,0.8053695076932377,0.366941482430948,-0.006342193592710597,0.6716753689212426,-0.11014790960521229,-0.11513493586448381,0.1586785712843075,2.75
0.05951834323985263,-0.46203205104458295,-0.4187141036566047,1.568114411926026,0.14442348600469554,0.06697082113279947,0.10292442902144353,-0.2934051828042944,0.9039661215051181,-0.12130198445135285,-1.7568165301979295,0.026735494666673538,0.172904478356772,0.00766138750209055,2.7578125
0.17076785590140384,-1.1824112776220321,-1.0292051777826396,3.951231210748995,0.3170515418335145,0.327454467597539,0.03080868914112762,-1.1534099065663226,-0.37533374002375086,-0.005480374953874733,-1.1722006197546888,0.15568943366501412,0.18246187868462596,-0.21696924487982386,2.765625
0.0589262369050023,-0.43090688751600326,-0.381936395536642,1.4492506255116646,0.12365361545561786,0.09422362616409552,0.048582971839690944,-0.35548925366239714,0.2943221678449704,-0.05034336171512997,-0.9575755473965826,0.042737126921300016,0.10797591713462037,-0.04097066861185276,2.7734375
-0.08699473686928183,0.5557726272485296,0.47005001313545636,-1.8386815551521583,-0.13287103234693715,-0.20427391566173186,0.06044476713224052,0.6718272836148997,1.0427629728246934,-0.09429962188501274,-0.5160665245192657,-0.10127361395073665,-0.002520720894490327,0.1785345277225116,2.78125
-0.07572270431511284,0.4953664932624196,0.4238243943588854,-1.646346048549805,-0.12432119486394032,-0.16529386658049586,0.028783912530749366,0.5549801237403417,0.640941394116881,-0.050973656703807414,-0.10531343874541818,-0.08087522190716835,-0.0302984695691977,0.1337854281596629,2.7890625
0.04558307064719162,-0.405463777846687,-0.38291101128287697,1.397172800724464,0.1468508284451178,-0.00023121080882259164,0.1778169366038998,-0.10550318071129117,1.8044800098710243,-0.22192123948326042,-2.7957252862037203,-0.009416016310821259,0.24971622874907184,0.09567942999104323,2.796875
0.11847280939377992,-1.0165317372440381,-0.953489263155963,3.4963099095299195,0.35989973134567826,0.027354872267699365,0.404688971862546,-0.33500857421818264,4.0455523285353605,-0.5036837702937671,-6.414734350575653,-0.008131386555733552,0.580492842729797,0.1974160754308909,2.8046875
0.06926072762400519,-0.6105458799161613,-0.5768409305896478,2.106478355760263,0.22073209898975557,0.0021793724303664232,0.2644068441484586,-0.16429219552070626,2.6762790752017738,-0.33000477794258914,-4.155738767217177,-0.012896411993627154,0.3723668475584648,0.14034251758943353,2.8125
-0.032796072170303385,0.31230976997488225,0.30422653151855056,-1.0910076686096957,-0.12603510757819467,0.033003200284581945,-0.18599379326581691,-0.004593612187806158,-1.954441505938687,0.23799416600229248,2.8535733542336947,0.025627478216767568,-0.24806447609625534,-0.12277101293957664,2.8203125
-0.07222685323109423,0.6677590912837783,0.6435130472754411,-2.3233739901554524,-0.25918957441730056,0.043648522942845235,-0.35786816496404933,0.059920984306483106,-3.7198093186173793,0.45452411354298833,5.529491265217095,0.039891815287124176,-0.48536649146455746,-0.22246852473682413,2.828125
-0.030953661641137362,0.284742302326559,0.27512897477327997,-0.9929687582137287,-0.11181315120305896,0.020941625611294732,-0.1563153758128416,0.0192527457602285,-1.6290820639145556,0.19938718699866695,2.4110447288408037,0.018446074896159296,-0.21160272437513214,-0.09841456551375452,2.8359375
0.02581702128872746,-0.12457593558140796,-0.08756464106206609,0.3841846555153295,0.0061999786553712955,0.11111080973333957,-0.11105490030956171,-0.31979070107318286,-1.3589154109103738,0.1514047243749423,1.511087686283178,0.059310686846807216,-0.10943825140360768,-0.13851159335869043,2.84375
0.07127231395939891,-0.34023138021149507,-0.24021564419209077,1.0534895819552306,0.019844120183992734,0.2991029572648252,-0.2962853379510797,-0.861460098743637,-3.6308621687296565,0.4021536072858599,4.026291721915909,0.1592448700797321,-0.2897129385036768,-0.3718300677272261,2.8515625
0.08713180930012096,-0.5122481441699389,-0.41191851950981667,1.6605851542392047,0.09425599230605916,0.26494405468376253,-0.16996474525232094,-0.8179361163059716,-2.2785153800697056,0.24040051446147043,2.1144491655118927,0.13615737242338372,-0.12649463033014602,-0.27981053746181767,2.859375
-0.0023230186023757565,-0.13537918869366303,-0.16939158227022746,0.5273123070095406,0.10146744530617886,-0.15360748722665687,0.2881055147566285,0.361168001284175,3.244286077408302,-0.37502869942928946,-4.201326321452138,-0.08895463486798492,0.33945292354238005,0.2642573075633898,2.8671875
-0.17730254809496468,0.9974909233281303,0.7901964011865263,-3.218807950459027,-0.1695621199147128,-0.5639571137209525,0.4025860011257461,1.7153587527355916,5.267106097287847,-0.5586294881343803,-5.137012119347344,-0.2920621684368925,0.32554883851678745,0.6185564848071103,2.875
-0.23782037664667616,1.5988050376943141,1.3791284334250098,-5.324788082450781,-0.4144001747101425,-0.48948129374999033,0.028048299177337945,1.6791266377758096,1.3139802949056487,-0.08149113962807314,0.5911687012873071,-0.23658509198975103,-0.16960718047620937,0.364867261018508,2.8828125
-0.08788821875997745,0.6798866835701454,0.6202538362613201,-2.315027914381141,-0.21952275223458992,-0.08443406198896156,-0.1724013024784106,0.3942718430579835,-1.5694137065119769,0.2094612544523166,2.889545249541464,-0.03146461790011588,-0.2789775398659994,-0.031689760985661,2.890625
0.07133531010622286,-0.5289422820349888,-0.4716384608464475,1.7828290531044892,0.15554439537732398,0.10490268786440562,0.07552155127158719,-0.4086973912498525,0.5452377632329141,-0.08310725592254012,-1.4041429752031365,0.04646748083050732,0.1504480056573569,-0.03417180223622841,2.8984375
0.0568551279033906,-0.5171078179744371,-0.4928097765225336,1.789844471291675,0.19224185393676996,-0.013770470419029353,0.24705414908942497,-0.09909515965991056,2.5327844217085,-0.30985181643385445,-3.8508527537704627,-0.019546182233375616,0.341122418976534,0.14239073635397395,2.90625
-0.007036212607445331,0.027286690796613524,0.018189442483997932,-0.08436024312905531,-0.001124766349845895,-0.028311002941051662,0.029966163228434026,0.07992258183816271,0.3626799266619542,-0.03894284753312482,-0.40996541187256536,-0.015108185221156796,0.029477129242178827,0.03652998247264975,2.9140625
0.057638498491251786,-0.2957612378720916,-0.2191148415663017,0.9300428998004914,0.030027198111316884,0.22230455322229495,-0.2017463706776951,-0.6512428674324642,-2.512054559131944,0.2760743387183844,2.703171486690177,0.11746460292782863,-0.1896630644497228,-0.26647256383016443,2.921875
0.17716512647478028,-1.1439505620566075,-0.9660333468613922,3.7772773185354427,0.26902265456334146,0.42549244952896575,-0.13243880858336463,-1.3965101532587494,-2.2353216916846335,0.2088087305046188,1.185139153409396,0.2113949168687024,-0.005411002274452878,-0.37439160915724773,2.9296875
0.19211127851074597,-1.327210543708077,-1.154081817207217,4.432416048235826,0.3547801351279681,0.37092396989964566,0.029415255921065295,-1.3034418950482791,-0.47914376545941284,0.0004097829825947094,-1.2447333407530323,0.17660844289352098,0.1992290089454573,-0.2487078733192893,2.9375
0.11271405213333362,-0.7782650513952618,-0.6756178933497503,2.5979578175593896,0.2065932633460083,0.22088826542387435,0.012390246333325397,-0.7734967656727558,-0.3364557357343299,0.007189006132957494,-0.6614399851949775,0.10539921679703895,0.1113969946123197,-0.1506949268964557,2.9453125
0.02905669690893314,-0.14799121767249285,-0.10805628228445388,0.4644819994616031,0.012963658677195981,0.11627715467282301,-0.10818666457075822,-0.33962494852184205,-1.3397079762910433,0.14828597835560434,1.4537496532917493,0.061535821858843306,-0.10294577654467912,-0.1406052426395887,2.953125
-0.03625543753394277,0.303580572533646,0.28532557145391074,-1.045393975313191,-0.10895420704684468,-0.007536892625882235,-0.12194814976386277,0.09750760468305644,-1.2201033177291396,0.153529066966413,1.93062485835486,0.0028527973526823384,-0.1752656321671331,-0.05959344493564354,2.9609375
-0.07039855169488377,0.483971221596702,0.42278697577480595,-1.6205218341207668,-0.1325564355468524,-0.1297150247612989,-0.019097323101918428,0.4601637787708267,0.0785498803192779,0.012735302913256247,0.5732256853524319,-0.06124641539151482,-0.08276418036267864,0.08271512089607343,2.96875
-0.07030551408533352,0.44798482599318606,0.3787540959278907,-1.4818716327044303,-0.10691758412795528,-0.16573484824065843,0.050503487020521085,0.5441969247438365,0.8598645398902895,-0.07796667389139605,-0.4418637083135003,-0.08225514774854152,-0.00022467217409407586,0.14570007657871936,2.9765625
-0.1343342731102297,0.8762509889075879,0.7465410999225476,-2.905104560340241,-0.21600106265106,-0.30133560826213146,0.0647648773846648,1.0057866121227232,1.289985293955546,-0.10910568123566504,-0.37970023428699656,-0.1481331649554329,-0.037912065854763255,0.25014719200899094,2.984375
-0.3122006977085055,2.0425517595340805,1.7405960953325443,-6.7718041742928765,-0.5023966436966928,-0.702794820977525,0.15108480704094918,2.3454643628531215,3.0089895229219916,-0.2565867100508851,-0.8918375815481043,-0.34545087302108823,-0.08750393279894643,0.5829903035386103,2.9921875
-0.38999743322198455,2.5249860468906697,2.1420389498300194,-8.358001715844981,-0.6080122031099232,-0.9066440133442522,0.2428920800646992,2.9971937512622007,4.3676183712910905,-0.3915731857028854,-1.904884623103662,-0.4481784728103012,-0.0451819185218128,0.7776666315516237,3.0
-0.13166985931289094,0.8498497441230656,0.7216716554335569,-2.8153062603102526,-0.2058927940646908,-0.3035601108379865,0.07921685697375291,1.0045331611725299,1.4406027545508513,-0.12744723364817856,-0.6018384333037624,-0.14993978138670322,-0.018406704063863008,0.2594290556228902,3.0078125
0.2868202434283277,-1.8385987336711151,-1.549230590575025,6.069133265959876,0.4278891771741026,0.6987522590728414,-0.23454133433058932,-2.2825348875382834,-3.8457881889447423,0.36366008382892007,2.21688720881891,0.3479524562538574,-0.032595855947572555,-0.6241610120804941,3.015625
0.43374874285986076,-2.8467240151089714,-2.425284391298852,9.436766061178355,0.696834350534976,0.9840433988441075,-0.21737571178017986,-3.281390567956922,-4.270040555465518,0.36973228658528645,1.3451932305308816,0.4840790439316687,0.11322681450541401,-0.8186259045914065,3.0234375
0.22269796505551445,-1.5782066759881042,-1.386725470365554,5.2924221783237675,0.44010446785680774,0.3882183625447899,0.11357950100469551,-1.413181870327743,0.33761623036143756,-0.10349655409908318,-2.6003298815160614,0.18051576042867468,0.3249267893540205,-0.21603801050675903,3.03125
0.0037987797467840412,-0.10004899828790735,-0.1106588708781977,0.36646226479839616,0.056847822634324675,-0.062235894410257814,0.1361947930256984,0.13401921139298267,1.5130055602482366,-0.1756798307961539,-2.0087229499452213,-0.03698795887917692,0.1646938457526473,0.11765334566783826,3.0390625
0.017794402921352002,-0.01301345994906262,0.02990050682937937,-0.019802805076462263,-0.04915837209618952,0.15335169457455897,-0.2229671379210564,-0.40031452381499355,-2.581585225076229,0.29585499442418023,3.1767241847264556,0.0854853986604498,-0.24879644149134542,-0.2285589804967557,3.046875
0.10929148636785921,-0.6225289830860711,-0.49327076958672034,2.0064892136543477,0.10506694887872942,0.3502119776162147,-0.24887038261033523,-1.0669414247414621,-3.258201928745285,0.3475254772344195,3.168504751304322,0.18137771247007353,-0.20135788805207208,-0.38296510384312116,3.0546875
0.06598489873328198,-0.5568017687559773,-0.5182666762248194,1.9074200855273917,0.19213747077501617,0.028080937010736783,0.20196596272283995,-0.21752885286439927,1.988619664422828,-0.24925406232931632,-3.232472921901098,0.0028769985755217964,0.29562444330472404,0.0883876253628498,3.0625
-0.06927948854009537,0.30084628095958327,0.2016644321762723,-0.9188020983273931,-0.004650650875641007,-0.30734826906828266,0.32560059015080633,0.8716969916180534,3.946643060170489,-0.4368735806091523,-4.46567899507035,-0.1647698671228668,0.326595336780234,0.39407104086274736,3.0703125
-0.1415668859593364,1.0333811403801436,0.9214169893364461,-3.484992360177677,-0.30663296270432444,-0.20475911242955633,-0.14786318148653993,0.7967844618519613,-1.0681182215136886,0.16701308802814957,2.755899635554824,-0.0905812030893213,-0.2957847654023769,0.06739861163620656,3.078125
-0.11531964959198035,0.9917746192073499,0.9339989733015085,-3.415940220375946,-0.35780438458220276,-0.01154643271165271,-0.4169960511786639,0.28682722680342393,-4.201989705805515,0.5233087879616559,6.576477962798697,0.0163880264236263,-0.5920624384016788,-0.21460121186563472,3.0859375
-0.07002007524234202,0.49732460447134796,0.4396110793641797,-1.6707531094693628,-0.14300125699619257,-0.11229474556961228,-0.05046584300123437,0.41878267293766375,-0.27521172161805757,0.053656828471103146,1.0313003472795077,-0.05126922018197309,-0.11936133262831315,0.05350568285852554,3.09375
-0.09511613056655559,0.47045036377085486,0.34613493982106897,-1.4801334599304554,-0.04625459840406378,-0.3654346912473415,0.3376979804989632,1.065780145093886,4.190650094209865,-0.4578513408836635,-4.533685046431993,-0.19324127480720354,0.31879467655488547,0.44197264386155627,3.1015625
-0.1935357205290467,1.1719422498599494,0.9646630723051726,-3.8357751104783935,-0.24529347518852881,-0.5296120391455656,0.2745954710513995,1.6720003364994642,3.895872286173663,-0.39454878053486897,-3.197269895881527,-0.2687822671921642,0.16005118180387382,0.525414882734638,3.109375
-0.2110916319127012,1.3912520536601212,1.1898086923721873,-4.617140949996236,-0.3481929159956017,-0.46221727374988125,0.0786059205669657,1.5548101874969147,1.768617752250184,-0.1420647183976975,-0.25919618395596095,-0.22617163884750102,-0.08682686593854973,0.37244379399325833,3.1171875
0.009262267918965148,-0.08228424840943799,-0.07630074925355233,0.28231292629350346,0.027355552714095874,0.005654224521046916,0.02798222666347301,-0.03645156600893495,0.2736788637521163,-0.033149699028712634,-0.448508408834098,0.001190972141882794,0.0415164650599136,0.011314931717288998,3.125
0.31219124053556696,-2.106371242812147,-1.8144521195582983,7.008315762015637,0.541901917667483,0.6508681406392516,-0.04618973698430022,-2.228803067575506,-1.833683589770315,0.12245721605791972,-0.6445424579214927,0.3151064769425871,0.21214962923117495,-0.4891228894605427,3.1328125
0.3362163873722798,-2.20714667021688,-1.8791895796731106,7.309785748766236,0.5394561776295754,0.763563944638174,-0.17038147310623677,-2.546075681870503,-3.330549287024128,0.28918307002442684,1.0669080446791528,0.3758856308890062,0.08526701883435467,-0.6361252730381669,3.140625
0.07235175711911526,-0.43194601165562974,-0.35040679809676967,1.4037279563105456,0.08245746264668993,0.21396396001323267,-0.129749619195928,-0.6652590228332254,-1.7650529332131577,0.18494340882315502,1.588053895782033,0.10971960752928005,-0.09195137203779878,-0.22194458285084534,3.1484375
-0.07462110793024504,0.5003918911025399,0.4321741182070385,-1.6673844772730455,-0.13123187040482703,-0.15021079759971684,0.004550159260027662,0.517681801389059,0.361732334028442,-0.0188501604564321,0.24793788125424146,-0.07240115903546167,-0.058143762273841576,0.1100188552134756,3.15625
0.03909253836500495,-0.2534190117962488,-0.21267346549681235,0.8340184752068179,0.05772953672778139,0.09827413261833384,-0.03507560999564805,-0.32002527095210087,-0.5611709971061631,0.054885652409744475,0.34586134240095184,0.049026601320372926,-0.007866955024856568,-0.0886168636772121,3.1640625
0.07195382337933347,-0.40917093115715303,-0.32280135614402433,1.3157143922267067,0.06741403057898962,0.23389737020972107,-0.16934023487139305,-0.711018330510878,-2.207467177717958,0.2363801065674185,2.1668666240503756,0.1213598379816059,-0.1390388016495473,-0.2573835496016802,3.171875
-0.12624655252999814,0.9068868276118296,0.804509368182605,-3.0543267371326523,-0.2636009108622499,-0.1970021435126082,-0.10472579253876785,0.7437071062533566,-0.648194486658043,0.11350149522932758,2.0596830232568215,-0.088963711313687,-0.23195484290488005,0.08485470118487248,3.1796875
-0.2211346069436261,1.4442552359121879,1.2306003511609063,-4.787269879062679,-0.3552313970979592,-0.4985967763399941,0.1092903389063126,1.6624389609909598,2.1552493324725908,-0.18417407658889226,-0.6655320785830797,-0.2452206867561965,-0.05935740554519739,0.41482968701675016,3.1875
-0.05467795605205193,0.28390313143243445,0.2163504162791004,-0.9039927046601547,-0.03761703223902276,-0.19318858977921244,0.1635314437701181,0.5724505525973442,2.064960101480253,-0.22249832896685007,-2.160746336116636,-0.10152656965907202,0.14734704533260992,0.225871712071757,3.1953125
0.05839895548643887,-0.42296489881613597,-0.3730400371743106,1.418879461257098,0.11954469647511201,0.0980665183059129,0.039593716064257885,-0.36333740972970074,0.19714109272399388,-0.03872570092185045,-0.827468230288081,0.04490887543454008,0.09719965465446558,-0.04844108524412169,3.203125
-0.028936777702840925,0.18586650473011987,0.15890116218891678,-0.6181519245120413,-0.046999964927228965,-0.06235532037824075,0.011327027004775335,0.20900603544496366,0.2467390062945738,-0.018908068661171902,-0.04546122990030269,-0.03053428730499782,-0.011083063240050263,0.05092765383862439,3.2109375
-0.03876738887353965,0.19767920488606344,0.14907752161570856,-0.6266579693614233,-0.02480703196614143,-0.1395439937001867,0.12098826149039799,0.4111471469400178,1.520172268334602,-0.1640788142465531,-1.6068376999955634,-0.07331931428724403,0.1102076823131211,0.16474530671611018,3.21875
0.11497714742774191,-0.8466177619457022,-0.754187621770874,2.8552714395920473,0.24878772851454214,0.17024803872673971,0.11756605949458385,-0.660439003369444,0.8350873914075158,-0.12970055167245478,-2.206780163193658,0.07562408050034475,0.23754343166321698,-0.05826068135845558,3.2265625
0.1329860032022202,-0.8915768310166144,-0.7651628716340344,2.964022393262072,0.2251317768846492,0.2868671482974737,-0.036162220426073914,-0.9732086024569184,-0.9683942224885148,0.07461795693835552,-0.03514714228151671,0.13969162695650228,0.07109955342879147,-0.2238437649861975,3.234375
-0.05715165118519549,0.4266879589226108,0.3846286494252028,-1.4446727683586134,-0.1324001865385059,-0.06836597335931723,-0.08492194951423435,0.2869758138636931,-0.7171311404120063,0.10137394050278672,1.4826282899346162,-0.028347553991928502,-0.14894381261340292,0.003646077617722616,3.2421875
-0.13541782236536884,0.9149040988485085,0.7912386742141674,-3.049525699045125,-0.24040238825872487,-0.2710459330358237,0.0027271335605587536,0.9373257587520085,0.5969064117839165,-0.028345891521413365,0.5318298556683337,-0.13026572792542854,-0.1121430269238165,0.19526113185458813,3.25
