AF3,AF4,F3,F4,F7,F8,FC5,FC6,O1,O2,P7,P8,T7,T8,time
-0.043829658721317805,0.3105283928566003,0.2751175244889464,-1.044578205798149,-0.09025933091086692,-0.06856477353393087,-0.03390921454656649,0.25724815135181983,-0.19989102582486584,0.037198382974124505,0.6787362549572,-0.03108693708590451,-0.07752371638170906,0.031055419007162886,0.0
-0.015187609364529325,0.19094195362788083,0.19824867183334205,-0.6833619073278074,-0.092940084362994,0.06612489564488493,-0.1816987886826561,-0.12174089203286671,-1.9815863521885617,0.2357584714601535,2.7180263989464692,0.041353166659524314,-0.22801145499261943,-0.14419833418115444,0.0078125
-0.012779676667585291,0.18120750934610452,0.1926803325059679,-0.6566622449530842,-0.09381112663358286,0.0785768231858678,-0.19615500072912256,-0.15636120943376056,-2.154081253820122,0.2551419089005483,2.9202585011442155,0.04807238067663388,-0.24292274757502633,-0.16082240767401912,0.015625
0.05971055363243545,-0.38004542737584535,-0.3168305464260025,1.2474437369142717,0.08415580083255393,0.15422922737607925,-0.06328737318942951,-0.4975970470065568,-0.9647959815250211,0.09573712549613549,0.6730228318128143,0.07742870467507944,-0.023669958100977752,-0.14371333310495016,0.0234375
0.16235433931892504,-1.1016772629315925,-0.9498264411091771,3.666071458198886,0.2844243237515259,0.3352898188739212,-0.01677874503527991,-1.152895952778999,-0.8724166930733936,0.05484764646818178,-0.44239703722209067,0.1619646837854519,0.11891416580185146,-0.24805366104637616,0.03125
0.18289909684238817,-1.1987423821914283,-1.019012686150906,3.9682806017895573,0.29073742336586317,0.4200432318271629,-0.10035925313076474,-1.3969494092017662,-1.897476988640275,0.1678721716108017,0.6893207004452859,0.20707242835540185,0.03740128654517219,-0.3532705660533305,0.0390625
0.09257758219254611,-0.6105789422675603,-0.5196239844090368,2.020078056209021,0.1481950572324981,0.2125449664913144,-0.04923747213149379,-0.7078036797673631,-0.9439148858777043,0.08364968243595501,0.3242849216857541,0.10472175065951761,0.020839382380200385,-0.17777065660115904,0.046875
-0.03423342125687186,0.10221572892541228,0.043387540396596334,-0.2775112136915707,0.02939200950087628,-0.1958083004370067,0.24640601946156138,0.5323177198714408,2.9101195408400606,-0.3267756215121766,-3.4572700621002044,-0.1069727581496956,0.26268538910609035,0.27203272348033164,0.0546875
-0.10864335149911047,0.5094512687748276,0.3600598273332155,-1.5799770076930522,-0.031916004329530755,-0.44780867967752425,0.44357196589781805,1.2886988271083513,5.437457355968737,-0.5984890908734112,-6.02290625159479,-0.23842574037471767,0.4327012945961249,0.5575466884886365,0.0625
-0.10058509808186641,0.5839511817019439,0.47101392906380984,-1.8942463246655525,-0.11024274486781253,-0.2989464884180269,0.18967210458978573,0.9230754713430782,2.550584709037187,-0.2654662115588279,-2.3487208070502934,-0.15361975938202316,0.13909186879346921,0.31538660289190257,0.0703125
-0.050094003131656004,0.47643013268268786,0.4631608361293872,-1.661515843176651,-0.19014183958437286,0.04603213805051484,-0.27701633200619624,0.003918409537501242,-2.904504966630587,0.3534426208266316,4.255135431808767,0.03663304599560391,-0.37033213792320574,-0.1807760391663509,0.078125
-0.01849991984596662,0.30519157679884057,0.33078394669184713,-1.1156029651035935,-0.16543917948642908,0.1548542925841992,-0.3643631536175997,-0.32138977674213937,-4.017744352135744,0.4734518602763498,5.39789356924619,0.09355000808409206,-0.44694046044979313,-0.30527694454458404,0.0859375
-0.01856339100913127,0.11126011080062277,0.0927704606111124,-0.36713507992486377,-0.02547838213854835,-0.045964534026253494,0.01956562820270701,0.14737554656462948,0.2960816297708529,-0.027773787914831264,-0.2099134403243474,-0.02306332699504528,0.007369070809942699,0.04361748275879288,0.09375
-0.004140156167296633,-0.1371052944533977,-0.1760959314764738,0.5389183278052864,0.10843612340121901,-0.1719791299713019,0.31600090763499694,0.40853277446888697,3.565152221637465,-0.4118441313421924,-4.6006078599719675,-0.09917116551652551,0.37061833648214554,0.29225834009686597,0.1015625
0.05237196259389772,-0.4441990618170071,-0.4135000798433976,1.5204770222219313,0.1532045191191456,0.021730441062472655,0.16189646374787062,-0.1718436963924387,1.5958339686190814,-0.1996241358388895,-2.5876579754115077,0.0019897153308123766,0.23652226203163138,0.07141175419921435,0.109375
0.10790547191864212,-0.6759290831035465,-0.5616049583934194,2.217604276145978,0.14712392671682964,0.28386262462863376,-0.12685982447730892,-0.9094245878013099,-1.881759891550758,0.18809710586623343,1.3961905628241553,0.14308878223432164,-0.05785037742709885,-0.2703319519097879,0.1171875
0.11029014402578495,-0.6771326309966457,-0.5581077625570229,2.2172515418469954,0.14119977308204115,0.3034040891684736,-0.15495255123735155,-0.960137211587163,-2.2078998382634314,0.22522985021465888,1.7968734583857564,0.1539292744483831,-0.08909523432621612,-0.29927497650767554,0.125
0.0668266397118433,-0.4463941513247846,-0.3821163750620767,1.482654939822003,0.11073912254565,0.1487380290920791,-0.025517879450092745,-0.5004806665915283,-0.5714926025934272,0.047850901133312904,0.08960929478881348,0.07281430369519994,0.026952165144640345,-0.11952547218743523,0.1328125
-0.010283351733997859,0.07484162865518702,0.06849317943831476,-0.25662187787570695,-0.025015819187862803,-0.00901698072350305,-0.019459793478556742,0.04232339221543862,-0.17841580812610372,0.024911594451845986,0.3252150577434243,-0.0032565170843387287,-0.031789421374549584,-0.0036715659077205093,0.140625
-0.14972422101161018,1.0738821026971568,0.9519753499413179,-3.6163107806000037,-0.31094592901369333,-0.23607224522944847,-0.11967571846833487,0.8880934695477751,-0.7164967500438404,0.12848556348860293,2.3760615946704644,-0.1070138107643049,-0.2695252802197446,0.10476210904952853,0.1484375
-0.29812988019540015,2.1070164707324786,1.8545987130225001,-7.072560478834029,-0.5929910970154836,-0.5091965353941128,-0.16571689553636262,1.8619230917418523,-0.6092886709362751,0.15964677999170548,3.675421845005321,-0.2357842108662864,-0.4507226927421719,0.2751213139664286,0.15625
-0.2689922270934326,1.9003245307229994,1.6724481164147242,-6.377730925211671,-0.5346548972708851,-0.45954337101552994,-0.14877636361300245,1.680100196939424,-0.542260098946319,0.14327218250947066,3.3070167531717245,-0.21286549401604807,-0.40570888467215,0.24876330590382917,0.1640625
-0.005025030162527556,0.0664045569882977,0.07133461883164344,-0.24265630359426446,-0.03557231065947381,0.030287913327191513,-0.07424852545609809,-0.06142021556208384,-0.8158054854175542,0.09747626618886955,1.105288374781858,0.018448362613338626,-0.09197840497939493,-0.06103743401538099,0.171875
0.2373335061942399,-1.703053789347961,-1.503922774773007,5.72131619433535,0.48449422031859024,0.39151992420715603,0.1635191411348669,-1.4539370109026328,0.8358628097966594,-0.16566133162917238,-3.391368506982946,0.17942551575431098,0.3965483784022221,-0.191638677106565,0.1796875
0.21314457936875655,-1.6974951867754606,-1.5566730475136443,5.787468631953138,0.5560653542021076,0.17881395559812066,0.47798101662414,-0.9028751319564002,4.470571285656211,-0.5808720920100335,-7.883454859173176,0.060718602211366546,0.7482298695525507,0.12857720400739708,0.1875
0.061689650382115456,-0.6664449999039523,-0.6638024549937332,2.349327920641128,0.2849011555937378,-0.1241682794873495,0.4771354634106329,0.14736020220819737,5.098843147374195,-0.60932914701026,-7.232049124305684,-0.08474272470876465,0.6178881397336609,0.3444421779427996,0.1953125
0.06110771643400643,-0.4345597009632578,-0.3806617233705255,1.4558134071706452,0.11942064485207715,0.10966007567870899,0.027038604998615243,-0.39693716300589466,0.04547157693855462,-0.021977257266137123,-0.6549793486444723,0.05127046425181862,0.08446087016397925,-0.06345076805469348,0.203125
0.16989277108535192,-0.967454074997695,-0.7675747812739621,3.1242154954776815,0.1646845177105598,0.5411913408738428,-0.3819323619710215,-1.6502305129634136,-5.006983274865667,0.533067260720348,4.85959923279539,0.28005853937461717,-0.3068808645866468,-0.5904775409957148,0.2109375
0.15030451300984748,-0.8764575308551645,-0.7046419753518255,2.84367888789626,0.160535849539219,0.45832719633690294,-0.2981210239271866,-1.4121272794031383,-3.9840852354830636,0.4199103175099134,3.71746277917329,0.23583658370652294,-0.22440458042062114,-0.4864648527600052,0.21875
-0.0058300970935621045,0.039662342321277924,0.03568883417650243,-0.13525839327583655,-0.013217281503293031,-0.004896173392327774,-0.009905553700741825,0.02283929965441128,-0.0898487915035983,0.01328438017289261,0.1656194021266809,-0.0018068181120028475,-0.016571799039836584,-0.0014959839063081583,0.2265625
-0.11989057628870528,0.8211514796833682,0.7146768885178495,-2.7460829392508592,-0.22144351070368112,-0.22744567086913958,-0.021447984776374312,0.80065248844468,0.26040671101243806,0.006099256743955075,0.815670721749586,-0.10805071155526524,-0.12776614321586374,0.15117149997311188,0.234375
-0.15187621017214176,1.1259841004944857,1.0103510089749645,-3.8093370154421415,-0.34171692736294157,-0.20162339383881048,-0.19373617030137943,0.8128147023836572,-1.5408177032126438,0.2248041016770651,3.4686089189228935,-0.08655925961561069,-0.3591181304873415,0.040494892916922536,0.2421875
-0.16887516285346674,1.183651749888719,1.0394259809516544,-3.9705516342290346,-0.3302927619207204,-0.29563100528104075,-0.0788871855925944,1.070505439912021,-0.17943720673523586,0.07167041777239155,1.8636749537627186,-0.13777752295284743,-0.2375565873451396,0.16911687651245602,0.25
-0.14232343785148263,0.8472679127920206,0.6922205765511338,-2.7663206355070256,-0.17069186007660908,-0.402885062892596,0.2283791486334946,1.2602760329470493,3.1610182479108833,-0.32422476006763695,-2.7368349183800107,-0.2054906872740248,0.14904367154964357,0.41019484521569394,0.2578125
-0.04663717315247505,0.17614691119290807,0.1042217523806794,-0.5179022171504646,0.014598208431827154,-0.2315685553686073,0.26734774593735966,0.6434868584817086,3.1968886451338188,-0.3565130857267706,-3.7094323626919596,-0.1252579332778744,0.2769301040288949,0.3087313293718385,0.265625
0.010195582313412953,-0.06528455988895927,-0.05242154691052319,0.21048661557716702,0.011526697241768654,0.032192116395852365,-0.019623743939391387,-0.10061468083390376,-0.2655381868303079,0.029093281918590588,0.24379269187823677,0.016531739985529006,-0.014289889770745363,-0.03320904214482628,0.2734375
-0.03039532297365561,0.32852867745787023,0.3306211015290501,-1.1644558358835972,-0.145442809507895,0.07189481131850367,-0.2512036610788689,-0.10100663624999989,-2.6958510615122093,0.32341790212446364,3.7969358225508625,0.04776580795477476,-0.3230761906780008,-0.18548715344058528,0.28125
-0.05336905922678146,0.4362479273035865,0.4060076032298619,-1.4970992370737541,-0.1511395706123576,-0.024768938385293742,-0.15431081290513352,0.17660563629940204,-1.5105933677011694,0.1924104574600664,2.4752144756903034,-0.003782679900073131,-0.2279792535469692,-0.06455594883553782,0.2890625
0.01649254377696419,-0.19826725279019888,-0.2008592640942653,0.7038376238916638,0.08847281690477976,-0.04929539308306645,0.1603778550587902,0.075289205937463,1.7300137991414046,-0.2047260325263498,-2.4178597757898586,-0.032116074163248014,0.20414108501483944,0.1214213002788068,0.296875
0.09413448071740747,-0.8138542900637628,-0.7652301395148712,2.8028185250481887,0.29002730773852586,0.016315573764978546,0.33247724596471934,-0.2538111549436763,3.3362520777105726,-0.41415911514219744,-5.257266073565639,-0.00964192738393752,0.4741219115137585,0.16668246476518161,0.3046875
0.1302847336180241,-0.9631337684857898,-0.8595856491980192,3.248856120900836,0.28503346181936445,0.18855718458413387,0.14140431092392344,-0.7374016629055645,1.0384414796981472,-0.15769352092797195,-2.6167257414577527,0.08314946258078397,0.27879739700144507,-0.05858047831324288,0.3125
0.1831101549295768,-1.1639277360856946,-0.976361930927038,3.8344385317518936,0.2654138882392166,0.45763728426752004,-0.17129188408143636,-1.484786241069796,-2.695787771776491,0.26070003059386726,1.7274947597890786,0.22886200236639725,-0.04633202006989247,-0.4180739170854361,0.3203125
0.22055883128381265,-1.3930377654050023,-1.1654964209516216,4.5850888743343114,0.3138589130073273,0.5589011298351658,-0.2217349456468532,-1.806021199491863,-3.420788888911362,0.3338336194398368,2.305855244666427,0.2801884199471201,-0.07418788049452137,-0.5173957958848407,0.328125
0.11222373421388289,-0.7300195249771274,-0.6179337800558992,2.4126560763917335,0.17323594410739818,0.2660322795725031,-0.07633927909295292,-0.8772701702569973,-1.333058915494036,0.12300438880007972,0.6404263031926974,0.13187817148189937,0.00546343678681574,-0.23050918590625152,0.3359375
-0.11666710136582142,0.8029196922728088,0.7006857092886539,-2.6871185592639173,-0.21858689207604942,-0.21680135721686328,-0.029226764222410846,0.7681425296129535,0.15904146718966936,0.01694910778877485,0.918856170051149,-0.10256616459519823,-0.13396546599799944,0.13943331101301315,0.34375
-0.2525733666232666,1.7098571939300597,1.4793519923193863,-5.701225279074738,-0.4486427909454039,-0.5071959100819717,0.0059063773974312485,1.7538376159026126,1.1261792555118453,-0.05537300552448075,0.9784545967199627,-0.24396819279001108,-0.20822622541028907,0.3656145089983451,0.3515625
-0.17597626807855243,1.0960617851977552,0.9142471600557862,-3.603687144406296,-0.24486556786870675,-0.44975930131487873,0.1895590145950518,1.4461196487613672,2.866890209403881,-0.28012950710139967,-2.0277782716955004,-0.22605201426888358,0.07451608044092237,0.4229360937413107,0.359375
-0.011149708116389006,-0.03477979467449759,-0.0681811028755564,0.17240416866711258,0.05645170868733693,-0.12963488276362656,0.2083633082277024,0.3253934475680085,2.384017249149392,-0.2725652318751901,-2.99805331800468,-0.07321986145001812,0.23730968471962097,0.20441219612257566,0.3671875
0.05680518902705266,-0.3100826704787354,-0.23882720475593447,0.9899614781529998,0.04316802409027051,0.19923188836329528,-0.1609213504721608,-0.5960256545321978,-2.050070447746454,0.22261005399582978,2.108094688131898,0.1042206710009748,-0.14190716259754677,-0.22809378518089235,0.375
0.004218628824302078,0.18234024280542002,0.2361645105024049,-0.7247438857159407,-0.14766873964758565,0.2326874534495647,-0.4266223457277462,-0.5547368528703684,-4.812761562006249,0.5591265681331751,6.209997500823604,0.13427170915539757,-0.5012944120107115,-0.39420477784254315,0.3828125
-0.051788088494481715,0.4165902472887923,0.38601122928357834,-1.4290786926980883,-0.14210861353571919,-0.03056935882166691,-0.13731720708027,0.18664542887457097,-1.327117436825642,0.17064589499908916,2.221566934548134,-0.0073959285280575104,-0.20664887980827487,-0.051391112198731694,0.390625
-0.04345687400003705,0.1364882998861019,0.06308926173516578,-0.37761886542684164,0.033336641775284,-0.24372700279036993,0.30263998612109827,0.6650875209801514,3.579595202521224,-0.40193827650743724,-4.238805525250127,-0.1329026717165598,0.32119222451868595,0.3362753286969678,0.3984375
-0.022396250429122418,-0.01318465463009175,-0.06853199604293986,0.12479035370760139,0.0754230735444959,-0.208110170737435,0.3150505333924247,0.534015750411144,3.630837516020507,-0.4140835521526855,-4.5105606530042595,-0.1164489178668035,0.3538823728883188,0.3175038837213844,0.40625
-0.011978171471448265,0.056705783520920656,0.04266934097806969,-0.18134180329301156,-0.0070144078847607216,-0.042635226929543496,0.03822730861038474,0.12420774950826488,0.47877537011519417,-0.050839476236831306,-0.5132353153218965,-0.02245504164982135,0.035225266982521534,0.05124973773270461,0.4140625
0.05370801389292404,-0.3291885200342669,-0.26992879684997156,1.0752856386373673,0.06684935438912067,0.15160501557031714,-0.08147042136118907,-0.47766898122555546,-1.141602673965966,0.11813732194140357,0.9591569065850761,0.0770920586455342,-0.05031220161590985,-0.1514599062484082,0.421875
0.14144745055342528,-0.9680559128960229,-0.8385156552399657,3.2289866530982323,0.25391223336193647,0.2843900227767993,0.0010125173648052876,-0.98616232361623,-0.5852878217132713,0.027622192036746932,-0.6124104775533502,0.13653754379223798,0.12218123862647622,-0.20214206866075432,0.4296875
0.08715357743220703,-0.6427106779063267,-0.5724556691484002,2.166785000418257,0.1884066012401068,0.13028099862482756,0.08778136551031893,-0.5036952793317717,0.6167116759399006,-0.09612349404464145,-1.6493821797725894,0.05798825375776295,0.17851345021147175,-0.045714724158929514,0.4375
-0.08817765796661615,0.5466059674896571,0.45640414429845494,-1.7985505053294613,-0.12252271127900112,-0.2248807574078921,0.09518757817356162,0.7221280907821984,1.4378716524196327,-0.1399380046932534,-1.0194181985089277,-0.11297878557868853,0.037647184961977324,0.21182111774153023,0.4453125
-0.118984196669324,0.8181354787672527,0.7136760458403619,-2.7365049196078646,-0.2221238809087387,-0.22286832184558542,-0.026766380470395788,0.78737397453278,0.19806806883261935,0.013210837561101026,0.8904128134503697,-0.10563055486447147,-0.13302641624202996,0.14513497513029724,0.453125
0.052580439085768656,-0.20920088376577425,-0.1260642699253532,0.617719475825969,-0.016003196817560315,0.2649759035459678,-0.3025892624371763,-0.7393593609753462,-3.6231118116097467,0.40672738140415515,4.195958356223683,0.14314911657600013,-0.3131888249193235,-0.35079029987658,0.4609375
0.13522254170511863,-0.670482953556252,-0.48951978039861826,2.1044054468160733,0.05926020758921687,0.5342974688444121,-0.5011883740018942,-1.554866819759901,-6.2032844086486305,0.6821954888008266,6.749273747651628,0.2829492831543668,-0.47781952488807883,-0.6493873897376881,0.46875
0.009234047210331449,0.06781390291317306,0.10713695129227188,-0.29622427596147527,-0.08031742219323153,0.159318831420712,-0.2665890961714063,-0.3945699664570589,-3.037861364126252,0.35144013478184166,3.853852521152108,0.09055328971692082,-0.3076060229374016,-0.25611634316755966,0.4765625
-0.0638781164892849,0.25577197713776195,0.15910874336023048,-0.7631097470411371,0.011465770311161892,-0.3054482800313619,0.3426413960775368,0.855149125129914,4.114861569399774,-0.45816498072410927,-4.737740558310579,-0.16467551356067583,0.3513219529531365,0.4017910329830625,0.484375
0.03368717079306431,-0.5977442326353639,-0.6476148918315261,2.1809476826935614,0.32202813610184233,-0.3048455081737199,0.7155545366487683,0.6322680557878496,7.894069326743729,-0.9259742818476463,-10.596705135904577,-0.18399711879425767,0.8761586505453223,0.6009638521044461,0.4921875
0.04953826863886911,-0.5399012611378093,-0.5377796756331045,1.9003517565448358,0.23095063895475296,-0.10234642830132899,0.3886354399357759,0.12394783297443177,4.154141017608391,-0.4960742804198935,-5.887408320725365,-0.06953995052222728,0.5026144800763073,0.2813880250827409,0.5
-0.11577325072581207,0.9075592075435992,0.8312400365370836,-3.0964245987404837,-0.2967406986906641,-0.1011725346869362,-0.24756745949689382,0.4964136844377657,-2.2976578052049255,0.30215871594122573,4.103452168254687,-0.03547244256147515,-0.39184503201280996,-0.06002321761641994,0.5078125
-0.178463640740979,1.4083336356754796,1.2910509248509716,-4.804850873689611,-0.46207883508227016,-0.15024189226058063,-0.3940139393945761,0.7533408315961394,-3.67821496039716,0.48095488719978213,6.506316908482365,-0.0513055854415029,-0.6188341750426076,-0.10339647696269351,0.515625
0.008087977953320797,-0.06221474367188831,-0.054712210368240796,0.20679494562622514,0.01641151904404216,0.015890855826261464,0.0033411425549460154,-0.05741510455526005,0.0017684760672488549,-0.0014477841999911718,-0.0857469834554729,0.007547325109574035,0.010938984261603947,-0.009271512726839697,0.5234375
0.1763632090934599,-1.301812659974534,-1.1617247060708245,4.3920464991010455,0.3853834653569943,0.25497915275097993,0.19089289542346755,-0.9971675554519203,1.4011268804253907,-0.21339747064051942,-3.535475124906147,0.112441410090979,0.3768034938979532,-0.07950953440492817,0.53125
0.08905734522072134,-0.5404908431970745,-0.44206101076942883,1.7649303781507057,0.10866544420894378,0.2524904488022911,-0.13916902390833874,-0.7934714483506089,-1.9392804628707094,0.20047010778343458,1.6539581843250564,0.12858050258451115,-0.08846597284709301,-0.25438826014635924,0.5390625
-0.11874183049909609,0.9889772524025137,0.9238173758525684,-3.3978021899613875,-0.3463548014456893,-0.04401004730419306,-0.3683417823451482,0.3696715674432648,-3.6393633683903706,0.4590552006061781,5.878092247967873,-0.0017583319580566556,-0.5372885985166636,-0.16539870963078096,0.546875
-0.18685682699395834,1.3071725368893627,1.1470317885445276,-4.382935424210746,-0.3635950590512902,-0.3298354493021816,-0.08220698247334535,1.1909911312938108,-0.13861068226479975,0.07226190063059344,1.9861754051511837,-0.15410397696996692,-0.2566912511219467,0.19182444600946952,0.5546875
-0.052490283083292184,0.23296146671590323,0.1594208725436338,-0.7154008741985667,-0.007842785401092966,-0.22606294460696996,0.2345163422403985,0.6440218322103559,2.853510758153306,-0.31490255783732035,-3.20732232865426,-0.12097012142622149,0.2331203080670547,0.28729973494436667,0.5625
0.15140002524210747,-1.1022810470498146,-0.9780380001103678,3.7110765186476513,0.3196167777277651,0.23529294877187662,0.13312153803881552,-0.894652084054009,0.856204952772456,-0.1427705887658105,-2.587706732762214,0.10593871174363477,0.28717763083545494,-0.09635691320945507,0.5703125
0.2500995967282762,-1.6808430491897168,-1.445713912537643,5.591489621102699,0.4291895311882997,0.5286794222631739,-0.05023436584968651,-1.8026815037341126,-1.6191168511598282,0.11579075902912886,-0.32600201202295725,0.2565476706907633,0.1541956242115883,-0.40400756502660107,0.578125
0.16135102150470715,-1.1361722117794044,-0.9955457152782001,3.805717015037495,0.31296976632530765,0.2901590452891461,0.06596821126134966,-1.044824170859876,0.05911690553327706,-0.05313581925091692,-1.6462532810548234,0.13593533433414579,0.2158587548647047,-0.17155077922032383,0.5859375
-0.0389099944825057,0.1460636292508177,0.08552798780523571,-0.4277367530255244,0.012791756904730852,-0.19359954792931558,0.22428270606624365,0.5378727420431665,2.67948035071656,-0.29869417705900075,-3.110496966952963,-0.10471924002782235,0.2323821650003388,0.2585736820044046,0.59375
-0.19718871180441427,1.281536056084207,1.089159736964727,-4.243790031106164,-0.3120570612212116,-0.4503617064255467,0.10908972852168093,1.4959061468682726,2.0511032723514426,-0.17910805267026372,-0.7591780828111326,-0.22197862598214946,-0.03901856431927597,0.38024374655023196,0.6015625
-0.2228025392641549,1.558787036129468,1.3657181215329477,-5.221438767455967,-0.431751669210666,-0.39571215922967307,-0.09374006798230967,1.4266935603759587,-0.11963365505330545,0.08063235340318488,2.31058906524194,-0.18503884792199524,-0.30106176042521227,0.2326475240688341,0.609375
-0.12164289377771616,0.8974366293172945,0.8030089213800986,-3.0308987573342825,-0.27040621912273277,-0.1652657492436149,-0.14711602379571073,0.6596320083417352,-1.1449113761179532,0.1699468527302394,2.662562732347533,-0.07152796614924195,-0.27795460567444796,0.03952134336344184,0.6171875
0.02604257530780105,-0.11292206608938023,-0.07272087683606084,0.3384385370608826,-0.0028477339707438775,0.1253979861276523,-0.13726873736585254,-0.3537413538931435,-1.655435046089665,0.18577442262149824,1.8947492866012574,0.06753265098292911,-0.14009393978250786,-0.16273576464685788,0.625
0.0947324911025154,-0.5911988164716325,-0.48970901880505024,1.9359500142172763,0.12735221102427582,0.25237779838983093,-0.1169378374218707,-0.806114090036628,-1.715040688478626,0.17251575254256446,1.3061390511193234,0.1273929680143305,-0.05718657632827785,-0.24247966943970423,0.6328125
0.04021226933883304,-0.28166812501560484,-0.2435491024011192,0.934992061353063,0.07387764030872186,0.07999451197275427,0.003843956302650798,-0.28045445571897604,-0.12758082044291996,0.004164661147724134,-0.23015261708089688,0.03822271421540892,0.03926472438112132,-0.05471880690237938,0.640625
-0.007101642826879948,-0.0051101457275832705,-0.020833549104852838,0.03790079709124826,0.021935917256680763,-0.06192992208663235,0.09379019344119713,0.1580009764429054,1.0824348731341848,-0.12250746222932042,-1.345614902060014,-0.03463660961181586,0.10513819499719042,0.09475224656175824,0.6484375
0.07950525895930048,-0.5353538094654747,-0.45910068676211374,1.7765637356941097,0.13430646672289848,0.17204284806385287,-0.022200809506867654,-0.5840690620139953,-0.5850667993794627,0.04572350818792432,-0.017179998117828266,0.08387046742272956,0.04154630186435722,-0.1343995317935876,0.65625
0.20416075774785936,-1.3453724370096984,-1.146713613622781,4.457846849829405,0.3297389978841603,0.46105229566437694,-0.09732778125124665,-1.5408092003397251,-1.9534603567654558,0.16809420723098262,0.5547278484496331,0.22658826547804128,0.05902760040558136,-0.3809366687189327,0.6640625
0.1849570307762731,-1.319724454149563,-1.1621234262193867,4.427562213092161,0.371125093868261,0.3144372812503271,0.11003491096851847,-1.155180102822984,0.4569139812133029,-0.10618194752275678,-2.3915480581782904,0.1451877235728465,0.2882982838811024,-0.16522995571228452,0.671875
0.02719119997942592,-0.3092170695054322,-0.309995316602385,1.0926388022441231,0.13463732988042415,-0.06659602338307329,0.2347458478951385,0.09144216963543507,2.521253920505395,-0.29957021038495774,-3.5456556435282347,-0.044391062183026395,0.3013868842772914,0.173559224107686,0.6796875
-0.11962231242362406,0.8302775577025818,0.726639533331563,-2.7783078849977096,-0.22871303180986527,-0.2161091010394397,-0.04193635270600462,0.7732352221358596,0.02995837347228349,0.03299883250703446,1.11627347215391,-0.10159286116308368,-0.15152838182774694,0.13216754350311033,0.6875
-0.18360115482826786,1.3654478149952596,1.2254657932326025,-4.613944944981925,-0.41475645547013024,-0.2415224187455289,-0.23859738571364117,0.9777835398313932,-1.91066948702855,0.27722678967005393,4.259258023222464,-0.1034203022918435,-0.43902912380215353,0.04503431161613414,0.6953125
-0.19652655033483635,1.298555470886921,1.1118299373140335,-4.310397048454673,-0.3263476794636479,-0.42692765155740336,0.06683494567637016,1.439655522135055,1.574570058813045,-0.12390406465314074,-0.14711113117477623,-0.20854829719112594,-0.08843646901925913,0.3409091966034979,0.703125
-0.18087498687234518,1.0663026303676513,0.865673879241412,-3.47162738027601,-0.2078541930670071,-0.5251323068277899,0.31483435054577597,1.6331657102732664,4.294259347462082,-0.44451354351589206,-3.835477045927032,-0.2687579405489355,0.21856380091871072,0.5437665181471304,0.7109375
-0.12063253193445594,0.8248170944229205,0.7171554987081133,-2.755847365667209,-0.22136331419505928,-0.23106567936754108,-0.017297727404656717,0.8105558509513775,0.3093566308624651,0.0006902412562087933,0.7609586748679779,-0.11001196112237566,-0.1232850272181854,0.15602585302844907,0.71875
-0.002550314160305688,0.18405277359802924,0.2208817167488908,-0.7049973245180613,-0.12739028745175893,0.17299935207547706,-0.3382176906688595,-0.3997993235445016,-3.79233214826207,0.44249161614689086,4.9489273851152005,0.10095122288970369,-0.40247828584408635,-0.30422207388358097,0.7265625
0.139655853244793,-0.9254177960555874,-0.7903911736528774,3.0682265357971077,0.2287637613873261,0.3119418116224365,-0.058903830468778194,-1.0465689207923266,-1.2523015415466165,0.10558718378592935,0.2679602919898943,0.15296220691194143,0.04966199939559665,-0.25390213925697425,0.734375
0.2145852991366223,-1.5830765691836268,-1.41255540582609,5.33762107610319,0.46883398154193684,0.3102418062166779,0.23177992525365781,-1.2126536839256987,1.698002207737774,-0.2592244199978713,-4.293800754749604,0.13684295058061283,0.4578187013000846,-0.09712737269468033,0.7421875
0.16828653613999167,-1.120620063675682,-0.9591607481075112,3.7179789621751027,0.27974660947582225,0.36972518470084637,-0.05960397472136897,-1.2462744015816771,-1.3809036637493584,0.1120750999399515,0.15938490964484422,0.18077123585464328,0.07322484790759268,-0.2956095937113132,0.75
0.07221714432835638,-0.33429619999048593,-0.23086566440452655,1.0272680439182504,0.01242497404067823,0.313959506682704,-0.32129793055332506,-0.8982368795986929,-3.916303183856324,0.4348851641744999,4.388177806547494,0.1677776335847952,-0.3186989778961472,-0.3958798617123376,0.7578125
0.014632771438508569,-0.1282878592279137,-0.11917184541060308,0.43811918775952186,0.04316594659633051,0.007069393401628111,0.04532370247240017,-0.0520046713437252,0.44550779664524587,-0.05493475391091074,-0.7252923875224536,0.0010789879693134405,0.06625999719325587,0.01949216678290482,0.765625
-0.025922371473443326,-0.036049002424761355,-0.10507329990260798,0.2262279752299649,0.10295905334273035,-0.2636314802577035,0.40796820474801687,0.6712642900151455,4.690604496406105,-0.5361969217171864,-5.853154138292154,-0.1480433638878915,0.46105399300832045,0.40690851291848723,0.7734375
-0.08149739593791787,0.4831788008548409,0.395089134340884,-1.5786405059467592,-0.09772302564475718,-0.22997810977655836,0.13040980775998107,0.7189766123981142,1.8060076368276512,-0.18466878212671536,-1.5648177255047249,-0.1173082632217463,0.08497238678362262,0.234359802292575,0.78125
-0.09115323407588397,0.7256105026860992,0.6681868407064145,-2.4773170756369023,-0.24201561883586392,-0.06752608961991077,-0.21747486321307438,0.3619944963382255,-2.0617321149419436,0.26761423102354054,3.557760541607315,-0.02102896317628098,-0.33508413256794106,-0.06778865439824218,0.7890625
-0.024684379710581038,0.17699409213495032,0.1585576274152514,-0.5963362068454771,-0.053856694180750585,-0.033477417102645124,-0.02756238910500131,0.13159785708245383,-0.20731446977084952,0.03266733144146718,0.5029308220444884,-0.014700053273891001,-0.0533136472013204,0.009561458494586311,0.796875
0.036555207359331536,-0.3519359354618496,-0.3394684992830072,1.223716545934493,0.13630506180911664,-0.026041349642740585,0.1929786219836178,-0.02459522826996946,2.01316273832935,-0.24335810025000937,-2.9768062839422718,-0.022676801012776873,0.260046123053364,0.1222379081840285,0.8046875
0.03771676173099704,-0.211058169970183,-0.16396118247940092,0.6729171314743783,0.031224678751088364,0.12967677328666047,-0.101043473916478,-0.3900361593967364,-1.2951977817341114,0.14060107225418758,1.3147178023786283,0.06770735801195991,-0.0873953421489879,-0.1464109064405514,0.8125
0.007654878174000881,0.15488951756189098,0.21065590186423205,-0.6313178200497914,-0.138690255744992,0.2354914203961483,-0.41907057375427853,-0.5685350071393221,-4.742341878532408,0.5499369603926099,6.088547375372575,0.13531217297208925,-0.4897614327720659,-0.3922204644180196,0.8203125
-0.04272374602872387,0.3843782544011756,0.3683645387782012,-1.33405297242986,-0.14706276773076637,0.017620192829390688,-0.19479464450951395,0.05366521907937148,-2.0113635281815077,0.24752773082058227,3.0247987714543774,0.018769808708403026,-0.2670002563428042,-0.11655679699871656,0.828125
-0.11040428847441452,0.6403697878290793,0.5162922835638101,-2.079070447844841,-0.12055780228094275,-0.3286982509545701,0.2091479312810673,1.0149549858037759,2.810893221895044,-0.2928316639398516,-2.59127494946244,-0.16893677305644236,0.15371304187157883,0.3469984568481659,0.8359375
-0.13294944679566556,0.7694899333824069,0.6191442398532434,-2.4974382656366623,-0.1431863452193021,-0.39890813581165496,0.25710277181146807,1.2301611597306026,3.4437262879043313,-0.3598586639413476,-3.1970985311262643,-0.2051648471929328,0.19111456612161085,0.42278961247957686,0.84375
-0.07138265143755804,0.429032195962537,0.3524078973968285,-1.4027873893772713,-0.0896586712958932,-0.1948910084768119,0.10230563286799345,0.6146630476625163,1.445331715418107,-0.14590052706409096,-1.1954197401224114,-0.09894258036314807,0.06018382280767217,0.19421593972576795,0.8515625
0.03317214023602416,-0.26253306315102043,-0.23909057700415917,0.8939294997340498,0.08278465269014265,0.034999254856662776,0.06308527097955921,-0.1590700812291089,0.5655565210725865,-0.07438035695654792,-1.0632478178846743,0.013539903325739214,0.10310740479254678,0.009087888584624977,0.859375
0.14171901622654687,-0.9886384939912204,-0.8626865854300713,3.306813532135992,0.26767051627338817,0.2657060929571856,0.03785196573548592,-0.9436443143182712,-0.17360038357766577,-0.020297116585942993,-1.152228252576089,0.12561200761862654,0.16616283208674917,-0.16909795240390818,0.8671875
0.20057136115474056,-1.3380913062585902,-1.146214636912196,4.441418507645663,0.33590187345028927,0.43671470292306885,-0.0639059094668686,-1.4759891981733266,-1.56416879693302,0.12397988320303573,0.08625825591990095,0.2131122369002891,0.09595061340786137,-0.34568162255157536,0.875
0.10120954825498833,-0.682562371364765,-0.5859199958801409,2.265079747138328,0.17279644866814384,0.21662898686008059,-0.023939564623969154,-0.7372139563009887,-0.6972888683112949,0.05242868294922015,-0.07828838393289571,0.10538882689746165,0.058222252557226746,-0.16721647641003867,0.8828125
-0.11449939152514323,0.6943474243335973,0.5730586594072488,-2.27636066571134,-0.14743449627095867,-0.3094385209309783,0.15581487758241744,0.9791449853790666,2.230202822019734,-0.2242577187003796,-1.7947402367158574,-0.15671232858286316,0.0867653962215111,0.3046029370744844,0.890625
-0.17527396171499893,1.1389394403527764,0.9688006235279976,-3.773481967941794,-0.27816185060905646,-0.3994910645160246,0.09533567999611084,1.327095303800969,1.8072698543441488,-0.15719360860962123,-0.6565819805105486,-0.19685238504303587,-0.03661150833216013,0.3365963237757829,0.8984375
0.0174462170883349,0.005623398607457979,0.05166685046404471,-0.08803520797342514,-0.06148177708686068,0.16985888035207883,-0.25539557946304675,-0.43804450332587197,-2.9440413735702227,0.33815894009821984,3.6523290635838666,0.09499976953966029,-0.2872008587760956,-0.2576080136526198,0.90625
0.1700819218202344,-0.9621111207683352,-0.7607624083690309,3.1021262243911014,0.1605866897309737,0.5482794862396139,-0.39456532710965303,-1.6669038852954468,-5.150858485069443,0.5496246972595807,5.042096106126961,0.28409858154119105,-0.32172919335598366,-0.6023134235285497,0.9140625
0.06874057487953907,-0.4265643075732231,-0.35275885311283295,1.3980676174724258,0.09035324828994161,0.18622113844151786,-0.09022932586146913,-0.5923706117216868,-1.3058630552961752,0.1326802704083999,1.0263707275619902,0.09424590712816706,-0.04809956435219874,-0.1809341625980363,0.921875
-0.07915289558725586,0.4309673091769915,0.336237021865649,-1.3842672196978965,-0.06710886256278255,-0.263045017496378,0.20265987773119049,0.7911471241862965,2.6074834352508254,-0.27849132636693474,-2.6268495923037265,-0.1369233786647678,0.17235783401557409,0.29660552004515245,0.9296875
-0.06287115381172734,0.3668645994387145,0.2978435768095587,-1.1964317817908088,-0.07188251341891691,-0.1816737695122374,0.10943407382693741,0.5643532615284423,1.4918461103837757,-0.15366226249352938,-1.3344743136231434,-0.0929510633910596,0.07595949594323173,0.1885938188007011,0.9375
-0.013171473484566156,0.12655057891668742,0.12489187979649963,-0.44553669052916073,-0.053528231128986255,0.018788696829957714,-0.08363587484129507,-0.01607173946456488,-0.887048196099428,0.10812079055858287,1.2751106807612096,0.013468025948476788,-0.11016441143723604,-0.05789250679090084,0.9453125
-0.05527602609536613,0.37901368199505836,0.3310094161769172,-1.2683158567971111,-0.10423468891069906,-0.1008478960266176,-0.016035114274421294,0.358464130218073,0.04941944021337066,0.011742493130401077,0.4650015496741126,-0.04756869565003198,-0.06606307427455888,0.06372774062851184,0.953125
-0.053237979940221,0.28299686630668397,0.21868118990521843,-0.9063718192906628,-0.04160235076515187,-0.18099562023886964,0.14532282626795565,0.5407074137182641,1.8546192366612166,-0.1985497186887229,-1.9006923035314132,-0.09458695813422638,0.12686802811899478,0.20735425066437127,0.9609375
0.05371589796792782,-0.4351854471440388,-0.3992334922993632,1.4821384471449037,0.1425801428769437,0.04365361290453127,0.12560188863447574,-0.226031768520915,1.1833831665749466,-0.1520291579319524,-2.063864168560072,0.014314489184577058,0.19500400530637088,0.03640895851979879,0.96875
0.07400235312939658,-0.5346335596522561,-0.4717692878656365,1.795032265055765,0.15134475148494084,0.12357159202540216,0.05040567389343953,-0.45841461396033534,0.25199657092357736,-0.04985792338325142,-1.050682601357282,0.05666666516492254,0.12321776584135548,-0.06091631526778963,0.9765625
-0.07331052472584101,0.4447911271935568,0.36742507214565884,-1.4574376031723648,-0.09515114905621001,-0.19606736709450936,0.09713962249902315,0.6214772991266142,1.3958637891570067,-0.13949353658402563,-1.1115018425812384,-0.09926174360455811,0.05255515648352469,0.19230977918974512,0.984375
-0.1794480957655492,1.1660738896880383,0.991723432039784,-3.863187298580274,-0.2843495264634213,-0.4096118058437941,0.09876662477567803,1.3603165421837393,1.861384402626701,-0.16232371104001053,-0.6875316132976069,-0.20188741118768438,-0.03615556061319099,0.34565205290423745,0.9921875
-0.08496104825723821,0.6170648141375982,0.550540583316994,-2.082483382875424,-0.1833110238459228,-0.12307551200876886,-0.08737158706812992,0.47745450018327007,-0.6262118996793975,0.09900385407261801,1.6325885875496753,-0.0544857299157367,-0.17572617822853936,0.04143065051282733,1.0
0.09621946552705275,-0.5418180759231366,-0.4264014375171092,1.7443410870883602,0.08744689522583579,0.3158168032768654,-0.23287549948112374,-0.9572864656634552,-3.023050155767943,0.3241947823120193,2.993224668212443,0.16398614299185016,-0.19336613532876923,-0.3498342252037611,1.0078125
0.1846517256743524,-1.193567134765314,-1.009031195111825,3.944410810557072,0.2817923976217584,0.44084520632366514,-0.13338988401016966,-1.4493696154421547,-2.277984320899063,0.2115034128613127,1.1664380203010314,0.2188585216518884,-0.0003038131405666165,-0.3858688305029656,1.015625
0.14535217815554302,-1.008068310028557,-0.8778900248771456,3.3680911468439048,0.27056490277186684,0.2778020588671102,0.028093800582817033,-0.9798071277618683,-0.2987609887261102,-0.006961267506257454,-1.026305168243655,0.1320503980133945,0.1573175942464896,-0.18301759711271806,1.0234375
0.05067213180254882,-0.3624890839465875,-0.318399093105419,1.2150489474721853,0.10036175392642985,0.08997351015478582,0.025085584745170635,-0.3268476142082293,0.06598651281465628,-0.021403200032813496,-0.5818205917845778,0.04190743092941994,0.07314981809831235,-0.050488189320960906,1.03125
-0.015078685917287572,0.12411568943097312,0.1169882407764027,-0.42771613041153056,-0.04538879246062902,-0.0011637844740137939,-0.05234951062298857,0.034979263858406655,-0.5267075880693239,0.06691210973979929,0.8268770603165351,0.0021460915913733575,-0.07454931073195724,-0.02682643788173826,1.0390625
-0.013105435668521103,0.10368959755182834,0.09703617241067646,-0.35810076064927066,-0.03708419703200615,-0.004285542216555874,-0.039152527189291325,0.03775194637491989,-0.38630594639682087,0.049987030546123905,0.6245594608258347,-8.288260868551074e-06,-0.05735626198390411,-0.017528371303136343,1.046875
0.00429618595855612,-0.041411576891353837,-0.03783891515942052,0.13750409615460715,0.0128333692856896,0.003350004198891578,0.012590317576722779,-0.019766874743604154,0.12115242387763728,-0.014226384183627516,-0.20487814586647826,0.0010204292528709863,0.01863548432367105,0.004670596328864536,1.0546875
-0.04312871715573419,0.2859493997739983,0.24716940553623895,-0.9553614377408345,-0.07537494384394264,-0.08686701847301682,0.00348800813803518,0.29810150118069145,0.21703980470426923,-0.011473099021629426,0.13049391774032257,-0.041789265106578544,-0.03265016487821301,0.06415254701680194,1.0625
-0.12336434962957653,0.8354691842939735,0.7239028715196495,-2.787612701872936,-0.221151831934254,-0.24417792596533777,-0.002776391786326556,0.8471897986096557,0.48377403158261084,-0.018765213571993032,0.5627101622361975,-0.11704396943549633,-0.10852988185178336,0.1731077855571573,1.0703125
-0.12411051218556099,0.8008457444096501,0.6797234320840502,-2.652009823901825,-0.19379354561914616,-0.28651470469591345,0.07561791684631107,0.9477915771577071,1.3688025662368053,-0.12122610044344621,-0.5805740408772989,-0.14158990758191164,-0.016222872230536468,0.24536211184262602,1.078125
-0.037605944283344885,0.16599023981140076,0.11372088700933054,-0.5117608100624629,-0.005855332536709732,-0.1607133455582978,0.1665945661966714,0.45797401020878076,2.0284631770213073,-0.22324661741578808,-2.278422259169364,-0.0860387071823366,0.16554286087030812,0.20431859840919356,1.0859375
0.027441327560670206,-0.2716422636443097,-0.26340364112302134,0.9465038207517448,0.10691380536746323,-0.025548173836915627,0.15714300249943802,-0.005152062755187732,1.6490934967512023,-0.19834205498027882,-2.417491821873854,-0.020613159177167682,0.20992963153928987,0.10275931160726907,1.09375
0.02494044520542407,-0.20073884131281453,-0.1827243917357396,0.6831316486503857,0.0635897182374935,0.024735549623579954,0.05098895876542915,-0.11683743920055381,0.46640756990486376,-0.06028888193863013,-0.8557329363300665,0.009221770678693038,0.08190650671784393,0.009955785691886784,1.1015625
0.014016453716012244,-0.0616513545819968,-0.038845698565741424,0.18387770095358633,-0.0027944958509100626,0.06995439806565841,-0.07757555411185928,-0.1973465322158803,-0.9329445209415773,0.10541820287473327,1.0705753925194534,0.03777623113481221,-0.07982746975600447,-0.09122604638007357,1.109375
0.029144171281977282,-0.11258889364890959,-0.0642343484221264,0.32500151171397185,-0.013161558662858019,0.15415007091423624,-0.1805531931286481,-0.42782818016154045,-2.1540791432710487,0.24279151037223085,2.5124324825347712,0.08361757747529774,-0.18882559835503154,-0.20646186445523282,1.1171875
0.05204245507937413,-0.2520974559234355,-0.1796459727362059,0.7829289708717533,0.016477614516957523,0.21628112826995136,-0.21158011386837522,-0.6245440332093958,-2.5990017731492263,0.2877434595547815,2.8692461620557803,0.11505678497619182,-0.20596907504534448,-0.2673718768907284,1.125
0.08054045025506971,-0.49374525036921957,-0.40651072070837513,1.6157712541258127,0.10215933022158598,0.22337338756709318,-0.1160274921422071,-0.7056705203597794,-1.64527696406198,0.16858875853558036,1.3533271665915751,0.11343366657529393,-0.0685601585189105,-0.22123693171239717,1.1328125
0.08679303596215546,-0.6251822335222902,-0.5522919330769778,2.1012852154078776,0.1773308398888488,0.14410249934349648,0.059634799076315824,-0.5350074877782194,0.30172947999413513,-0.05941314231677328,-1.2383900001755392,0.06611204828249101,0.14475388525959826,-0.07059101885183112,1.140625
-0.009595390904835369,-0.01819906163456376,-0.04425610101210315,0.10302201068307748,0.04010768487275079,-0.09914759142653463,0.15585898022553268,0.25091194600117284,1.788109038175318,-0.20372452219140386,-2.236772703044026,-0.05580496520045363,0.17649595143528626,0.1545868339991118,1.1484375
-0.17123814247617988,1.109783425732353,0.9423611568476842,-3.672901501671736,-0.26912894898017425,-0.3938401434231639,0.10031815029350917,1.3049061474654355,1.8444848887627483,-0.16271121046723322,-0.7437094459692235,-0.19442470574835147,-0.027196269986571365,0.33523341943277457,1.15625
-0.18259424666878254,1.232415710277283,1.0650098133434793,-4.106814188026573,-0.3222750521368495,-0.3694764648963954,0.010195991741187325,1.2738188917295437,0.8802402953777699,-0.047296328324885235,0.6201570844592894,-0.1779786759744702,-0.14357120234559334,0.26955935140172793,1.1640625
0.0349345130975043,-0.2459496222045609,-0.21364446628954464,0.8194308172158085,0.06494725431638598,0.0688585232454502,0.005318306329902628,-0.24213920754912927,-0.08960285594356385,0.0014623047831903656,-0.2263961431621328,0.03277928915186613,0.036464596942453444,-0.046028517498359255,1.171875
0.21807338222963082,-1.5144080739757002,-1.3192945314709843,5.05895054030461,0.40814699291851614,0.4132255062712391,0.04829336496436567,-1.4608947259575833,-0.377215072799155,-0.019009791472572122,-1.6269242563813888,0.1959079510974988,0.24374414367575548,-0.2688807649249471,1.1796875
0.133776323555115,-0.9398439344382784,-0.8214686337673752,3.142055348460514,0.25670754564383513,0.24518744980627946,0.04626744645094882,-0.8776449291438314,-0.04495051277316461,-0.03296189760485708,-1.2428191925692256,0.1153806262682309,0.1691600931333934,-0.14997973960082686,1.1875
-0.042979723574764345,0.29963114223242365,0.26458773500241045,-1.0099012109847847,-0.08571452776364284,-0.07139815410533298,-0.025923163284263535,0.2618923873274446,-0.11210381828017771,0.026707544705722844,0.5559464908277412,-0.03279505951300931,-0.06750166036936227,0.037399406044596586,1.1953125
-0.045714280030496775,0.3705463392528073,0.3445822867609405,-1.2728765638871933,-0.128200939953293,-0.02304179697456054,-0.12881691038423487,0.15533157492554334,-1.256905923692178,0.1605616901547893,2.070449230345958,-0.0041815382927846275,-0.1916411477284715,-0.05221594162103351,1.203125
0.018799233030629022,-0.053094749236661354,-0.01689472591893324,0.13296888381833866,-0.02371659724854625,0.1220849807000563,-0.15867017501088526,-0.32953672988447913,-1.8642308165324086,0.21226255755947185,2.235820068937438,0.0669983331594443,-0.17164836464851724,-0.1717987252907416,1.2109375
-0.07396617391072854,0.5111161038281099,0.447203628618328,-1.7121599608072913,-0.14103153139039326,-0.1329670093881351,-0.025848487410741142,0.47586849143397525,0.018029886801495188,0.020872492488324554,0.6881613371921511,-0.06253349705348057,-0.09345620915034594,0.08143496181317218,1.21875
-0.18288142035610316,1.1662398809816787,0.9833062533822078,-3.850599539179155,-0.2736279586849767,-0.4402902557501263,0.1445995178154484,1.4397627897749448,2.3911173921873923,-0.2228565093260399,-1.3423065650671415,-0.21907918395793682,0.015289863259962644,0.39212311488209434,1.2265625
-0.06417517526881564,0.37961533893182287,0.3098793550402886,-1.237687515958674,-0.076552746178512,-0.18134364660451635,0.1037416429733545,0.5662787540441414,1.432626398591006,-0.14637965937635175,-1.2470131817515553,-0.09252189464041508,0.06818445232786562,0.1853684245508352,1.234375
0.11287096923693395,-0.7242956337451742,-0.60957034364697,2.3906718382890375,0.16730121107509718,0.2770373226894119,-0.09495931658323725,-0.9047117482483477,-1.5444172606221978,0.14750903167183577,0.908089767732237,0.13810559559386415,-0.015916310724937703,-0.24829580756563288,1.2421875
0.059990564528233245,-0.35597093335328217,-0.2875965402510856,1.1571582354691756,0.06644870276480139,0.1804358182944232,-0.11263336005514346,-0.5593515245808884,-1.5201134910122613,0.1602519682959475,1.3894020720736147,0.09262729035340632,-0.08195236890492728,-0.18880579647928536,1.25
-0.06503236932294562,0.3915522486315809,0.32261975260166165,-1.2821963400514496,-0.0829206756880182,-0.1755589394938247,0.08975169691041439,0.5548381479376002,1.279935889003453,-0.1283214255861186,-1.0387028490412633,-0.08904141551121666,0.05100090070576352,0.17371209048780153,1.2578125
0.02860114051631101,-0.28448153239238405,-0.2765084345229949,0.9924553817727833,0.11254477782755977,-0.02796002930132457,0.1663585169071218,-0.0017779910223704295,1.7466846500835602,-0.21009834379503614,-2.5518602903591145,-0.022201332623663476,0.22169991344258166,0.10935363122994343,1.265625
0.16599359570152614,-1.146876764361714,-0.9971011757396314,3.8303031401399856,0.306201247070196,0.3213145534140479,0.02434185597074332,-1.1282554933450584,-0.4272810936397092,0.0020274584198491214,-1.0573238980722501,0.15306396754529153,0.17078942672725445,-0.216053311255826,1.2734375
0.043231135708389996,-0.28035894441456916,-0.23574707955447993,0.9241267883498487,0.0643527373243271,0.10710301948014388,-0.036538790839120566,-0.35022792255940804,-0.5955576422644348,0.0576105954494725,0.34867759221039507,0.053420094843771235,-0.006209840236568434,-0.09572708099309153,1.28125
-0.1490316145325502,0.9787709361072263,0.8368553754361996,-3.249750695662681,-0.2442646605125956,-0.3281020141476796,0.05951237458876401,1.1010938738616922,1.2919944732917512,-0.10514019736151844,-0.24314171614961214,-0.16068910768264993,-0.05661487779147062,0.2664072866675315,1.2890625
-0.08246756864768955,0.5325361288483773,0.4531221457367692,-1.7666014277190076,-0.13043206557104067,-0.18699772497312755,0.044833014686159155,0.6211740129895776,0.8475400569054111,-0.07301897281327287,-0.3077703125942927,-0.09216949497135798,-0.017128588923738062,0.15780719038318408,1.296875
0.08061934767066645,-0.4957333050335761,-0.40796215325528334,1.6189560814392545,0.10244881424925685,0.22362323734605008,-0.11611457906073545,-0.7063802646110846,-1.646052582265767,0.16870320519775192,1.3558287900014108,0.11357444482013435,-0.06859859399970569,-0.22152766317257797,1.3046875
0.04464239493959395,-0.22557574940711045,-0.16529363524539573,0.7061243081885313,0.020155889932603623,0.17686933206593747,-0.16491937005309779,-0.5157331496718564,-2.0430706088148667,0.22533579496475964,2.21858240372349,0.09373144160585814,-0.15726539472691925,-0.21426410779827876,1.3125
-0.04336269393142099,0.3290006026375666,0.29882644568927014,-1.1181048153067032,-0.10507108257804089,-0.045504352405770734,-0.07657579767605954,0.20243983644592983,-0.6806427412414109,0.09296285353870369,1.2974996718784315,-0.01778141043647594,-0.1277087722863833,-0.008165812342661484,1.3203125
0.032808839344485675,-0.2040336456161869,-0.16776143582133143,0.6667360973157088,0.04172449083923819,0.09217798863223131,-0.04778560066391062,-0.2915459334666443,-0.67710275750687,0.07024083541658604,0.556139810600151,0.046777819652272457,-0.028386481582229874,-0.091031948011787,1.328125
0.07922294921956728,-0.5305026403338707,-0.4540552426665655,1.7589378337472839,0.13226624450744778,0.1745465049933508,-0.027563027751570563,-0.5889115693920285,-0.6443228805816664,0.052761213710703324,0.0664838263631769,0.08533018570465489,0.035199416529679645,-0.1390416267212895,1.3359375
-0.07080971383388472,0.399400662919891,0.3184272671856663,-1.2946124472285188,-0.0705647918249067,-0.21968843252580503,0.15172435151559988,0.6708686383551205,2.000829615422342,-0.21049032070511378,-1.9191719964413705,-0.11341607208784173,0.11935523264629574,0.23837824460622808,1.34375
-0.15452089670927938,0.8964317256325379,0.7227786257666214,-2.911950661806727,-0.16809121305641891,-0.46210345275783077,0.2951101657313206,1.4259114729833118,3.962830924089125,-0.4137265401787769,-3.660925486885509,-0.23748520266847592,0.21783096534623908,0.48823375083663284,1.3515625
0.013662379205279325,-0.1448745032727424,-0.14179707244657058,0.5082608916029776,0.05836920585295677,-0.018985265692930478,0.09200161533895106,0.010705966852518426,0.973075809306823,-0.11568620326716685,-1.403322913473088,-0.014040240730963043,0.12109196982463066,0.06316180095559426,1.359375
0.1725308626893079,-1.0493639655561964,-0.8619081916894935,3.432311053704171,0.2155513561270439,0.48069115229964654,-0.255674200676089,-1.5150123857039977,-3.600867631267767,0.3689656209297221,3.0052930145137355,0.2443380397390262,-0.15508838028455477,-0.47973132673354707,1.3671875
0.10893604345129243,-0.6221742031144429,-0.4943888356981639,2.0105622515601307,0.10605762966505788,0.347120242942741,-0.24421425164965188,-1.0590513885708803,-3.2043862078792102,0.3414394301947138,3.1051937688459637,0.17967949373081654,-0.196063383523165,-0.378269171016735,1.375
-0.018422780920133042,0.07202166933205568,0.044975794529563115,-0.21463188689327603,0.0023087310352189476,-0.08534462082061034,0.09543285888753913,0.238547921922987,1.147218037244391,-0.12674161324306632,-1.320078252932343,-0.04595535201589106,0.09735969905455823,0.11232443356408377,1.3828125
-0.07599076285880509,0.42039462368695885,0.3315802486703578,-1.355368628305278,-0.06977511205032656,-0.2446273941178872,0.17980582339731568,0.740648325098532,2.337734681603966,-0.2480690502623701,-2.309576550480944,-0.12696732437838604,0.14821972681197565,0.27124210316671227,1.390625
-0.14442461285926045,1.0500543960305062,0.9357885091867671,-3.5426324606194233,-0.3102139705090215,-0.21269693155959454,-0.14391708649887455,0.8215336515321952,-1.0109916753810462,0.16112533339116508,2.708812685480671,-0.09454783939638003,-0.2935668931571684,0.07514192473308308,1.3984375
-0.20071447446642995,1.4892719941003938,1.3359767725408511,-5.036715281742067,-0.45099204290924716,-0.268029788266952,-0.2539192276516334,1.0784547982328057,-2.010731964449839,0.29377213177193856,4.553732800179801,-0.11529491768289965,-0.4719802277994256,0.05573633021840887,1.40625
-0.10338201802405277,0.6037070773256085,0.4888415177867095,-1.9658057046110153,-0.11610570412805832,-0.30308237585045605,0.18678113110874583,0.9395718595908222,2.5298766059209084,-0.26239943117928793,-2.2936845861722013,-0.15539381787924333,0.13295259888063266,0.3166831804663291,1.4140625
0.0941267712138075,-0.9057398586704095,-0.8775826025751626,3.154928650257139,0.3560333667773378,-0.07761018037984961,0.5127145792393001,-0.034269321425891404,5.3604722412885355,-0.649315604623642,-7.8866398942683915,-0.06429436989128104,0.6875262691226068,0.3302012997276812,1.421875
0.20265860957106718,-1.4439792194298529,-1.2718009385659395,4.845605599384593,0.4059520121325214,0.345820831408806,0.11793905678373248,-1.268192814552062,0.46895299914593314,-0.11293475206991384,-2.577256305261558,0.15993494767512556,0.31268807655729325,-0.18344829363311183,1.4296875
0.17566610187007323,-0.9835442020920935,-0.7737859415949525,3.166339969750927,0.15870290369371307,0.5762077886809897,-0.42689596409226677,-1.7446156670395996,-5.538444048796783,0.5929406854019773,5.493951768731494,0.29931859229447455,-0.35544662045060843,-0.6396067486611205,1.4375
0.0741453277133803,-0.36160720623297893,-0.25983455996589133,1.1282486540529906,0.02670556736783108,0.3021122508195795,-0.2912443774372377,-0.8752025118698021,-3.5868577419931675,0.3961230894137648,3.939082258438598,0.1604742610508957,-0.28132241268840336,-0.3712851330148881,1.4453125
-0.05182467944914688,0.24386271859121306,0.1741733664463236,-0.7605867948156114,-0.01777289937736457,-0.2084994328196718,0.20346230116656966,0.6015615830079994,2.502169521690102,-0.2741645086930453,-2.7558899516072217,-0.11085118552687603,0.19702416695266542,0.2581109798021968,1.453125
-0.10723402550586147,0.6122991730627506,0.4900211656935896,-1.984931315685411,-0.1108575479568805,-0.3279886789234322,0.2196546892727315,1.005949719289727,2.9178153970191167,-0.3061368928344522,-2.75815378736943,-0.16906099310600733,0.16889353948269728,0.3520873358552597,1.4609375
-0.025393835891206293,0.2405919890490574,0.23468084087963073,-0.8407050714309406,-0.09756109615931204,0.026043991369271626,-0.14435085162775754,-0.005653200121320593,-1.5167727768159838,0.18494847272821777,2.2126063796374065,0.02013680999228561,-0.1922441620321507,-0.09553898026272303,1.46875
0.07717061771287988,-0.4134922885234145,-0.3155587152751353,1.317352070855741,0.05444646109313353,0.2762529579409201,-0.22997094083448485,-0.8219730649523552,-2.9110287561812385,0.3167034458451537,3.0287211026016743,0.14476294217612617,-0.20607495533729817,-0.3200121218172031,1.4765625
0.06670822368041013,-0.4289415236112723,-0.3596774484950126,1.4110905306382202,0.09784229119007769,0.16653109928682852,-0.06014592681970457,-0.5420379426141998,-0.9586617275620718,0.09292378432935733,0.5923338471064027,0.0831389251377866,-0.014074706439918917,-0.1507810451230415,1.484375
0.005299834344395439,-0.019753780228296,-0.008671419482343427,0.04976748874616472,-0.005896177442537449,0.03480442290573381,-0.04377977676173217,-0.0951972358077034,-0.5157203732486318,0.05951118703582413,0.6143355876746497,0.01909756306955309,-0.04733600739425527,-0.04798902971013954,1.4921875
-0.026621259810554875,0.19507373597244868,0.17587455001943644,-0.6622683283136879,-0.06097131015417252,-0.032319395816747344,-0.037828521974662764,0.13375085167713027,-0.3148640981688942,0.045548008043536536,0.6630492185810105,-0.01342357726399862,-0.06761514163574828,0.003136783782832345,1.5
-0.08474421957204879,0.45875512603568114,0.356520664736937,-1.4697207594176072,-0.06972336983455282,-0.28508106639916336,0.2233784840791859,0.8549981371486104,2.8635577058226858,-0.30661670983663697,-2.907722448091335,-0.14863033896472091,0.19214243791378932,0.3234588993002178,1.5078125
-0.15001290444690193,0.8241419391420873,0.6448744880389575,-2.648396719232745,-0.1298819963467268,-0.49638963702316247,0.3779388484682788,1.4959482423316737,4.874616113496934,-0.5209934954591422,-4.889540819391082,-0.2583123075798325,0.3195795836905155,0.5570683793707298,1.515625
-0.08334019957396016,0.5281097649672497,0.44547029830418994,-1.745933718641565,-0.12430439667118078,-0.1997702148386814,0.06596006703737083,0.6529609841594597,1.0893737090155324,-0.10076601710946759,-0.612013987414734,-0.09943079350212022,0.007219894487451838,0.17826671855562995,1.5234375
0.06908188495990839,-0.31868722160520296,-0.2195679629770519,0.9795093635370689,0.011439734130101523,0.30130975827108886,-0.3088496381927693,-0.8615903986460058,-3.7632745451549305,0.4181334567553806,4.219996804688077,0.1609956785770544,-0.30644293530269595,-0.38014426320581163,1.53125
0.0837656483062761,-0.4490241432568619,-0.34379861820068125,1.4324866527583628,0.05988130431966777,0.29860536781808156,-0.24759325829452078,-0.8887079426822078,-3.137824303265087,0.3410297087630296,3.261798037947961,0.15651799917339645,-0.22150997911726544,-0.34543613392932293,1.5390625
-0.05569221568019055,0.35492793062745065,0.3001489937881714,-1.1728045338181563,-0.08524622100670808,-0.13009126832135334,0.03822541777241048,0.4275546858978601,0.6595406575807885,-0.05912955631122433,-0.32494967823874854,-0.06441580597831995,-0.0022349618063495016,0.11363157517803102,1.546875
-0.1353160572125222,0.8463406731933953,0.707893638450206,-2.7868681640708113,-0.19173750057194372,-0.340693124370738,0.13631562843337178,1.0994319135384296,2.0970187402463893,-0.2025817299268364,-1.4205553924581231,-0.17078819079730867,0.04605870083930277,0.31651973078246776,1.5546875
-0.05631665897751918,0.3187908796094856,0.25500968843950905,-1.0332816274664265,-0.057844929286189756,-0.17158322911673626,0.11576772615532975,0.5257416371547204,1.5348371543589179,-0.16044892203183916,-1.4543151049180683,-0.08854840858573879,0.08935400383081177,0.18481674266284934,1.5625
0.09974107808705711,-0.763960833712983,-0.6899727606326559,2.58874073715339,0.23637462971584738,0.11929353772382392,0.15721035220522417,-0.5067595484908922,1.3446383015410128,-0.18435294677494005,-2.720704213418418,0.04898935356562809,0.27162873314791897,-0.0006590703513472685,1.5703125
0.2336862358354573,-1.6507779877309487,-1.4490062707877809,5.5327412273668894,0.4583775564621097,0.4123309600017967,0.10951496694426784,-1.494063464945062,0.24515311469262174,-0.09608358948745638,-2.590236406608837,0.19229992105347912,0.32934588700362427,-0.2354227851761938,1.578125
0.2339868028323189,-1.5405053537436464,-1.3130212841909716,5.105204686987956,0.37806031369365994,0.528376829616446,-0.11164622598397214,-1.7654131431942837,-2.2412265062092342,0.19274215333318445,0.6400744291714437,0.2597007352634947,0.06766761414364451,-0.4366858631430102,1.5859375
0.040042876043581296,-0.15801029662879978,-0.09326394262527032,0.4614345427205641,-0.01415734462064645,0.20493419403857308,-0.23614322628103412,-0.571110946473085,-2.8236059879476407,0.3174733125752406,3.2772171077232377,0.11090834753687596,-0.2452983680103814,-0.2724215170812078,1.59375
-0.16921193686222671,1.2117397503944023,1.0732668748995973,-4.078132101307642,-0.34950386844720543,-0.2695344504243715,-0.13021750077118582,1.0102402741896324,-0.7522220068807033,0.13831796224201306,2.611875425999136,-0.12254169595441339,-0.2985085180195402,0.12302857429052952,1.6015625
-0.15800038581893922,1.0961243961705616,0.9589562724416709,-3.671873741354498,-0.3010102494537961,-0.28762303344200973,-0.05254058173363992,1.0270541516732379,0.07363719299156127,0.03907414551903959,1.4299063160341885,-0.1353264587105083,-0.19691460254380588,0.17754478317928832,1.609375
-0.020777264372997487,0.19906033904278508,0.19539597777481577,-0.6992936306768681,-0.081898058545502,0.024713137915491176,-0.12424614444344156,-0.012708083590471153,-1.309855293021879,0.15952110649086168,1.8997000184192152,0.018442844469171948,-0.16462958486366283,-0.08381183863264174,1.6171875
-0.0007836279454655532,0.04466867914949512,0.055009310998661194,-0.17429101358188948,-0.03313322157031712,0.04587695031114675,-0.0881933940051813,-0.10737805369920421,-0.9897607745679299,0.1164665195378434,1.2903106393157064,0.026733736718864448,-0.10499816088795165,-0.07964214025852809,1.625
-0.03200978944570543,0.13777633132014602,0.0924638301994299,-0.42120739775656735,-0.0033003027592963976,-0.1393567709777762,0.14671339623781,0.3955924903290587,1.7799042757395385,-0.196169819540642,-2.0076214423946532,-0.07457363299125618,0.14634555429056334,0.17831312169373373,1.6328125
0.07351338473321481,-0.6452384519224185,-0.6090144726842616,2.2254161987672703,0.23233945695354158,0.005038735886185959,0.27533716886102744,-0.1806085727872603,2.780300996594161,-0.34340157069897903,-4.330646127703433,-0.012057074321451278,0.38889424016164076,0.14408587858704414,1.640625
0.1729661973671167,-1.2461686772333664,-1.1020452797109372,4.190320723965365,0.3561039341189032,0.28185075962000916,0.12707706426217297,-1.052003025394102,0.6962765774690459,-0.13047427559606556,-2.5858019538450345,0.12861281592127072,0.29853290213028266,-0.13285036915530468,1.6484375
0.03472658287829582,-0.19658939139319087,-0.15416481513868047,0.6322830914001193,0.03076394270968746,0.11668292207375917,-0.08721507812807872,-0.3531258683325298,-1.1288739135166865,0.1221429358393204,1.1251111142258696,0.06061593230596542,-0.07333216156623337,-0.12962392611536858,1.65625
-0.19133533529333183,1.384352861936755,1.2298345987171666,-4.6634520090084175,-0.404298217866053,-0.2922655286495707,-0.17182151580949678,1.1137825335394662,-1.1280681527781806,0.18836629089912987,3.314057951389831,-0.1312049713254072,-0.36690885847643073,0.11700313907170665,1.6640625
-0.22662945332319306,1.587663357759736,1.3925798364286281,-5.322131944532543,-0.4410252118291061,-0.40065814604851435,-0.09955836823288514,1.446718992335695,-0.16836581526299133,0.0872471897384901,2.408810931079658,-0.18705968882332455,-0.3115120136991353,0.23303946266917022,1.671875
-0.12386292802115681,0.7510580514539437,0.6190853352859973,-2.459142142889523,-0.1584888496438945,-0.33579388378408537,0.17107973295717577,1.0620062535086419,2.4396065883520066,-0.24577600042135034,-1.9777098134713917,-0.17030433897475244,0.09711154492714377,0.33164317932840115,1.6796875
-0.06798448802051753,0.20414989027063613,0.0859553758499849,-0.5477435870282744,0.061265192731072275,-0.39523275916506173,0.49943789529841487,1.0735743184996553,5.8945612107717835,-0.6634855676180842,-7.011918050938804,-0.21622966572916213,0.533892513020959,0.5499022143961494,1.6875
-0.02452469236675998,-0.04798052658261297,-0.11638133391983527,0.268462030348293,0.10738994483812296,-0.26330956232541264,0.4129833743343686,0.6672266303985795,4.741616418217969,-0.5424131632719928,-5.934454450773994,-0.1482331558611859,0.46844155306180846,0.4094270762872984,1.6953125
0.08340746923820573,-0.45653498980393364,-0.35275061515104733,1.458230687043286,0.06567725503495858,0.28848315241248784,-0.23000820140888859,-0.864549423859966,-2.9362692676142985,0.31775092856149784,3.002861049015114,0.1507409026210101,-0.20098766394915366,-0.3287713522820844,1.703125
0.16671732160796227,-0.7541864386119922,-0.5137117649809729,2.3101146929243948,0.020812387691815856,0.7328808596139821,-0.7610710115860556,-2.0899859282323714,-9.254030511100101,1.0273156980295883,10.411111235744508,0.39211551235354253,-0.7586134841721888,-0.9303626659723555,1.7109375
0.16771478697460063,-0.8701828261853315,-0.6536653779614516,2.755855737094616,0.1012470820082472,0.6225472906655072,-0.545556280947714,-1.8348353173999181,-6.837720973207051,0.7464100175098745,7.260953519049,0.32771320483600375,-0.502452620886344,-0.736227326093835,1.71875
0.15972191527057664,-1.1290251885056382,-0.9905321146289361,3.7831025823076314,0.3125071130555403,0.2837161955447682,0.07238829610626181,-1.026304952716282,0.13833534873245462,-0.06177385391360007,-1.7317090483312712,0.13247031580892143,0.22231320327629983,-0.16352299784393395,1.7265625
0.14908839829174395,-1.1847765674093014,-1.0848815092871351,4.034498497654535,0.385793643398105,0.1302173240754801,0.32505042711950444,-0.6439823284705603,3.0220198722717617,-0.39383810424727306,-5.379073496462822,0.04551915941943695,0.5121751179239136,0.08132939991541129,1.734375
0.07478361952099871,-0.5802415116602745,-0.5261182171513801,1.9667004829971748,0.18181952077134453,0.08314342615514939,0.1300591889761478,-0.3654068809255984,1.144346149853072,-0.1538915110655299,-2.2185163238448418,0.03318712760463489,0.2177193986079784,0.010579511790756484,1.7421875
-0.02318969029961975,0.15706036852954097,0.13739724961441774,-0.5272229601406164,-0.04407780297859961,-0.04059905671692165,-0.00866080872603715,0.14554030400282464,-0.001352771025927462,0.008110422462355542,0.2212768468871539,-0.018982490822796336,-0.030165581128200825,0.024696583452015298,1.75
-0.09779039000592997,0.6045620779365476,0.5033929615722411,-1.98768202185842,-0.13410768261206815,-0.2521696118300097,0.11038342012717388,0.8081067611182845,1.6503686514405902,-0.1617889929749623,-1.2017180705512513,-0.12688257741171532,0.04720413199225376,0.23948358307430892,1.7578125
-0.19804457867971664,1.236770951148864,1.0330199542800234,-4.070789357275018,-0.2774094303397462,-0.5042059121783635,0.20863659449181093,1.6232771048422938,3.175163483036113,-0.3094806173685026,-2.212347836513396,-0.2531044062120717,0.07807726272914865,0.47199854921638196,1.765625
-0.26695859064375216,1.767206786989398,1.5140517028118594,-5.870794931168931,-0.44485350864249773,-0.5785827327086566,0.08709284013087613,1.9531189985647426,2.097815935814506,-0.16406581415196894,-0.1454405251622755,-0.2824472790050526,-0.12458857910627322,0.4600097312639237,1.7734375
-0.13483584715544164,0.9638993141489569,0.8525341669092281,-3.2394247684281194,-0.27734464653522717,-0.21569022391312953,-0.10095780200492684,0.8068754790063182,-0.5711814041176851,0.10720052762052137,2.042470209073259,-0.09827091142483213,-0.2344247427890566,0.10026338915879217,1.78125
0.10208907763541912,-0.6317085139356957,-0.522591890791801,2.0727824418798493,0.1343256937690507,0.275426336625839,-0.1329964373434948,-0.8764718301233222,-1.9265199526152794,0.19503740959751772,1.5083620962297455,0.13930561243537834,-0.07005820917538366,-0.2674986251545138,1.7890625
0.10529781799781861,-0.7160907522818266,-0.6172373145812305,2.383989992855499,0.1846011752499141,0.21784113401868277,-0.010593491491371489,-0.7497703552296948,-0.5641985994670361,0.03585894976597478,-0.29326458061376537,0.10520102477644977,0.07768232407030169,-0.16086848512241123,1.796875
-0.1331091034347826,0.8546214823579327,0.7244797474597976,-2.8285810962178157,-0.20510819636032585,-0.3117208891009129,0.0893489944049059,1.0262601586437061,1.5606339417355535,-0.1408444454319201,-0.7451804985451611,-0.1544521221311544,-0.007442473008197498,0.2706939783359639,1.8046875
-0.2136531417971666,1.4260084716749446,1.2272305636654524,-4.745697695617046,-0.3659236769751991,-0.44858101551572815,0.042753319553152425,1.5284569243599044,1.3759465143913325,-0.09568117916704376,0.27576357307776717,-0.21776219081149495,-0.1313550583915343,0.3434755858661103,1.8125
0.02178393700590994,-0.10146984033868682,-0.06880897706471166,0.3091275927501118,0.0018442509990789914,0.09930034176163365,-0.10354052456323634,-0.2832871956555487,-1.2563802018352979,0.14082138567755978,1.4173585427619984,0.05313130090983115,-0.10365088317351198,-0.12597457081132227,1.8203125
0.2515873681479597,-1.617665231137892,-1.3647253465355318,5.340218642782224,0.3789819586865603,0.6077982716526233,-0.19614080401116574,-1.9904714909242285,-3.2629890513793813,0.3062194241819826,1.7993877690403461,0.30231625814783547,-0.01728323555139631,-0.5386096662326841,1.828125
0.2248653752727767,-1.4685810444944702,-1.2477415398318672,4.861496614911246,0.3548375905462599,0.5201446251496923,-0.13086410960808503,-1.725347101949178,-2.418938793438066,0.21596192401214398,0.9599585159696,0.25680855620831455,0.03701982527364427,-0.44112802933958417,1.8359375
0.09097651798703374,-0.6379755465393091,-0.5575166580757938,2.134810286400041,0.17314705123325597,0.16912420119414406,0.02777743621116379,-0.6029378294922666,-0.07416647802029558,-0.01697825164492039,-0.7914840335145651,0.07982980886098127,0.11053316570145243,-0.10558603236676975,1.84375
0.047219371790882404,-0.3908075777282909,-0.3612762718957086,1.3355447052075164,0.13119988215980669,0.029706573983596447,0.1269046512178631,-0.178468841574908,1.2250138072573324,-0.15495351302703184,-2.055574961668928,0.007614910638403264,0.19065221681871736,0.04705997784364178,1.8515625
0.05005973742003316,-0.42289167332370586,-0.3934697863835784,1.4472748973925629,0.1455743049602703,0.022556835858374254,0.15155119854334012,-0.1680254038025539,1.4905968964217478,-0.1867092796003312,-2.427906618709305,0.0028880301395485595,0.22229253373188618,0.06536780928786977,1.859375
-0.0043571298025484595,-0.07487098998981728,-0.10052362135822296,0.29929600562291736,0.06441712741892268,-0.10942249976138695,0.19563267233887704,0.2633798846905789,2.213269183669075,-0.2547898096885739,-2.840924597169089,-0.06279575874922017,0.2279385771280733,0.1831613877973598,1.8671875
-0.09128235485534565,0.528238507360044,0.42555894086524054,-1.715267980708961,-0.09949268149963751,-0.2717929342291523,0.17314531775172237,0.8390432754083613,2.3253233533574624,-0.2422259651034272,-2.1443427462763034,-0.1395926523839578,0.12708504036265153,0.28703310117685227,1.875
-0.12860751121894676,0.9055587040372781,0.7968279371449372,-3.0370803162856395,-0.2552770127440197,-0.21944173587331084,-0.0701985332648961,0.8011983234047523,-0.250644502372538,0.06816716523660747,1.5677620331859288,-0.10166818899279756,-0.19274458254814716,0.11940563556772514,1.8828125
-0.08730047798317474,0.7421104863288168,0.6979807606893284,-2.555332353417837,-0.26627238432064393,-0.015122363570099205,-0.3028668998923444,0.23080004791247025,-3.03740813638941,0.3798498938572185,4.791301330166408,0.008684036361443472,-0.4328216260420531,-0.15101110088664382,1.890625
-0.013244354436232314,0.16549278600983086,0.17274969669092555,-0.5969803898969082,-0.0815342102413727,0.05858171952558276,-0.16002325601591372,-0.10888720641175566,-1.7441957505408348,0.20775501388707215,2.391407016912676,0.03657575177748965,-0.2005363479734805,-0.12717365468006225,1.8984375
0.008319394596844665,-0.11812805496241054,-0.12208758586722011,0.41933971533408276,0.055770188507110616,-0.039578853102212555,0.11037988343123105,0.0713860659032865,1.2028026400200045,-0.14103610698268784,-1.6500551788428557,-0.024769991197983898,0.1378802114274027,0.08765907778961485,1.90625
-0.047974936825231344,0.333282690284653,0.2931683431215497,-1.1208395031097014,-0.09375209933647953,-0.08258399807071617,-0.023243942934905556,0.29937896898323796,-0.061624316429136586,0.022452564919923635,0.539081733070704,-0.03838854573639724,-0.06839898205407825,0.046844907637476466,1.9140625
-0.09357280561939217,0.7989700336373413,0.7521870375367458,-2.753535033692387,-0.2870831500801047,-0.013980704361816997,-0.32928180460373097,0.24257455561955837,-3.308180420402357,0.41311636343182323,5.201726205480386,0.010635928244556789,-0.4695410660292169,-0.16595246482483542,1.921875
-0.04994188054523833,0.4099075461844895,0.38238578150088787,-1.4071139586294314,-0.1430622593290479,-0.020980503092687623,-0.14844284307565503,0.15972769209819748,-1.4597500097100025,0.1855512088811106,2.3756828088023263,-0.002270542034078985,-0.21807179322342984,-0.06414698563254263,1.9296875
0.031156250125889892,-0.38771816853951907,-0.39648931536993204,1.3818521891922395,0.17868136175661128,-0.11134029217660459,0.3355285080048181,0.1865525136205919,3.637040496780391,-0.43047938648720907,-5.036284234968751,-0.07114061321195483,0.4241886036161814,0.2594496336945615,1.9375
0.06676112359586776,-0.6518405806240587,-0.6334254619755811,2.2751139774091755,0.2584341144269685,-0.06292266068823166,0.3794106083518806,-0.006936178482237313,3.9799155795320864,-0.4808187379357101,-5.8267850092586855,-0.05018191891199698,0.5064961584183724,0.2483736063638454,1.9453125
0.0691170693979094,-0.4861174473289181,-0.42501367007224977,1.6277801308040891,0.13210999070989035,0.12861441088575107,0.021845702867240576,-0.45890824883453374,-0.04861776642120619,-0.013474984464079066,-0.6120125345947173,0.06064879267415502,0.08510176620818727,-0.07981265260867011,1.953125
0.0807260365974728,-0.4960511387733082,-0.4085868473685285,1.62355031797016,0.10279908133540451,0.2233823104811796,-0.11508532520333006,-0.7063732426739731,-1.6366655842978335,0.16763390518220483,1.340456795938794,0.11338861530487693,-0.06715212681409659,-0.22081332561176392,1.9609375
0.08363399415563978,-0.5754311826998116,-0.4983617686975355,1.9184990677915097,0.15052291284855887,0.16825691426732292,0.0015546163646628077,-0.5844940608004158,-0.3380181618367163,0.015912961863079084,-0.37584727651786237,0.0807608432048892,0.0734376980631647,-0.11901346588735691,1.96875
0.04992611384343174,-0.3619113046565269,-0.3193820511500714,1.2155868563738874,0.10201455186210942,0.08397421740088688,0.03369335426132759,-0.3113512408263042,0.16539312572504325,-0.032685385147935286,-0.7046866273152208,0.038548081606723746,0.08274450554924265,-0.041579274726220944,1.9765625
-0.0036607940096106233,-0.023438474414004155,-0.036105123926437624,0.10081887782885844,0.025517882589616323,-0.05094138050556021,0.08640433382653846,0.12508430675696688,0.9832228918777101,-0.11199976623823381,-1.2504036027948993,-0.02902627793152585,0.09935194984769616,0.08299878084241694,1.984375
-0.054881278300338704,0.24884410513826719,0.17248202458213283,-0.7698136258958223,-0.011480050368953845,-0.23173821997215505,0.2357504187968137,0.6630619470396927,2.8771772687977077,-0.31703462871548693,-3.2164174345021843,-0.12364537050501911,0.2322724887349134,0.2919907309717017,1.9921875
-0.08973822248528175,0.5801787487528736,0.4938097784562167,-1.9270075140773262,-0.14228626743444694,-0.20364863240805378,0.04804804376356313,0.6765900975834397,0.915814822466789,-0.0789219221493361,-0.32605098231150104,-0.10019945362380313,-0.019865369746769206,0.1713895369407684,2.0
-0.07789731922255594,0.7777286391211355,0.7649902632103242,-2.73132920214831,-0.321452090384863,0.10685155297415148,-0.5007708590965374,-0.07451973109286196,-5.2998352130701525,0.6397882478699342,7.642924495915072,0.07779641483295584,-0.6594985851708133,-0.34410183586824755,2.0078125
-0.016653352868298846,0.42506534111235156,0.4823529274849948,-1.5861188609372,-0.2575855119791886,0.29501405348499615,-0.6257315369774887,-0.6523314346299683,-6.961970941001191,0.8149549324455667,9.210200586628297,0.17465645322354822,-0.7549763764666554,-0.545288743088922,2.015625
0.027946786313766993,-0.16879977561070514,-0.13657179188902815,0.5490795989343925,0.03163192110731354,0.08462891171244995,-0.05178919101122842,-0.2628411595063953,-0.7018084334960311,0.07454016659685503,0.6364265967012689,0.043345874898311355,-0.03722551548615414,-0.08778716283469704,2.0234375
0.007522025488787739,-0.25261253132331984,-0.28941605937748316,0.9466824906848759,0.15556864122063496,-0.18605332073319752,0.38795912857550924,0.4147061056718924,4.324592214994049,-0.5034666947229123,-5.702450869638424,-0.10978842318675586,0.46600567731553255,0.3408856209019685,2.03125
-0.016528227153087077,0.024282716865742654,-0.008802628326936315,-0.036463564594560016,0.03080798180220259,-0.1174323889122531,0.16425337847398702,0.30898900957961617,1.912419291502678,-0.21615278932527363,-2.3327047230217017,-0.06501814794004174,0.18059774274459803,0.17210457955930264,2.0390625
0.036860122954964505,-0.2062972449224642,-0.1601010890834261,0.6605108029933318,0.030291382817944204,0.12680196542170608,-0.09853273751637147,-0.38197045787457584,-1.2646476691343578,0.1373351752255644,1.282016683462677,0.06611433815855179,-0.08490166892510777,-0.14298657107793777,2.046875
0.11452668856761637,-0.8651166375023523,-0.7768817580905522,2.9235146709927373,0.2626879380841381,0.1487368722155914,0.1574423062827237,-0.6092644326296329,1.284364353773625,-0.18157893471496078,-2.7841446297014043,0.06314285527016394,0.2845471661793202,-0.021627214466945703,2.0546875
0.08542114787297327,-0.8128543789365286,-0.7845159732575271,2.826339735428703,0.31585923991122467,-0.059885131393348584,0.44525977932025407,-0.056339866114479276,4.64030376914063,-0.5629477143664887,-6.865626454745922,-0.05220418299186076,0.600425716151549,0.2814203596428796,2.0625
-0.045464676060319086,0.2170553871281336,0.1562593755877218,-0.678196638179404,-0.01784384886670658,-0.17952778904065353,0.1721960614063199,0.5198426571551539,2.123118844588495,-0.23210787179565903,-2.3251141493822014,-0.09523743202980364,0.16521127349037762,0.2206853209527934,2.0703125
-0.12325576462862914,0.9924455788615517,0.915731555054999,-3.3913124571541124,-0.3337937126194119,-0.08265596482104914,-0.31181716734539866,0.4702363847654265,-2.987340496215056,0.3844723003621317,5.072234483270198,-0.02319983053746462,-0.4743667949902043,-0.10757101119395115,2.078125
-0.08758393552497255,0.7572870912509647,0.715292719037981,-2.61196953131712,-0.2756157153049286,-0.00325031997605052,-0.3269443496163418,0.2039066963488091,-3.3074361711641043,0.41122908387067775,5.14199068526152,0.01568086307572326,-0.4617048761480844,-0.1723442307949605,2.0859375
-0.05941880322416534,0.37599763226715205,0.3172192905164874,-1.2420513360249283,-0.08884483420800497,-0.1415586915656029,0.046249870479471517,0.4627081284468701,0.7667489215499432,-0.07036305511729407,-0.42759377721760516,-0.07046187381937344,0.004372722666094159,0.1261924641181229,2.09375
-0.09755143162153015,0.5618510052095739,0.4515243051785432,-1.823286410137336,-0.10398200188595326,-0.29351916160188596,0.19105519346471245,0.9038897835913128,2.5543408750851424,-0.26688854460709244,-2.381094095775495,-0.15105049068554408,0.14322043834862208,0.3121739005014585,2.1015625
-0.07471399369396442,0.5196665416839803,0.45598726754798946,-1.742873627221192,-0.14484542473820183,-0.13123884496459964,-0.03247243217921717,0.47355833688379595,-0.05249137619854059,0.029204458056715465,0.7870524267480434,-0.06126651080266685,-0.10216517993942716,0.07660962543691265,2.109375
0.07720926873300779,-0.4404856942191689,-0.34821078447145154,1.4182475132858572,0.07336668509887039,0.2490457110084334,-0.17830716906399532,-0.7582508327003042,-2.3300026528229294,0.24914979101712792,2.275320057310216,0.1290782526170277,-0.14524215745337085,-0.2729637695529937,2.1171875
0.21464697389808962,-1.443004298704023,-1.24041551866631,4.796080018697664,0.3674472491063704,0.4553370477632959,-0.04603439227123955,-1.5511467515673867,-1.422742997380372,0.10335924606117618,-0.2357436521153462,0.22115690259821777,0.12879891812522032,-0.34940429974086734,2.125
0.21002619092273445,-1.4531100673228579,-1.2648184748599018,4.853789386579864,0.38939629016702576,0.40328485957447424,0.03626643438110604,-1.4190637761614056,-0.479280638096571,-0.004908212989330141,-1.416269393136184,0.19181367822826453,0.22238684160066002,-0.26818567250383385,2.1328125
0.12106950826646025,-0.7719383277219084,-0.6480409448769081,2.5444439895624473,0.17584757361492204,0.3029950833109211,-0.11284686153170888,-0.9834121541100175,-1.7803219521963687,0.17239464859209874,1.1376668757069088,0.15152359188562745,-0.030143602106816374,-0.27644691615627154,2.140625
0.02983058705601691,-0.11914054439647999,-0.0708133154893457,0.34976033064502693,-0.010596962797163895,0.15325719322793888,-0.17624013963611432,-0.4274505537545267,-2.1082763655599766,0.23735454064332676,2.446943038500378,0.08294302162209785,-0.1831123322276186,-0.20349316388802682,2.1484375
-0.0656947816709924,0.4101013410607335,0.34432560933978545,-1.3536981437347777,-0.0945807725633252,-0.162175820716105,0.061391923984295764,0.524948448524346,0.9635948495336626,-0.091431364299916,-0.6226700377116244,-0.08110291514540337,0.01677689841260795,0.14894420609021156,2.15625
-0.143632344902753,0.8277770861543831,0.6650837571834122,-2.687233795686048,-0.15243270479095544,-0.43454435685487897,0.2841194106520803,1.3372666820542478,3.7937468460550083,-0.39734442767410505,-3.547378003135524,-0.22365400989036158,0.21399873739721031,0.46265361485569845,2.1640625
-0.15595458491488123,0.9640643156263109,0.8016320171596428,-3.1679523240817207,-0.21186816828550645,-0.4058145734376405,0.1817327565404712,1.2983070461842083,2.6955884894245123,-0.2661365745125899,-1.9994425001463465,-0.20443652594599002,0.08218194518153199,0.38733728914668575,2.171875
-0.1262427645882153,0.862167071773,0.7496784328326198,-2.880641463712184,-0.23108395681977392,-0.2431466059703731,-0.015954456579313308,0.8513587541955534,0.35033081729686066,-0.0023516085801639254,0.7632018210001413,-0.11589845780297116,-0.12654980679207117,0.16539396094055528,2.1796875
-0.08390452992929788,0.549273608803755,0.4699907843319981,-1.8241447685262377,-0.1377138013738925,-0.1835536178844245,0.03249036404075808,0.6162023290934361,0.7166319016372428,-0.05732578351698257,-0.12236048163255331,-0.08987153870035317,-0.03291409255050973,0.1488105242430541,2.1875
-0.005471678584789111,-0.047717309358898626,-0.0699176413915625,0.2011924005114855,0.0482727010114537,-0.09161408526114784,0.15754767738257672,0.22377744893752788,1.7908754401824492,-0.20521823789252797,-2.2796336256986747,-0.05231927467748236,0.18226358352651895,0.15011073549032167,2.1953125
0.061515031504134315,-0.4160314430704508,-0.3574482184268311,1.3838943929171976,0.10518154418878393,0.1323910763043502,-0.01457806278273296,-0.4507781718216372,-0.42524678797918974,0.03252762280794911,-0.04888727441852324,0.06437743611222128,0.03560812023895347,-0.10200025102715286,2.203125
0.028014305614464597,-0.02090159522095807,0.04505665866159014,-0.023469146078919385,-0.07531682877159138,0.23750551909318643,-0.34469271834086657,-0.6199760190254544,-3.9927448539845947,0.45686573595754787,4.913647365058947,0.13229274501120933,-0.3840294447239269,-0.3537830084642935,2.2109375
-0.01604728590277769,0.2776208336426841,0.3030663202181945,-1.0195177069731713,-0.15329819191183097,0.14816416854702935,-0.3425965320660794,-0.31138610598873734,-3.783977341781453,0.4455815089218836,5.069985407218135,0.08925336441451857,-0.41924666291295226,-0.2888553435421888,2.21875
0.07317181365714617,-0.5144154831897654,-0.4496811545218769,1.7207704973950062,0.13966907727265032,0.13621888767979687,0.022790626168905846,-0.4856932790212674,-0.055464887434348846,-0.013865566375865782,-0.6421973960799932,0.06423256971814456,0.08960132779050275,-0.08471300234660739,2.2265625
0.15620942394932952,-1.2035179034269397,-1.0911229905687958,4.086159431425802,0.37761095201365785,0.17439383156442917,0.2681919108194388,-0.7632793294837864,2.351735518549137,-0.3179935306552368,-4.578032356368941,0.0696454288029648,0.4510914050838685,0.019390014002709913,2.234375
0.028176163561730173,-0.28053178599015566,-0.27281703628584275,0.9800524763131941,0.11098589564085018,-0.028497031216135133,0.1653228122181544,0.00010096721756342867,1.7358000256976138,-0.2087733352378293,-2.5374589582861824,-0.022368152172158283,0.21994005890443102,0.10917418260963138,2.2421875
-0.11282621978765464,0.7663107024694897,0.665520663858065,-2.5597143523838,-0.20443615125700668,-0.2202099694566089,-0.008429436287108835,0.7672678572586674,0.37797441078023913,-0.009520867367806864,0.5954647940909551,-0.10530831860618373,-0.10621483560372605,0.15304097817456938,2.25
0.04222800945396709,-0.27892643571689724,-0.23612617033636338,0.9195203060144651,0.06597844832239,0.10077524256136683,-0.02805448731963535,-0.33269579075986394,-0.4951351633550016,0.04630174120937452,0.23005237113269345,0.04989435414782671,0.0029249497344415163,-0.08666137361680624,2.2578125
0.2822874855690873,-1.924520198428204,-1.6657513652586928,6.414709774639344,0.5044024999954563,0.5687585142969804,-0.003305275448688024,-1.9687140669032934,-1.227473699345447,0.060721247362062546,-1.1437465635330577,0.273406256436703,0.23720198145577806,-0.4075757537430331,2.265625
0.16545347379934955,-1.096818322513026,-0.9373206924121903,3.6384546830510387,0.2718999004277448,0.368118546209915,-0.06744128444323838,-1.2360693911788307,-1.4561158189572962,0.12161975373005252,0.2843770652671011,0.1804387944956845,0.0615414294637797,-0.2986538412032607,2.2734375
-0.20169250591767524,1.453319838254701,1.2897469617871264,-4.893832433574532,-0.4224286941774412,-0.3134830962549772,-0.17060045871619192,1.1863645150235782,-1.0701637116039409,0.18480393333290945,3.3398558013142714,-0.1415352682268253,-0.3740488551113238,0.1327983859107391,2.28125
-0.329327537189151,2.315545543507832,2.0341933068869906,-7.76760232521389,-0.646401271017397,-0.5750651576485373,-0.1591505702489888,2.086233730931885,-0.40484708258532665,0.14509027995588977,3.713133148967712,-0.26779124247134134,-0.46949734826054,0.32567934792619746,2.2890625
-0.14620453290956764,0.9491767780996753,0.8076204677858222,-3.1473550595950566,-0.232146435019691,-0.33230648438435373,0.07843100265190905,1.1047520947449612,1.4938586215507312,-0.1293666810149173,-0.5286861696842472,-0.1636745294152089,-0.031864476315167915,0.27950740273092567,2.296875
-0.010888051948197188,-0.11891290556270563,-0.17039204437028801,0.49495937564138254,0.11621740878121463,-0.21376833099766554,0.37037725523508447,0.5210490545366755,4.204900150198437,-0.4841401234396449,-5.365696610188723,-0.122126347798503,0.42943479958097025,0.3512000668234796,2.3046875
-0.056186730309780136,0.22047255079864303,0.13470544199972603,-0.6514025869634692,0.012979274842738133,-0.2729703433952523,0.3099924264475218,0.7616301057235366,3.716998213149358,-0.41409094925691525,-4.2943721220274735,-0.14745564028918867,0.3193983598473316,0.36123654349332535,2.3125
-0.07873955950720991,0.5833836383849564,0.5243810883510297,-1.9735695305512608,-0.17810150201982575,-0.10232487973697155,-0.10320587123731337,0.41489146751372336,-0.8308382816950948,0.1209537155525069,1.8365301812734465,-0.043759028763544615,-0.18909659937593723,0.01822772349659204,2.3203125
0.020744521897194813,-0.0006329965550438351,0.05209923888722478,-0.07708427414843413,-0.06714745145429049,0.19288447843915268,-0.2870018880094424,-0.4991355761992308,-3.3142393120242173,0.3802138317285638,4.101908602654157,0.10777516807536941,-0.3219070605715353,-0.2909990562513326,2.328125
0.1263519137251252,-0.8566600892475938,-0.738720349932187,2.8510383099050496,0.22058634589757017,0.2627461530615424,-0.01588102190702241,-0.9017257132154461,-0.7117954603453764,0.04678843552497774,-0.30492314594941733,0.12709757294587207,0.08921105057061772,-0.19577459035833875,2.3359375
0.15386138583516665,-1.121835916369109,-0.9966249121424178,3.7793437815871114,0.3259665589503367,0.23731547947369605,0.13840024588364183,-0.9049422128910647,0.9061315730910793,-0.14926300553967478,-2.6749760387200454,0.10672434864742655,0.2954367194464891,-0.09499041185590812,2.34375
0.12290630579161976,-0.7648882407994048,-0.6350655240646398,2.5127554667163077,0.16536389826611197,0.32622721899705237,-0.15026911404005322,-1.0419550870192584,-2.2075938700813054,0.22158456248572264,1.6742691692696927,0.16459719258150346,-0.07273342781047101,-0.31299280138766256,2.3515625
0.06873896178220165,-0.2951689734775211,-0.19186637188462546,0.8913005436497883,-0.004344383255963523,0.3224064905081462,-0.3504905967613159,-0.9099377270435641,-4.23056468003166,0.47247339707664787,4.8298628471533105,0.1733300347309995,-0.35609037596772763,-0.4175131932988363,2.359375
0.026292313679823865,-0.1517036040096483,-0.11966416561975082,0.48758097484109864,0.024246269006345376,0.0879490716396478,-0.06439769353243088,-0.2667810675008249,-0.8386724245960306,0.09079523099808151,0.8302389528420651,0.04568991967174618,-0.0536506855905021,-0.09702481282170636,2.3671875
0.01576174238656192,-0.27024025843200045,-0.29046205248754636,0.9818992157876107,0.14220603672060553,-0.12911539264176675,0.31062210007213464,0.26331601626195733,3.4191372088029333,-0.4008175485568191,-4.604241804126141,-0.07830340114580675,0.3813437122687273,0.2587163759289638,2.375
0.010598342404423634,-0.2545282529226251,-0.28355308562829923,0.9380581422541633,0.14680859837022306,-0.15957564943493371,0.34886702861884783,0.3460899902217407,3.8715828407258015,-0.45181885525623583,-5.141694700184755,-0.09494652035579142,0.4221431025933433,0.3009716529774761,2.3828125
-0.0029869418787210004,-0.05361015384823744,-0.07015701013295692,0.2091408880892037,0.0441680322810629,-0.07497884100601332,0.1345974648609885,0.17954015776789714,1.5225964321649068,-0.17482051145882574,-1.9554875385312036,-0.04304675798453379,0.15679986465104617,0.12588633574204036,2.390625
0.0015540133975178833,0.056267848912493076,0.07577032604636452,-0.23077077138308458,-0.04917173291750122,0.07919284328210616,-0.14311373048829878,-0.19056648623488082,-1.615848344024186,0.18855379352382184,2.0801780222214825,0.0455818236590486,-0.16804899489214636,-0.13283705259781703,2.3984375
-0.014213804347288321,0.2635838463879379,0.290712713367163,-0.9711841481817446,-0.14907075793869828,0.15046110904129953,-0.33977627777647196,-0.3211003858018957,-3.758873074010907,0.4421780840008211,5.018781212749302,0.09013194629538256,-0.41421906205653397,-0.2889685667713137,2.40625
-0.13556065522206392,1.038140124605443,0.9420935027310315,-3.523807793109137,-0.3287791616361433,-0.14554589204057047,-0.2382137468061363,0.6448142019160655,-2.1076024263555166,0.28595433913121304,4.04827348582884,-0.05737816204913325,-0.3975388663383429,-0.023238759800763335,2.4140625
-0.28891757479337027,1.923928429982788,1.6519386135411784,-6.394331497212545,-0.48929906326075884,-0.6152136718811771,0.0728780649670049,2.088347643798216,2.032401013160434,-0.15000344693180226,0.15152040804844458,-0.299303915053289,-0.16017444568474348,0.4786142211165351,2.421875
-0.26591930708490763,1.7284864257220547,1.4689442737901723,-5.723664214541636,-0.4202374216985938,-0.609137292515572,0.14934846943269678,2.0218395799074944,2.7947565990071754,-0.24535131056806556,-1.0633733288452965,-0.30038203806593394,-0.049957545592860496,0.5151864152554944,2.4296875
-0.05210717742855359,0.362267453362698,0.3181962314459892,-1.2151523550483927,-0.10182317149634118,-0.08957619044458583,-0.025495085898966957,0.32473662834421635,-0.06929714432000894,0.024560620512139125,0.5889779710966632,-0.04161716459431034,-0.07435955910254502,0.050629682193987564,2.4375
0.11635509510662446,-0.8173841465549804,-0.715048638808465,2.736074477624067,0.2233287374815733,0.21335306532861875,0.04053950119210978,-0.7639135835373904,-0.03677823513526687,-0.028694951460034063,-1.0841008727777974,0.10038737524520487,0.14759912577905274,-0.13028653306852056,2.4453125
0.13717003850188075,-1.114664078547042,-1.0281576528273866,3.8081923597490346,0.3724155455363,0.09477133111113892,0.3474155147071806,-0.5343280752549948,3.322810846665253,-0.4250972257148272,-5.65342685558606,0.027234655615214605,0.5285960693691872,0.11866115582533299,2.453125
0.18438171882080026,-1.4120878578809464,-1.2767570815656109,4.785940712186995,0.4395945542862416,0.21408990085763913,0.3000731636389997,-0.9196906605596868,2.5923959107576864,-0.3541624392718343,-5.16202812992634,0.0870285822267131,0.5128069134711746,0.008090543299856718,2.4609375
0.3158602049166465,-2.0667267048276483,-1.7571946870219237,6.842387316684937,0.5019953716614315,0.7247450077201485,-0.17345227377427946,-2.409091909574295,-3.280345041164791,0.2893560767724355,1.1997664707705442,0.35728901812366437,0.06436626795726598,-0.6100473846446232,2.46875
0.28998849315648434,-1.7598825786330294,-1.44473507846765,5.750936432633862,0.36163091617699256,0.8075731285981852,-0.4314141685386737,-2.5435381291282884,-6.069442346535779,0.6209262218894409,5.077960594970654,0.4107118775422087,-0.2632463773136186,-0.807286079757328,2.4765625
-0.0028782136108118223,0.11093751559270629,0.13096304548754595,-0.4226949100642401,-0.07419802783568377,0.09516833120155097,-0.1906177491797115,-0.21748519829808513,-2.1317622734893313,0.24963043661958517,2.7958333229635985,0.0558299310305574,-0.228147738056658,-0.169684263722461,2.484375
-0.26980836371519934,1.7618618755797677,1.5007574557227181,-5.839186601684333,-0.4322711686340587,-0.6100501239009987,0.13617028153761165,2.032680119063344,2.6629058802667362,-0.22878392877313727,-0.8539693054027855,-0.3001950268020114,-0.06884360739474933,0.5088329310160138,2.4921875
-0.24047282940047038,1.5279099086323458,1.2857159785314707,-5.038735143644687,-0.35494859021939357,-0.586813434113145,0.2044577498774592,1.9116046450655189,3.3062882122289414,-0.31210081198865114,-1.9770289509856553,-0.292689678629656,0.037291271327116515,0.528816150536359,2.5
-0.06045732382613503,0.3619211577129826,0.2972959154181994,-1.1816773097097684,-0.0755426964739159,-0.16550524015645462,0.08817081710831735,0.5206358640368921,1.2415089959838372,-0.12519731886004207,-1.0368882368545513,-0.08418589920100844,0.053191296392956056,0.16572481661312038,2.5078125
-0.0025917997031844613,0.04189986007043114,0.04674698526556229,-0.15578402335081026,-0.02521191145021728,0.026441868100410174,-0.05760311184289686,-0.05789329139985425,-0.6400672775978132,0.07634347754846157,0.8504931924433357,0.01573692033653416,-0.07027324244633196,-0.04939316288381467,2.515625
-0.05854694878683711,0.46788799556663613,0.43187154430477837,-1.601382312011359,-0.15773849890470112,-0.039060695718444075,-0.14688168516218914,0.2220777385954742,-1.4070461124697597,0.18191128750697377,2.391361708669443,-0.01099805800161358,-0.22384464361593379,-0.050422232386292766,2.5234375
-0.04948580602839966,0.3998128639731421,0.370780024386096,-1.370525639160404,-0.13700810301459115,-0.027379283124275386,-0.13454973723855526,0.17411068585583497,-1.305838104919725,0.16747784289016054,2.1720299741066027,-0.006028238172993277,-0.2014485030776638,-0.05215729018907139,2.53125
0.06581981377412809,-0.401034240739301,-0.32798408862319395,1.3073281641856862,0.08037386475211626,0.18747499835425804,-0.10386104928812837,-0.5888084263003034,-1.4457645902457188,0.14976429909319774,1.236609649327642,0.09558313939100795,-0.06668467179979544,-0.18915411054196413,2.5390625
0.15443008150794454,-0.990947907958621,-0.8336230801838729,3.2647919650784853,0.22905074375120532,0.3790005659414375,-0.13086181083233966,-1.236520141591189,-2.1214814143836644,0.2021632437883705,1.2577460536845906,0.18903790497380812,-0.023068227932421716,-0.340388763593513,2.546875
0.07631365166357104,-0.49707347731168805,-0.4197283745319394,1.637947116739507,0.11671461196386834,0.1834955941038346,-0.056059103920194905,-0.6032466953999354,-0.9519967270850734,0.08928329836303053,0.49504042351982674,0.09119620953472989,-0.001152783405564511,-0.16075764563869804,2.5546875
-0.13246185568590893,0.7814044719611545,0.6354791822313466,-2.5466202265651225,-0.15375585257618224,-0.38199218418697173,0.22610214986050228,1.1892506177382571,3.096219839422638,-0.31959915700883273,-2.7467501405480115,-0.1953173313344026,0.1547812746062401,0.39408083873316424,2.5625
-0.2285750487509955,1.3373111069208057,1.0811732537418157,-4.346280375766904,-0.2548021000680263,-0.6760504336152164,0.42055057600914053,2.0931072256722305,5.684488544344395,-0.5920210711558407,-5.182347983779505,-0.34683480864560057,0.3029664734166881,0.7081644458088775,2.5703125
-0.05852348532140074,0.26710836525629245,0.1859661712503504,-0.8244881317404359,-0.013484445279621221,-0.24554896296742915,0.24854177992905332,0.7033125782374583,3.0359967001749166,-0.33431317646236375,-3.3856163290494132,-0.13101157464864543,0.2444775862128951,0.30871109939626523,2.578125
0.16000142819915678,-1.0679162051045714,-0.9151082080313985,3.546090240807557,0.2677384702493323,0.34910665159020987,-0.0517172655503748,-1.1793709072113765,-1.2572307926296213,0.10024659089818616,0.08075480144360332,0.17040805977515586,0.07559612126793588,-0.2766242724376995,2.5859375
0.14051499668880504,-0.9005168911715338,-0.757736912774195,2.970652681121703,0.20797986747221206,0.3456285804181176,-0.11968742751031057,-1.1271474154038414,-1.9395896093290084,0.18527918497782994,1.1557025168227515,0.17229434846495895,-0.02148353743174082,-0.3105362204451007,2.59375
-0.004802023479425374,0.04648102752381989,0.046986789868769925,-0.1638327874000287,-0.021480666145527336,0.010761470201634609,-0.03603996545406514,-0.016471379964214522,-0.38873897359916926,0.04782815941251575,0.544753981800102,0.007045757481437201,-0.04658985032158104,-0.02664655415237515,2.6015625
0.0032390835847727023,-0.002153976595747859,0.007050926004710734,-0.005193063270736157,-0.011371641088381889,0.032989440271626605,-0.047928953183428304,-0.08645653522239523,-0.5553988023351237,0.06481620406531774,0.6836041231806498,0.018361363875327698,-0.05384084811154831,-0.04884745844909488,2.609375
0.09234525423395766,-0.5819462742897477,-0.48524177220790365,1.9129817674996323,0.12870182298347507,0.23942349441730473,-0.10131301269331201,-0.7700687610188349,-1.5290545367852548,0.15173009908474608,1.088423332835567,0.12032591447682287,-0.0408453863991428,-0.2248015720973631,2.6171875
0.022338705723892228,-0.13230835755956352,-0.10533492340643609,0.42678550798008086,0.022553370728540936,0.07216238365013526,-0.04943861500512713,-0.22129019042565656,-0.6515656604600978,0.0703382474959503,0.6261752166778718,0.03726262345884671,-0.039089516877554215,-0.07763408743937225,2.625
-0.11281149420475728,0.7546050415695279,0.6509352501741851,-2.514070534254546,-0.19563724808934152,-0.232396438430616,0.015119690024985939,0.795561688931401,0.6420215819778091,-0.040265844833491944,0.2518802693369305,-0.11237647477710697,-0.0781642396482413,0.17433285983601712,2.6328125
-0.0499016522006897,0.35854976264199917,0.31954637323651375,-1.210854492883834,-0.10624735603238014,-0.0735675751463423,-0.04803206399917815,0.28253111723664937,-0.33185967560621765,0.054362185440830525,0.9081285101274723,-0.03271573830998852,-0.09943619218175956,0.0271048939944758,2.640625
0.15306019160124004,-0.9516236933185804,-0.7893867789074807,3.120220985406778,0.20555167375744074,0.4062904040310754,-0.18837681181551827,-1.2969231456873926,-2.7616838162216872,0.27701686615245746,2.102796585089983,0.20515577086336906,-0.09234965755200035,-0.39062241103176515,2.6484375
0.1949681389709282,-1.1878791309675816,-0.9764387513801722,3.8824736806835003,0.2452850131939246,0.5408308934900125,-0.28501546855355375,-1.7058040714366771,-4.023605388629414,0.41133799716536434,3.338592817756129,0.2748375692408502,-0.17087045773524245,-0.5384050072986504,2.65625
-0.031380557032618446,0.33358357006464096,0.33399174434791473,-1.1800130813183274,-0.14586506313875067,0.06786921164446419,-0.2474372570646009,-0.08935762999701247,-2.6504262948159885,0.3183495084259507,3.7446600171954936,0.04567896203090764,-0.31958401187058244,-0.18062227097281444,2.6640625
-0.3137952844281921,2.1240675883131876,1.8369058215859646,-7.080485885539107,-0.5564004903277383,-0.6331928799365079,0.011770427754171336,2.1864339343189623,1.4481753575521135,-0.07479674114786346,1.1499483701578517,-0.30470598743215405,-0.25385462871238107,0.4586616935294251,2.671875
-0.34481462022681214,2.1339517645710218,1.7731292649832147,-7.008012610584246,-0.4671253104895364,-0.9022906227873888,0.408158164329239,2.884667086936621,6.031720334759871,-0.5981737674151775,-4.508637208048785,-0.4548615180820548,0.1889824212241751,0.8630038911612246,2.6796875
-0.050803958546189375,0.04643706680224049,-0.06537002534196244,-0.0024728342138118577,0.12123443904211915,-0.4027108369076879,0.5792838772404774,1.0526686145963384,6.719002110651001,-0.7644590415743712,-8.248756944619597,-0.22394266878251062,0.6426803931649007,0.5979584478441413,2.6875
0.24788581935500306,-1.846594563054062,-1.65411519046194,6.236886655770437,0.5551733896560953,0.3387593514764093,0.30494983254071123,-1.354468670537917,2.382206524380092,-0.3484679802485402,-5.503015311890827,0.146662806181197,0.5728925239719634,-0.07827843479701647,2.6953125
0.18766995551237117,-1.2363997965893136,-1.0537252139871134,4.098660568978011,0.30327984551820564,0.4240081215924734,-0.08949605390092517,-1.417052484989473,-1.7958070195202815,0.15460213150470462,0.5117716510249781,0.2084170683894456,0.054395078941551024,-0.3503058501235572,2.703125
-0.09738652634928083,0.737791605486899,0.6678565890487399,-2.5011476592056194,-0.23135317241326658,-0.11157317394392581,-0.15729482204295847,0.4786494943023509,-1.3595654597279967,0.1877712378661222,2.7057850207132157,-0.045261646448054464,-0.2692579368889685,-0.004202836267038145,2.7109375
-0.14655382491325042,0.9937128243977152,0.8610955786027611,-3.313853642121871,-0.2627244654505145,-0.29067054523025204,-0.0026796358843372927,1.0080666178491058,0.58350110302628,-0.023432980443219797,0.6566867100465493,-0.13945908908363744,-0.128073161031537,0.20644409144833983,2.71875
0.09771811161690612,-0.6563337486728295,-0.5631099846781357,2.1802819490809577,0.16527046832833855,0.21167185632577779,-0.027454036983344005,-0.7175683324447754,-0.7221555248494373,0.05644131799573866,-0.01167986726572995,0.10311413015453298,0.051216279241874586,-0.1654945607474249,2.7265625
0.23506535300370235,-1.513673699256154,-1.2775121652789958,4.9976300983582345,0.35508909597551935,0.5667494245004505,-0.18059309843484078,-1.8573029223598432,-3.0201364447363668,0.28293434959309055,1.6444127039425946,0.28173991044221636,-0.012900584273219157,-0.5010084618497389,2.734375
0.11153822585558709,-0.70257689042413,-0.5857940274408857,2.308392487266465,0.15527008010492066,0.2890273355994166,-0.12271431396369126,-0.9292958322163432,-1.8508086901119396,0.1833397193568909,1.3197772631277471,0.14530390116004271,-0.04994088202516543,-0.271732350005841,2.7421875
0.0021614427827780533,-0.021782869973296325,-0.019173801353642123,0.07126354805746457,0.0054513752808045,0.004349386656935259,0.002858888737189741,-0.017118877826072992,0.019404212511092502,-0.0017121338981211601,-0.051530926485323834,0.001957228161777624,0.005342505938878033,-0.0012583771847242845,2.75
0.029848074429064623,-0.11197304028069652,-0.06201428467732733,0.31998329597965347,-0.01547399486084002,0.16064277954040787,-0.19021222768137386,-0.4445051024286276,-2.265889125248243,0.25572571509383685,2.6522467675888204,0.08722372564045107,-0.19956623899014655,-0.21623665588620122,2.7578125
-0.019816624598277627,0.3380115418188498,0.3675721004799416,-1.2383149485806788,-0.1846394557896471,0.17617325400370965,-0.41053081409928477,-0.3682011574806191,-4.531204773743186,0.5334775150450667,6.077495491290754,0.10632073647944784,-0.5028031109409526,-0.3452747683896658,2.765625
-0.2007922826529091,1.3936275959917281,1.2178308376382672,-4.663450056794174,-0.3814837398588384,-0.3678130532690783,-0.0631009047811465,1.3111282930303176,0.13392639599509532,0.04466539499372654,1.7637423599714224,-0.17328197983839463,-0.24592949520743906,0.22917242943495025,2.7734375
-0.24868034724668067,1.434316641398979,1.150376772529063,-4.648208200920755,-0.26185727219947547,-0.7575259719462615,0.49952087879800683,2.3288450805180845,6.656039738670771,-0.6989206182336586,-6.251745612155722,-0.3901558836645074,0.3793963590291684,0.8086721752244803,2.78125
-0.05587494339177664,0.18474952598448077,0.0914345925017079,-0.5161868706842107,0.03777422928075233,-0.30679422077788865,0.37599000705278157,0.8401375818608872,4.456783992092853,-0.5000706597428494,-5.259102106407491,-0.1671652508869779,0.3977486424265671,0.42070474800950636,2.7890625
0.12817929994429086,-0.7554601744167742,-0.6096142045845068,2.452326735838832,0.14184864283050236,0.3837727257931996,-0.24050545299171186,-1.188297693134978,-3.243637517371903,0.3403364646641893,2.969150597924305,0.19703529564398922,-0.17515344586108528,-0.4024496012240635,2.796875
0.11230952559809176,-0.6189347016625301,-0.48085197291043885,1.981551496441335,0.09266787330660843,0.3816160392266606,-0.29731772800988243,-1.1473342627869978,-3.8150197781996487,0.41131228644664464,3.8652021869950866,0.19899395774817263,-0.25604901144467074,-0.43133967700573483,2.8046875
0.02649197244799465,-0.30131889849736704,-0.3018252710786978,1.0630942609631144,0.13082365366732218,-0.0644169579665489,0.22771047070133751,0.08792171477074956,2.444582240342712,-0.2906047658476267,-3.4401390536527536,-0.04293420352758097,0.292341624750692,0.1682222537610379,2.8125
0.019827013053834233,-0.31107228699463085,-0.3303752281704815,1.1244760385108767,0.15866835103813623,-0.1344138586517368,0.33628018537018506,0.2665749001226668,3.6922375174939077,-0.43353131847867354,-4.995459077677032,-0.0822597956063493,0.4151960308731714,0.2763133818605509,2.8203125
0.008999824762351592,-0.02852846759352285,-0.010851396115890007,0.07247115083964249,-0.01084563755782233,0.05903986333106139,-0.07565062800773971,-0.16001184133416377,-0.8906981504421244,0.10198296652573746,1.0674595953263015,0.03241913819382603,-0.08186786961045284,-0.08239802122145533,2.828125
-0.07534592917313931,0.5657627168420333,0.5107958071684237,-1.9183759854824465,-0.17622437519981604,-0.08896841661867864,-0.1156486777195744,0.37652587299197926,-0.986065256610487,0.1377399226346036,2.006591251996303,-0.03655430072860273,-0.2012891627609025,0.001826844299450612,2.8359375
-0.07705087853901295,0.38172133315038365,0.2809960670484901,-1.1999743148302828,-0.03849670074619048,-0.294017821769092,0.2705203443028833,0.8586080612112946,3.3594142513821144,-0.3665655784778845,-3.626721247364135,-0.15543082179598647,0.2545432588761171,0.3549962895018603,2.84375
0.09123621083645254,-0.7324354497126312,-0.6723352318880252,2.4990471259473166,0.2401185379051942,0.07461255291610894,0.2099498171202811,-0.38320914509343196,1.9719505045277514,-0.25473694118736356,-3.45193888714938,0.024803148102484497,0.3266119352638936,0.05943298196516965,2.8515625
0.19060992121994338,-1.141111093507023,-0.9297626360032097,3.720254492039605,0.22541875557276747,0.5488439365704157,-0.31718069304695895,-1.715113916060514,-4.366757742614203,0.45250946119322155,3.82608219919509,0.28036335058589074,-0.21254273708299437,-0.5613103837004592,2.859375
0.01396480081012218,0.10340336328831166,0.16289737621224837,-0.4521678110722539,-0.12081125401822518,0.23880519329412894,-0.4009474262007114,-0.5912837214698519,-4.563695314563284,0.5273552291534318,5.791857911023095,0.13582909258268724,-0.46238450007576704,-0.38474122702917357,2.8671875
-0.20742172233258713,1.3747151860570805,1.1788342090792743,-4.56822752664701,-0.3474273924569283,-0.44647031321081565,0.062274443506353944,1.5096296651655026,1.571934063149388,-0.12029714383525157,-0.04045546325701871,-0.2177604280499281,-0.10288653041825516,0.3525516561930457,2.875
-0.13400213671266506,0.7926838856288457,0.6454982696167674,-2.5861124628200076,-0.15712051219296652,-0.38394510538526033,0.2240792843176899,1.1974355111994681,3.079931758392565,-0.31703728353105265,-2.7111821650172305,-0.19622714288147755,0.15125505462576205,0.3944908587499225,2.8828125
0.11769761038767008,-0.7492521328898736,-0.6277259853318232,2.4644874559489995,0.1698014114356906,0.2961407172554379,-0.11284580328305371,-0.9599555174849381,-1.7659796303953477,0.17187811482005022,1.1502741918127155,0.14821747982189096,-0.03290966581935716,-0.2715323614167484,2.890625
0.15874879002642694,-0.9531691431019955,-0.777422614283839,3.1071456647384523,0.1892008394558687,0.45554115115174126,-0.2604515468191821,-1.4249561149366943,-3.5983831957961496,0.3725923136046267,3.1334948917356082,0.23253882796899883,-0.17265801656706864,-0.46438518270003565,2.8984375
-0.05101472020282961,0.3511752774912204,0.3070207142983455,-1.1743693128295583,-0.0969252053880683,-0.09191608544315369,-0.016652400737803934,0.32800273339297453,0.023109729952656845,0.013470995642100917,0.4575816060176959,-0.04326501894948202,-0.06314158460578241,0.05703316032134048,2.90625
-0.18941210071725828,1.2421935154670833,1.0603036985020875,-4.119661854456459,-0.308054140191134,-0.42123167210029056,0.08283498623553823,1.4102160655482034,1.7238879588802454,-0.14347374299817486,-0.41097274764505154,-0.20661559213697503,-0.06367151555191064,0.3453948854083024,2.9140625
-0.09796159251910673,0.712371111544031,0.6354982900377345,-2.404841594325298,-0.21161946856785777,-0.14205139154639523,-0.10114560764550061,0.5514988364739548,-0.7273896216088883,0.11437588930255033,1.8906114094800988,-0.06278317070829208,-0.20351286076539118,0.04751188283416061,2.921875
0.07000584082473824,-0.42779394751124855,-0.35057040133428835,1.3955868207582118,0.0866866995021677,0.19754324090347225,-0.10692085663879985,-0.6217182900736704,-1.4987847679290882,0.15460026797431742,1.264867273156204,0.10057278583808098,-0.06680203636595067,-0.19802580723615473,2.9296875
0.16308107907257968,-1.1959065401243898,-1.0645713596892794,4.030539723596954,0.3505362637788324,0.24473526981018606,0.15991811385891172,-0.9429386453836587,1.108228825717079,-0.1756016745210823,-3.027313502183138,0.10910960995597503,0.3287983374574258,-0.08878622392194921,2.9375
0.16123060118348564,-1.2375650314989883,-1.1200666935454422,4.197917024492224,0.3862115282937897,0.18510599523936988,0.2668272802452847,-0.799743563673736,2.318153566181664,-0.31555999521266775,-4.5818493568203,0.07485272065117753,0.453830364357922,0.011039897232850537,2.9453125
0.06876062656450531,-0.5334431984974793,-0.48279893529687723,1.8075401858997155,0.16639378212877345,0.0776038993991789,0.11779129222963171,-0.3393807910922284,1.033042092583716,-0.1390009520305406,-2.0145519038686097,0.03110603199304291,0.19835186212572226,0.007959056883000437,2.953125
-0.06362939129036634,0.3757829211683605,0.30752241311062567,-1.22938077116456,-0.07642962246235502,-0.17887785591490318,0.10120467536244711,0.5591793576805753,1.4029559781064862,-0.14300397158718425,-1.2134214044240559,-0.0912320138798326,0.06568603306032225,0.18219336597834176,2.9609375
-0.11768115599180079,0.6439109042650718,0.5031335400759883,-2.068717649506483,-0.10076898202805334,-0.3903871182606564,0.29905531887597925,1.1753142861627286,3.852449301814113,-0.41170342290712025,-3.8747330024286843,-0.20325653341144853,0.25385702568114654,0.4391568602797113,2.96875
-0.08495770877484725,0.43006808164159543,0.32075167084273637,-1.3595452559421168,-0.04828804054970349,-0.3158982195954404,0.2819338743839935,0.9275303580315153,3.5223508164211834,-0.3830264740268151,-3.761261957479784,-0.16652330723557007,0.26151126402370173,0.3767978077293945,2.9765625
-0.0913464649071613,0.6987013028156828,0.6345384522557608,-2.3751095430059848,-0.22198952842818132,-0.09643588662685515,-0.1628881081754633,0.43017740255644493,-1.4480000235198656,0.19628602580326857,2.7642293548443115,-0.0376420275000769,-0.27070907184577336,-0.018054432550666674,2.984375
-0.13428494281693082,1.2187533397440544,1.1669776312993012,-4.229074375846255,-0.46293640561041605,0.05208894187208112,-0.6120460953739209,0.18099084929924894,-6.313590290148382,0.7742203610073168,9.505596263749696,0.05732154366738997,-0.8392324053771214,-0.3645282352637026,2.9921875
-0.06311171958518896,0.6863135855298065,0.6886528834012016,-2.4268715691195952,-0.3009269903509182,0.1445533670017665,-0.516133947416015,-0.19635301036341407,-5.535922077744764,0.6629582105780949,7.80335479689825,0.09663736333457414,-0.6648606221140004,-0.3791656079624986,3.0
0.09636914876882337,-0.6946052871917879,-0.6133471550179718,2.3337994890863873,0.1970951273578804,0.15959841378290884,0.06688293315942975,-0.5932176416597581,0.3428243985101994,-0.06693565106600838,-1.384969734920744,0.07314537373779217,0.16170554367932202,-0.07780525990603365,3.0078125
0.13292933217207606,-1.1303268963380517,-1.05793838934882,3.885060471210639,0.396969343583127,0.04084866675115599,0.4347652471236728,-0.3989661189968862,4.322190476700979,-0.5400032008325666,-6.911615747990425,-0.0032874864566426573,0.6285886025589118,0.20391689218884626,3.015625
0.0399487029733599,-0.32208292940078387,-0.29518074316204523,1.098407996481429,0.10445832569727691,0.035298046279122336,0.08886527132256236,-0.1750570994504367,0.8274656400828359,-0.10664578490222923,-1.4673329211769441,0.012231941123259144,0.1396541274009105,0.02273885969074752,3.0234375
0.04281898125281646,-0.04417820186561283,0.05255363711384155,0.01495756518749017,-0.10444453948872551,0.34686744819458887,-0.4969696317306629,-0.908495681413857,-5.766501275394333,0.6585442087170766,7.075654367530972,0.1927508825978469,-0.5516575854132644,-0.5133369135684525,3.03125
0.1581443513622106,-0.8569434466097864,-0.6608571536788344,2.737776536932155,0.12177313312994138,0.5489489620778425,-0.4419169371408847,-1.6415143583108243,-5.633258699613013,0.6090812252201584,5.783348680604488,0.28696703040972416,-0.3881796493511876,-0.6282005176932965,3.0390625
0.12437867963305853,-0.9623505116112032,-0.8726853184769334,3.2646502525410463,0.30258755954018224,0.13630641793118323,0.21860410463425806,-0.6022363404892207,1.930276421080256,-0.2597342227634024,-3.7223922045600246,0.05400976395206601,0.3650073703317224,0.020001584950111336,3.046875
-0.11369870689943878,0.4865350062933668,0.3198487222882504,-1.4755136877689532,0.0002518929940071952,-0.5168449100831184,0.5562247325078632,1.4614084444530286,6.725795862029403,-0.7468315176411873,-7.648427776282242,-0.27748548672820006,0.5615908421887786,0.6671070387566648,3.0546875
-0.24327424221902788,1.5385963810920495,1.2919635057619179,-5.073086732065375,-0.35401814322773767,-0.6007682321293555,0.22006383586014439,1.9509977927037359,3.494140143899918,-0.3332496661029103,-2.190076022267086,-0.30007147766325937,0.05304900095013165,0.5470570465058411,3.0625
-0.07472326014694941,0.5468419567527455,0.48950652859989674,-1.8494511852969004,-0.16461089460030354,-0.10280424661374403,-0.08693243899515614,0.4071221742824021,-0.6646358885399711,0.10036305991667169,1.5836052409540518,-0.04471344917590585,-0.16654681199396063,0.027134142370684698,3.0703125
0.13839897331613446,-1.0099399025937994,-0.8964315034656128,3.3967787069597883,0.2928996049460773,0.21459078792191294,0.12267715159852156,-0.8165668554037417,0.7935341725753157,-0.13168690119742826,-2.3780221928392207,0.09666425971528006,0.2635197158619788,-0.08725823247048967,3.078125
0.08894122986033191,-0.8029234934199435,-0.7638946302281844,2.775698709268076,0.2976622255800057,-0.018100759928065795,0.3785115709416249,-0.16167102849513942,3.875967485384151,-0.47522662344382854,-5.906742097918478,-0.028607788441429926,0.5242025860568879,0.215869455169822,3.0859375
-0.11580246141780255,0.6946509185660982,0.5700187762512883,-2.271150214806176,-0.14343138425764848,-0.3209198668622932,0.17323083058284788,1.0089014733742732,2.4306498729112285,-0.2470971044282041,-2.043348571716571,-0.16324295220604018,0.10643988930246089,0.3221681627364849,3.09375
-0.14073642812703938,1.0726606869542614,0.9720228391251287,-3.639537419444082,-0.3377173279771662,-0.15643068530228948,-0.23709706945583417,0.6817023104948947,-2.074755284525762,0.2836843933468995,4.056672130855669,-0.06263503596910074,-0.4005563172668239,-0.014946993617027891,3.1015625
0.05473457952502572,-0.1905783764993528,-0.09782284436342134,0.5389387247450235,-0.03599479429305971,0.3035501742538458,-0.3680831551636086,-0.8345258374241541,-4.368224471093482,0.49270081084270745,5.145032405221376,0.1651582279912824,-0.3886992996870531,-0.4134281899645143,3.109375
0.16651707661643653,-1.028632047456207,-0.8512709796809059,3.37387479802222,0.21972522836051475,0.44734928510359084,-0.21493690659373557,-1.423409498241123,-3.1173100738779915,0.3144992354825852,2.435435737961903,0.22616395939163428,-0.11201176625520094,-0.4340708971255191,3.1171875
0.009259095043023252,-0.024480793717688548,-0.005429346183947101,0.05795859133350847,-0.014235964891462621,0.06467081347812395,-0.08567515959482476,-0.17402207205002362,-1.0036332457608157,0.11508198279086113,1.2101551680684643,0.03563369072777247,-0.09341846285754805,-0.09170064263488259,3.125
-0.21802522950641295,1.5338444982131054,1.348117639199116,-5.146722975275903,-0.4293552380713345,-0.377976088878411,-0.10999871345604582,1.3741601651973445,-0.3210835086186066,0.10251799611202968,2.523753311547511,-0.17562660289760362,-0.3164347746800073,0.2112587874843071,3.1328125
-0.22408720286306116,1.5996589638786192,1.4139431218335383,-5.379668283760843,-0.45788011636981796,-0.3646422085163785,-0.1586710775427142,1.3569737032308848,-0.8424680852236377,0.16487394206067402,3.25967163554687,-0.16670026986677045,-0.37924210862156005,0.17571316266826634,3.140625
-0.010384833589561627,0.11377371616503167,0.11604030432052923,-0.40723479444920885,-0.052781610017563166,0.030513760716466966,-0.09538487485540835,-0.04949880556616019,-1.0309294737438697,0.12398552016706436,1.4339769352016594,0.019667024953607226,-0.12172675211210655,-0.07248392737086466,3.1484375
0.18573514767036958,-1.295163157703789,-1.130602444902303,4.331736938272681,0.3515202816566316,0.3464200480918483,0.05211372547336316,-1.2314625536938937,-0.1997499179555659,-0.0302402170404165,-1.546837392177542,0.16359677024983113,0.2204591475273058,-0.2190852784186434,3.15625
0.23993275464828553,-1.7306563052896968,-1.5316448452947546,5.820041304808693,0.49637959260125997,0.386165686169347,0.18380620638827455,-1.4473747531957188,1.0518761861842199,-0.1916155802840269,-3.698705783508076,0.17579227395197716,0.42268230937937534,-0.1770076810643966,3.1640625
0.2362742902396482,-1.746494624944801,-1.5598378528952352,5.893820896566464,0.5190654417994155,0.33699714842111855,0.2637699534351067,-1.3245139425148715,1.9671647002575634,-0.2968529489401628,-4.852064321272463,0.14799293165746255,0.5142843205593567,-0.09909326622094174,3.171875
0.20654299313712676,-1.5399145375686476,-1.3791816935878651,5.201747418565808,0.4627460719449193,0.2820674816755051,0.25490647464040866,-1.128947136012173,1.9939108166693997,-0.2911419816232825,-4.597864140484413,0.12205333205696782,0.478485763915434,-0.0645850027044643,3.1796875
0.03002469566058536,-0.25653809819843826,-0.2385018596248273,0.878926604949469,0.087850798943075,0.013360739046851788,0.09243190340638101,-0.10166688417583321,0.9108441030555968,-0.11336038696506501,-1.4793073776112657,0.001542070797222724,0.13537353264738747,0.040293129820205754,3.1875
-0.25949101905033656,1.8177286796789003,1.5945115248727326,-6.09282364020582,-0.5048967904395699,-0.4589966028120563,-0.11358667710301361,1.6570803690888314,-0.18653768255246492,0.09923785097573741,2.752769415489951,-0.21442606563655456,-0.3558896372881504,0.2672223360949628,3.1953125
-0.35273435045189605,2.4526489744467006,2.1442593643915897,-8.212004295103084,-0.671945903539583,-0.6449536037746355,-0.11519957515729,2.302543142461873,0.18771676468834406,0.08310337895739713,3.1698486508429853,-0.30359699486932196,-0.4374736177288936,0.3990914121421288,3.203125
-0.12909206607058143,0.8380681588267995,0.7132723070659921,-2.7807748549165754,-0.20520097384660055,-0.2924671975063721,0.06764338028120816,0.9730170037385163,1.301440599314738,-0.1121128230501365,-0.44611944352979827,-0.143927831925318,-0.029978026324519097,0.24529813843099094,3.2109375
0.05872995320745162,-0.4697012754274249,-0.42968899634543545,1.5976064541423804,0.1522122695724646,0.05247983113782979,0.1274681741796938,-0.25779396112299174,1.1827323310691282,-0.15355074135838012,-2.113465277876193,0.018568519358861245,0.20120056705275724,0.031058425880281855,3.21875
-0.059985995033500245,0.42353783466306283,0.37379657441049513,-1.4217289149545222,-0.1213110179501023,-0.09821766476009502,-0.03933534847144605,0.3629737889804567,-0.19315232522633588,0.04128674440320909,0.8253829576656985,-0.04504990162107032,-0.09775197266726668,0.04938485431224932,3.2265625
-0.18617478796612408,1.3769442209329223,1.2330085673625342,-4.648957651550629,-0.41503683275438075,-0.2534729631648539,-0.22577446791875644,1.0113763074235902,-1.7573679824156792,0.2602155029970609,4.083167917168776,-0.10984341049138006,-0.42614089204515143,0.0604505272822266,3.234375
0.009045218393710542,0.07554558739417477,0.11654865888056956,-0.3257775792090819,-0.08556153327030507,0.166154925756183,-0.2801339161223267,-0.4103455983130165,-3.1888335339605773,0.3691158940186393,4.0533581587345,0.09450759568247587,-0.32356935367767137,-0.2682465258445096,3.2421875
