AF3,AF4,F3,F4,F7,F8,FC5,FC6,O1,O2,P7,P8,T7,T8,time
0.05195229706399386,-0.4750844656361699,-0.4528476626038754,1.6434677232946506,0.17707216127763872,-0.013819607869322936,0.22877991578952028,-0.08766931246158909,2.348640454100915,-0.28697084553660057,-3.5620870819252564,-0.018680580112132614,0.3154543302130078,0.13265127312428449,0.0
0.021222916379224386,-0.37374208166385964,-0.40339910411429236,1.3599845151437497,0.19943185822032197,-0.18620610368723348,0.440680341314961,0.3839306555852719,4.859279969778338,-0.5696813497605245,-6.529205463892922,-0.11256818181624251,0.5400337823624854,0.3691049508626784,0.0078125
0.021282849513184827,-0.26571888972534286,-0.27059693554210573,0.9421150984835421,0.12126476075152938,-0.07426459533350734,0.22645068455919928,0.1224597597186581,2.453050746730362,-0.2901551334997526,-3.4017976132525183,-0.04751208775619808,0.2864408503205203,0.17448988169621632,0.015625
-0.03626284599533881,0.21738456464748038,0.18016228520891228,-0.7147989552159361,-0.04739630960432299,-0.09536602007716552,0.0463920220883507,0.3023097703072122,0.6717655801463285,-0.06619949187329652,-0.5277489318628935,-0.04822897932912178,0.024189357497487744,0.09322360371208234,0.0234375
-0.08971586842919253,0.5349066219431077,0.4377881213173839,-1.7472140988149027,-0.10935026592108917,-0.25051376817770193,0.1385535634674674,0.7857568547204979,1.9311653614601614,-0.1967254267389637,-1.646281549459647,-0.1276260210413305,0.08764340103179491,0.2533832471386926,0.03125
-0.11090169392335361,0.70477102106153,0.5939583670206107,-2.3278334710909374,-0.16545420230001648,-0.267073260063527,0.08864343989854166,0.872599833868386,1.459725418534203,-0.1357826201447009,-0.8279274504206328,-0.13287836273375495,0.010279950206498871,0.23847897773582266,0.0390625
-0.13055844221929142,1.0370733367767409,0.953328538180132,-3.541519258660429,-0.3434477560226684,-0.1022239557685295,-0.30269791512454863,0.5325748943992086,-2.8535018246412007,0.3710229495074714,4.96982267785805,-0.033032509455494,-0.46995822843301,-0.08873789022101351,0.046875
-0.09617521979392372,0.930542779296367,0.9069344598163621,-3.2521010938028265,-0.3737249068321705,0.09808970196078533,-0.5541122985288893,-0.012755613442860485,-5.822675616118346,0.7059273337255312,8.496966675613683,0.07636506907526641,-0.7381519426829817,-0.36633168547198725,0.0546875
0.011711392879756737,0.09203468680117921,0.14309007459359863,-0.39928820776031015,-0.10568768523235343,0.20700900305036468,-0.34844722443207427,-0.5114313076786394,-3.966499133007381,0.45865807351177906,5.038653046871944,0.1177772367044144,-0.40239348868525227,-0.3339892631989541,0.0625
0.06056694839129627,-0.3746432773372559,-0.30941526725779883,1.227188763382783,0.07831926931831966,0.16665021225161963,-0.08379869360537885,-0.5279923215815273,-1.1993787260733388,0.1227701213783356,0.9672466360582845,0.08448665523521713,-0.04739926550234053,-0.16353742653076953,0.0703125
0.022062343282466985,-0.09284072558351643,-0.058068470774959746,0.2756942759159117,-0.004835082773365255,0.1097500127982422,-0.12278318097091614,-0.30810670363569514,-1.475786255639863,0.1661015919493768,1.698802991169993,0.05926702015243083,-0.12650163750457769,-0.14381121516855933,0.078125
0.06495660361643642,-0.362515874541829,-0.2831323317439206,1.1631100834615502,0.055642097217398476,0.21868935161982614,-0.16680147138605866,-0.6598864265115237,-2.1505899655672134,0.23192415006107606,2.1604053389012634,0.11386033266172864,-0.1418305398685991,-0.24512088785123753,0.0859375
0.16185279197875,-1.1692036662890066,-1.034364761412354,3.931397963578406,0.33471053021371033,0.26152278863466083,0.12315201943973901,-0.979718301990897,0.7000575973772734,-0.12762982652535318,-2.4839794463591915,0.11906254875501962,0.28443141569987546,-0.12043347711947046,0.09375
0.05081791039740424,-0.5764720656907496,-0.5799626534892214,2.0408450501889943,0.25340816373830033,-0.1283452908259483,0.4439465366688598,0.18179143521885596,4.771364949326158,-0.5679768880934397,-6.700926587260774,-0.08509713613861798,0.5694354828696911,0.329644316846431,0.1015625
-0.20454166653097902,1.201338647966096,0.973391519608661,-3.9090567579670243,-0.23182996897247526,-0.5987771356740473,0.36516831126083077,1.8586193766401862,4.959658334405913,-0.5148779249945004,-4.471486514011152,-0.306820837022818,0.257946868548017,0.6233024101893202,0.109375
-0.20568787791602688,1.339003408515358,1.139314807925608,-4.437214323173429,-0.32720993040511304,-0.46764865779251213,0.10951922114712521,1.5553277475944431,2.0917235360800923,-0.1814127787079042,-0.7317201277388059,-0.23032516355539737,-0.04579950764887652,0.3928024184067482,0.1171875
0.060911325852878846,-0.5045525733470029,-0.4670173283043474,1.725158910504185,0.1704819506858294,0.03616426862516774,0.1672417457105474,-0.22481894538250802,1.619640115619404,-0.20492855435303245,-2.701443190503135,0.008603189457195386,0.25023539420833263,0.06400666240233226,0.125
0.16692563799309976,-1.3448188195814879,-1.2368475141977182,4.589133071253413,0.4452904586116897,0.12634687460694952,0.40099611097193555,-0.675810832449765,3.8014773742980204,-0.4895292721471453,-6.566132748702886,0.03958496683782218,0.617536863399037,0.12477661929218847,0.1328125
0.013421009133326948,-0.2237896792551143,-0.23863474732660797,0.8099272888278033,0.11567096343425531,-0.10242505855486692,0.25005924796942386,0.2060880944107999,2.752235533972555,-0.3224592381097265,-3.714965008789689,-0.0623372233580201,0.30765421644855306,0.20733283564915597,0.140625
-0.044596617329271185,0.4427971928256917,0.4359342190915286,-1.556233371765107,-0.1834448565842536,0.060941636939237064,-0.28533324891288675,-0.04312468011403382,-3.0190357676326602,0.36509443056983953,4.351396549281449,0.04434712985525976,-0.37590528177112287,-0.19590601477560762,0.1484375
0.11003706728602165,-0.4555890483382434,-0.2871536589450796,1.3602972512960265,-0.01726367970087018,0.5287690689810298,-0.5878550107345923,-1.484956739023203,-7.068667044630133,0.7900719075590985,8.11924026782837,0.2849859803910207,-0.6020530957783468,-0.691868236198807,0.15625
0.20325240935604022,-1.1978392121451813,-0.9690073091308754,3.89530433275649,0.22732792871755203,0.6040826355910179,-0.37437354259791106,-1.87219989877962,-5.062276286520695,0.5295523824195212,4.607749784363969,0.30990436550871947,-0.2695800725357537,-0.631350102132914,0.1640625
0.09358800311151243,-0.6159215172426693,-0.5241201666871501,2.042322841952484,0.14932817070279691,0.21527495113913792,-0.050522783574986505,-0.7167661893627714,-0.9626484748053817,0.08553043605616538,0.339786578373098,0.10609206813161544,0.020306506623420213,-0.18037761822050433,0.171875
-0.08284181946440856,0.568558806576115,0.4960177606094917,-1.9012390040122882,-0.15494619919989927,-0.15411313227254134,-0.019912914066156317,0.5450828874011244,0.12244230211999742,0.011322200826024921,0.6381255860599199,-0.07293217687779305,-0.09413957476378412,0.09971560072831634,0.1796875
-0.1983965425325025,1.4322243096842548,1.271769882096738,-4.824427310030119,-0.4174718724890836,-0.30509563694588815,-0.17373615535757478,1.1596287082969312,-1.1209856905184454,0.18969727559042682,3.374853709228573,-0.13734062038639946,-0.3749728790828586,0.1251013381977912,0.1875
-0.21722713263429916,1.5629922048663867,1.3859245618299543,-5.262157379115384,-0.4530262583689775,-0.33967293419584293,-0.1793660162795925,1.283053014080428,-1.1057163875760878,0.19346449367444513,3.538521610438673,-0.15366102999107598,-0.3976062172464343,0.14671876883092083,0.1953125
-0.15592590780843502,1.0165873079442649,0.8662946685477401,-3.370949838608472,-0.25018167092183885,-0.3504421604613447,0.07641356871274735,1.1689256646804143,1.5099199446143474,-0.12837713698471323,-0.45608737072715994,-0.17231109474218068,-0.042307871531855744,0.29132838666532274,0.203125
-0.0977027744894381,0.46689043897403254,0.33491129464126124,-1.4559731450183155,-0.035305233396201154,-0.3929044501522802,0.3806398974330725,1.135852364195982,4.682824469852398,-0.5141257711992899,-5.147480745859475,-0.20871310802741458,0.3674826631673753,0.4845459452077622,0.2109375
-0.05547395581236815,0.1750200792972273,0.0803375998455932,-0.47981700921759135,0.04359689657647236,-0.3136023354392097,0.39033711045844155,0.8552714774560627,4.614724112450532,-0.5186853630552001,-5.47027749752342,-0.17113107837469776,0.41477817837373376,0.4331808779964391,0.21875
0.08407745679336046,-0.5977400391472076,-0.5248832311611755,2.0029626186967273,0.16564552426182125,0.14834410203000506,0.04096016483801452,-0.5387401630120172,0.10429069318623854,-0.035654269295981554,-0.9577505196226089,0.06910706782400605,0.12025402021862519,-0.08361008893336985,0.2265625
0.26895172247983323,-1.7004038279903275,-1.4232058118488482,5.596204651112737,0.38410603186722625,0.6792762025172,-0.2664307162414106,-2.1967027705510342,-4.125557192687711,0.40152132200143914,2.7525764237351282,0.34027268852094095,-0.08565445304030873,-0.6272261273914812,0.234375
0.2427890062658101,-1.5756857745086739,-1.3343648940889286,5.20796614041821,0.37571967510363535,0.5719659977874203,-0.16122709141058172,-1.887148998177304,-2.8342155993743434,0.259188873725244,1.3276987608743578,0.28321045727817235,0.0166278601944525,-0.49432791030652407,0.2421875
0.01754854916425346,-0.1961435943622262,-0.1953640517712226,0.6901527613313065,0.08344445329157965,-0.03745885612751694,0.14170127441193198,0.045342920413516265,1.5155139933073725,-0.18002528766346407,-2.1465713412197784,-0.025424584529863667,0.18286426240166095,0.10293266543910469,0.25
-0.06683747619624991,0.3492413906193333,0.26643895887308655,-1.1115101700733414,-0.04668280111297632,-0.2362761712579592,0.198739724603055,0.7004681231603459,2.5116890670735557,-0.2709508068365976,-2.624435138246219,-0.12394907090548343,0.17836005155982215,0.2754515137390804,0.2578125
0.06557799324773063,-0.48210454274008235,-0.42811343054933354,1.6246404600328965,0.13972129116203214,0.101298078105179,0.06050136784013775,-0.3874629714832505,0.40234514475947986,-0.06473418186871839,-1.1633142956715146,0.04541998941731902,0.1279659999973949,-0.03953957050541311,0.265625
0.11016090333579069,-0.8040757234071975,-0.7137602029647097,2.708288258406343,0.23286347292611373,0.17181260819198574,0.09674813430778319,-0.6531120240061591,0.6215194071511609,-0.10330343766362596,-1.879069067447957,0.07739089399306409,0.20910926580535363,-0.07050617261997918,0.2734375
-0.03607266876376471,0.10633165612907361,0.04379569960246393,-0.2835918829689023,0.03258140437356589,-0.2085132838861752,0.26401675153164855,0.5658135231273037,3.1153025749899705,-0.3501388314982989,-3.705205581384649,-0.11401649391495697,0.28223368551704653,0.29052994600469695,0.28125
-0.14623700063042447,0.9094205511801207,0.7586252040587186,-2.991778469439431,-0.2028740652265115,-0.3743292600511869,0.1586091038581755,1.2025422207087193,2.395178733623157,-0.2341518967160658,-1.7027511922558136,-0.1880448083525055,0.06318104026038437,0.35245868520102624,0.2890625
-0.14016629364346347,1.0754098857549863,0.9772154643098028,-3.6559959439838825,-0.34152523161030895,-0.14845506785235052,-0.250796248212999,0.6620067934178087,-2.2294355580755956,0.3013606467092093,4.250691985602862,-0.057984680647014536,-0.416562390456546,-0.02799868347898038,0.296875
-0.13475880098290585,1.1686300067836084,1.104385791057021,-4.0346382561052625,-0.4255950134837294,-0.0034424452073187057,-0.5075499031469916,0.31172781502215524,-5.137817659821096,0.6376677145161045,7.979665636070137,0.025167814950532164,-0.7160717138981961,-0.2690030488864348,0.3046875
-0.10050479167941484,0.858560162635533,0.807835846472157,-2.9592245018005143,-0.3088538234703537,-0.014085064245174595,-0.3555907974269708,0.259032861454568,-3.575635445483424,0.4460765553375961,5.616938897096187,0.012029616420687487,-0.5069139241046219,-0.18004808637076536,0.3125
0.022508084152254026,-0.11152417172827722,-0.07959737723693654,0.344646453256855,0.0068071594599212375,0.09529084265142848,-0.09328695862259467,-0.2752353182161637,-1.1453037993099056,0.12755873030505438,1.2658103034857489,0.05072735825606435,-0.09123066650751246,-0.1176807008568039,0.3203125
0.05498548955061279,-0.34597402387239945,-0.2867943645435321,1.1322531734713646,0.0743909060750684,0.1464753459793658,-0.06692042975108452,-0.4685354323828847,-0.9845600716713061,0.09936453217935423,0.742424152452831,0.07391176598741589,-0.032231969098663285,-0.1400866687320247,0.328125
-0.10153342387196655,0.758435026783736,0.6835032129858966,-2.5703415610355327,-0.2336359160072572,-0.12680546347609237,-0.1439431066706658,0.5239132611619861,-1.1923321308763561,0.169530465759929,2.5287169979203163,-0.05328308349396051,-0.2570734351256592,0.013781357648221498,0.3359375
-0.1473560193113054,0.9906190185728754,0.8551774848601128,-3.3005651553341218,-0.2577417256341056,-0.3011419661091687,0.014365700856779313,1.0346825033173352,0.7769999483082782,-0.0457708255909288,0.4122568896638706,-0.14535307733038547,-0.10871683684171282,0.22299059665034549,0.34375
0.1371889799443417,-1.1125643271170982,-1.0262011322546325,3.8016911301503167,0.3714623835756478,0.09655405645106192,0.3443815986280117,-0.5383653811249761,3.287184622730268,-0.4209728251382139,-5.60747863785985,0.028246627681010102,0.5251017477861979,0.11575144419529447,0.3515625
0.40365525910034133,-2.9764588566216945,-2.65787624400094,10.043898784709109,0.8841724412744667,0.5781578276454168,0.44415880935515545,-2.2664417510199715,3.2885778623760036,-0.49939087938790133,-8.190971147585596,0.254252871725127,0.8708795663218218,-0.17462277901339582,0.359375
0.23915923843707657,-1.738411014578181,-1.5429667098393005,5.853698817331848,0.5044577146010125,0.3709143735293477,0.2099294147199768,-1.4102371660186748,1.3500300790113808,-0.22582978847740487,-4.078428009372567,0.16703420841547462,0.45315517741754235,-0.15201511082375951,0.3671875
-0.12057190181620316,0.8283993950257442,0.7219522077651169,-2.767296172675016,-0.22420651200138556,-0.2272706572946349,-0.02442193727445587,0.8009938454946383,0.22999116881606738,0.009971173584861655,0.8617312093693951,-0.1078916162305702,-0.1314860575765773,0.14958873338744577,0.375
-0.14566282427405525,1.0026053570746394,0.8738822511332157,-3.350694072848244,-0.27165842427388176,-0.27356909272966046,-0.031913300866970126,0.9660562885511631,0.25119149163264487,0.014861483412733287,1.0779394062673129,-0.12969938476053205,-0.16182970751761752,0.17857832261950363,0.3828125
0.12011662267893713,-0.8554164679865373,-0.7520684221601951,2.8684680640350386,0.23859015749365167,0.20888906379508737,0.06373694219438622,-0.7621168355398537,0.20901716021629696,-0.058346770373948115,-1.441029844656031,0.0969731057661734,0.178342190446709,-0.1147107474083444,0.390625
0.16289840394555424,-1.1759022837315203,-1.0395589533698146,3.9502317491061376,0.3358875710955843,0.2649294508412115,0.12043579101443484,-0.9899090973924562,0.6671627207570271,-0.12419472511164883,-2.4515251687987214,0.1208994384106167,0.2819976889847311,-0.12437148812762464,0.3984375
-0.11765144295458776,0.7467796871357796,0.6297138635067142,-2.4684642357694933,-0.1752081133070569,-0.2835682632203285,0.09437147084575702,0.9260346775342169,1.553903455800442,-0.14485400123259334,-0.8870067535577348,-0.1410953860259939,0.011429458501472282,0.25327604423331923,0.40625
-0.2861715089664358,2.0017660123302288,1.7545696079839923,-6.7093613163797405,-0.5541194137761004,-0.5103205287235213,-0.11806787075007404,1.8375852755054858,-0.12478358885963114,0.09968266719936765,2.9294624972388874,-0.23872828280105196,-0.38428185086787103,0.30141501542553617,0.4140625
-0.14737945333224142,1.2215353767242956,1.1380728206337547,-4.193970015132481,-0.4243516002538133,-0.06287291875485258,-0.44239745992087387,0.4792940172503124,-4.35171777487277,0.5500661191544884,7.082415067758301,-0.00676448903560519,-0.64986590648925,-0.1916763735055699,0.421875
0.003541334790595555,0.18963573733160208,0.24323692929343727,-0.750494677988186,-0.15110323125955252,0.23491684514294547,-0.4333130770337155,-0.5577822083596967,-4.883667776496327,0.5675924548750642,6.311792135462166,0.13567045506096245,-0.5099818487620821,-0.39938296121373523,0.4296875
-0.02470322678224547,0.13309171054224678,0.10474823615465481,-0.429600176382057,-0.02221049666103067,-0.07825540996313099,0.05825209181997032,0.23651876557806586,0.7565338189914387,-0.07941956338045196,-0.7492422834117646,-0.040679433428772234,0.04815615509611363,0.08738852211243374,0.4375
-0.07779958606218451,0.33383678560167507,0.22047612705983138,-1.0127182688535814,-0.0012960440245863274,-0.35078506869899806,0.37624916078104476,0.9925515167620115,4.5502585617620195,-0.5046433154438507,-5.1674249431297525,-0.18825110172068873,0.379225028493851,0.45215562660100045,0.4453125
-0.06646092608961822,0.4538292251650933,0.39529703516149334,-1.51652489014565,-0.12312476432701615,-0.12504613520741362,-0.01268869989762501,0.440343384368215,0.1323619481345635,0.005316742694990415,0.4679714078652561,-0.059289908902500285,-0.07179557302548602,0.08272260987064288,0.453125
-0.06892235216155161,0.7292154268016909,0.7269325158046053,-2.571759886763782,-0.3138025229145804,0.13673024658665617,-0.5232505572644961,-0.1646685783052904,-5.5922818039972775,0.6712154358540999,7.934711361469183,0.09327965770144814,-0.6783303973374208,-0.3774613403686108,0.4609375
-0.033259277878062335,0.3739854382994354,0.37883453110897114,-1.3279829786346307,-0.16869972258228177,0.09192173789220763,-0.3005650416659107,-0.14122018081599313,-3.239921225277052,0.3874422749508503,4.528487815143147,0.05995589009752807,-0.3839755026286191,-0.2261604548299335,0.46875
0.13275258909795065,-1.102155650133528,-1.0238092911661623,3.776714951404726,0.37768537314169714,0.06711959655197887,0.3834600260604346,-0.4602269264600721,3.7463462989485286,-0.4730957106123643,-6.165273798981359,0.012012107450183588,0.5677716544807828,0.1577812964286408,0.4765625
0.2784862588113074,-2.202591216667373,-2.015307780285308,7.5022924224899645,0.7161463078570754,0.24736518702171342,0.5970811587209681,-1.2114114653518768,5.5336024308683305,-0.7235934543877007,-9.900996831229044,0.08735779054664426,0.9450998895002385,0.1434312274484648,0.484375
0.23175536015084336,-1.6961100538935743,-1.508702173172757,5.712959947837227,0.49647790902653827,0.3486929940265499,0.22390258117411743,-1.3416949389383812,1.53864384580142,-0.24565113568652272,-4.252972593115611,0.1556738481704539,0.4633261750074607,-0.1287162834652725,0.4921875
0.1050844527123224,-0.6890611599610076,-0.5847353394056318,2.2786140856523933,0.16555548393604919,0.24467685306424936,-0.06260475877541667,-0.8115206759519555,-1.1467894725827894,0.10360415986019565,0.46682851207186354,0.1207950049123627,0.01591476431132339,-0.20784100419555362,0.5
0.06455991231052227,-0.4441892845893712,-0.38410469075558634,1.4792969852733577,0.1155510313658698,0.13146541449573004,-0.001229184841298079,-0.45530937544560574,-0.28711453750349053,0.015574134762178584,-0.2574333486619711,0.0632139570980892,0.05387918862234142,-0.09418355547703179,0.5078125
0.06995324679358193,-0.5104967277437796,-0.4523920176291453,1.7171274389786848,0.14664936561893716,0.11156292588656526,0.05755230514497134,-0.42092105678378716,0.35004419199025266,-0.06007982265654962,-1.1370982987392741,0.05059769396501387,0.12794271302432395,-0.04855281047591886,0.515625
0.043141058935656076,-0.27633952485511903,-0.2313750541873752,0.9103365955117501,0.06159592522373902,0.11099489288604772,-0.044151742220288,-0.3585778617619875,-0.6801621900837139,0.06751461234876964,0.4630124595725919,0.0557026107937512,-0.015471156218948203,-0.10262637200257628,0.5234375
-0.023686045375632982,0.21030468280656653,0.20116201822644708,-0.7286666058564014,-0.08077417749704961,0.009954954457987115,-0.10694480659146052,0.02880561868033127,-1.1048530451199587,0.1365009521802768,1.6628973210291456,0.01049408434594195,-0.14691872336138778,-0.06411735345252915,0.53125
-0.1746322713296505,1.2262746660513826,1.0768276419329277,-4.111664428134204,-0.3426844746946549,-0.30370938492173,-0.08525143417627891,1.1027947943895728,-0.22639547698772705,0.07878694532340413,1.9826368242374675,-0.14129692546136588,-0.25006762348354944,0.17143959921913637,0.5390625
-0.37593710690708027,2.6115538465846253,2.2820569585734476,-8.740877611740197,-0.7138983473344646,-0.6907509441313209,-0.11621029811235137,2.462034484972991,0.2727922109619888,0.08001682457798392,3.2827434126750736,-0.3255894218437508,-0.4584620966475735,0.43122981718059167,0.546875
-0.40936117604523314,2.863228826269538,2.5089186913077595,-9.593856789280307,-0.7911717324777043,-0.7328325949805943,-0.16391535620879427,2.6357614288959526,-0.12192637041701192,0.13581220931244314,4.118394775173875,-0.34332942582295534,-0.5433407436060926,0.43579641519327805,0.5546875
-0.19079569923735448,1.3482856480848018,1.1875213872470844,-4.527929409644166,-0.3804280418260641,-0.32387400855381054,-0.1089159933321279,1.1858374705923929,-0.4227636010757998,0.10654423671828846,2.39115027392821,-0.14981225260307285,-0.29155110629125924,0.173302079769099,0.5625
0.040176470006532766,-0.26205017727506724,-0.22040266057057833,0.8618539573296906,0.060369408360236694,0.09887802820445554,-0.032680491478203115,-0.32427010956540986,-0.537612482979719,0.05191137331186761,0.30290551925913467,0.04924388444172251,-0.0041038316963367,-0.08771768337806955,0.5703125
0.10027837572501956,-0.6563718347085341,-0.5564589284508474,2.169101245215565,0.15720002751275672,0.2345753835894517,-0.06197709815592207,-0.7770629820563872,-1.1197874200269506,0.10179791972926899,0.47836661768936417,0.11598163114776393,0.012463735195801748,-0.20031009915868406,0.578125
0.10253388690256675,-0.6529273779524698,-0.5468091580422495,2.1487678675595325,0.14759966835743685,0.25858671513124115,-0.09923557149118713,-0.8381123564718921,-1.548162808710379,0.15086271298510756,1.014099953361478,0.12947638700452774,-0.02979982757687612,-0.23741731662921267,0.5859375
0.15347033242626593,-1.0682018990437556,-0.9311403801039816,3.571191676902048,0.28814110501571943,0.289688822098362,0.036618734364049846,-1.0262320899565294,-0.23621339352266477,-0.016561236837755792,-1.1851297130449692,0.13724034263648394,0.17452625245028738,-0.1868917791032672,0.59375
0.19790153520971507,-1.5160474314432566,-1.3712381390332036,5.142182898810923,0.4725710608234596,0.22848177634504488,0.32437061472967904,-0.9843173995022623,2.8094984526081195,-0.3834887836839719,-5.575938821927586,0.09264657145434028,0.5532680545320654,0.010874910878452469,0.6015625
0.22695096998213174,-1.8167951175214996,-1.6687557431017443,6.199319357607494,0.5989293809471641,0.1804309194557898,0.5280101060190395,-0.9380777697094201,4.974311058068885,-0.6435370778482636,-8.672513436010297,0.058809023971566496,0.8192868894951091,0.15420745154796237,0.609375
0.2644532168221031,-2.0118159716162687,-1.816092580812116,6.817121242952939,0.6225933389802125,0.3177915549140278,0.40887118148929896,-1.3433401012070978,3.477065186171559,-0.4806114622355524,-7.089432127588242,0.1310818649896694,0.7101484632461051,-0.007681589779621295,0.6171875
0.2129787094936508,-1.437692740263507,-1.2386428039222577,4.783996327406207,0.3691817631106442,0.44545441457525997,-0.03320957304999267,-1.524140555533657,-1.2732261435412808,0.08645507856167874,-0.4140203817731053,0.215750415424305,0.14252835005805561,-0.33555122381353936,0.625
0.02650031005894809,0.05957971609374183,0.1396854061548097,-0.32904987252201034,-0.12865784111172726,0.30700972727240816,-0.4835058085907794,-0.7781220653389677,-5.547041412506405,0.6379281707055676,6.950807140665702,0.17301064703982522,-0.5499472847737357,-0.47778056751281456,0.6328125
-0.15012585522050712,1.3121505374883147,1.242238947950896,-4.532127165696042,-0.4807885299773369,0.005366701259433859,-0.5832277744343091,0.3261321706261597,-5.923822238192072,0.733709691857164,9.153445890644319,0.033364351618708044,-0.8186931492959868,-0.3157677733346142,0.640625
-0.22893409863452424,1.7107564845806629,1.5377113990852798,-5.78857977269492,-0.5224780021880367,-0.2940232092532869,-0.31194682669822993,1.2032735240637682,-2.5445405649048087,0.364216989338173,5.523522291971372,-0.12475281611397505,-0.5646270209127121,0.04323529045160565,0.6484375
-0.27479777924958887,1.848924088407555,1.5947623396175126,-6.157602506252768,-0.479263472674079,-0.5649257869004681,0.030922813111173317,1.9392066861086827,1.500543368299716,-0.09233799240926734,0.7070820340420115,-0.27293857047372866,-0.19780633039520606,0.42020095611866387,0.65625
-0.2659587377155881,1.7021210009355559,1.436677736022659,-5.622514814379608,-0.4011180695704248,-0.6368156604334447,0.20222355042009643,2.0866724233384857,3.3886116636313437,-0.3142611174843129,-1.8350972940452064,-0.3164960617759263,0.012534869710592178,0.563253915031647,0.6640625
-0.140087385379775,0.846378448783131,0.6964139317577367,-2.77012311762445,-0.17678491712566655,-0.38404350115651054,0.20073704131858083,1.211275815883378,2.843220473440997,-0.28785071058763806,-2.3458923981351116,-0.195017415861744,0.11828075147089365,0.38202264080707454,0.671875
-0.03257108289060746,0.14828740038075428,0.1043484046839891,-0.460865764980109,-0.008949329235512738,-0.1336646712462782,0.13372201948412965,0.3832275885148547,1.638101684224941,-0.17950652900295397,-1.8200830987848053,-0.07122322555240893,0.13078507362432776,0.16737278637057446,0.6796875
-0.04409599802195756,0.2512092555237139,0.20229951758920578,-0.8170297740500222,-0.04732622521008313,-0.13105832662539754,0.08469565007253303,0.4033124081015911,1.1352041064570895,-0.11778043275323237,-1.0544320282054171,-0.0673716012894182,0.06288640538692385,0.1392131155483791,0.6875
0.028734961855778077,-0.2394513450533211,-0.2207730341269038,0.8169344668246514,0.07944590469842025,0.01965131894183971,0.07540931186965731,-0.11342027295637995,0.7241312543592074,-0.09144039234085055,-1.2261352841522026,0.0055139269335854465,0.1140194930171309,0.02662058628564537,0.6953125
0.2862539469460987,-1.9809299497022126,-1.7245113565701022,6.618257660301193,0.5322514726742718,0.5460766701722509,0.05488757887118997,-1.925558629409791,-0.5894518196592002,-0.014516760880903718,-2.0133747239903284,0.25943431159242375,0.30957596087703537,-0.36017710251561574,0.703125
0.3994979160002146,-2.7164307833518766,-2.3485967652900253,9.052547615918531,0.7096419769876433,0.8087318759154826,-0.013763161500022773,-2.7951860634970833,-1.8366913080200808,0.09708156323847154,-1.4885306306515447,0.3891897712527866,0.32504554471344405,-0.5844103356796246,0.7109375
0.15682521876891015,-1.0387267427941875,-0.886785757211005,3.445351917616457,0.2569272824727257,0.3496991766296302,-0.06542152950707816,-1.1739927285012006,-1.3963167811760298,0.11727841141948908,0.29012024453300606,0.17142338277247868,0.05675369036954781,-0.2843192725773844,0.71875
-0.11574468018786355,0.8105331935826899,0.7119446786087386,-2.717728504300258,-0.2264162564674727,-0.20195320291117488,-0.0544709170605444,0.7312662888810961,-0.1274388546119179,0.05004179416419047,1.281079089704572,-0.09410381738271514,-0.1630806643161918,0.11538536767139322,0.7265625
-0.1261209651384085,0.8894930431953632,0.7831795323938725,-2.9866710460245196,-0.2511942871553404,-0.21376184819318386,-0.07168217340454738,0.7827480700143854,-0.27835358335403687,0.07060235103542949,1.5783281078488558,-0.098838989875438,-0.19255049544568129,0.11455900628003352,0.734375
-0.08527768772074176,0.6545490071976908,0.5953588557340597,-2.2270673779520123,-0.20940947264410537,-0.08702705356817099,-0.15758758011575297,0.3947868298104411,-1.4163722687882438,0.19073436886057843,2.662804374364563,-0.03343319464501186,-0.2595594479154077,-0.021967267561045948,0.7421875
-0.19723297996364683,1.4115630684831486,1.2492130425334307,-4.748470784062506,-0.40623703111986037,-0.31589302048963624,-0.14850731858494912,1.1825178673979633,-0.8433889680350126,0.15710994068213846,3.0023970745942283,-0.14387551899722123,-0.3443048781001488,0.1462805754258793,0.75
-0.242880519446803,1.6148331271629053,1.3866725945297569,-5.369048800996096,-0.4104939637654721,-0.5180288183618823,0.06359786072958956,1.7572578680587174,1.7329453412230713,-0.12864574848530674,0.09498652459902389,-0.25219361309209687,-0.13187478766418562,0.404196382285671,0.7578125
-0.041901688891237736,0.14268795193373643,0.07437189552718132,-0.4045975500124458,0.024297232530062874,-0.22344700833033274,0.27033798237151013,0.6140589448642179,3.2114968582867953,-0.3594511598083072,-3.7737846244188926,-0.121616011180007,0.2846870245219809,0.3046143723172895,0.765625
0.19805400368258316,-1.4530525782592696,-1.2943640182997256,4.898676487339885,0.426938149009305,0.29492051396387536,0.19796753679320844,-1.1393302890866388,1.3889947252806005,-0.21836481794910656,-3.7286057013569143,0.13121643946273062,0.4038100343686702,-0.10421784187756565,0.7734375
0.2790242751371202,-1.8596600580788871,-1.5950229920598882,6.180757196182676,0.46808867928632014,0.6051724451521979,-0.08579969734246312,-2.0465906168573778,-2.1402731074436674,0.16775149578857745,0.0750108624874032,0.295263168680909,0.13674224838618568,-0.477680167330529,0.78125
0.27563811139966027,-1.755824905116419,-1.475889189246137,5.791059193223477,0.4038462200774757,0.6814357081756867,-0.24507710791988946,-2.2168019300739323,-3.915309623556351,0.3749967613873839,2.415429271668655,0.34033365899334395,-0.05485109692081822,-0.6174319067594316,0.7890625
0.2246488021445166,-1.4692324376369101,-1.2484638334808045,4.862856274344127,0.3556794296132888,0.5178475096151458,-0.12740337600683801,-1.7197080957818711,-2.378389410543243,0.21150344937802532,0.911555964772248,0.25554256924600083,0.04105117961306467,-0.43765441486102236,0.796875
0.0209034879423243,-0.17236277277364848,-0.15702806262677113,0.5826438713725071,0.0553854485119325,0.01835516023811106,0.04778911977859344,-0.09267884123638118,0.44657690544329803,-0.05680500313820866,-0.788255072018819,0.006352083359933999,0.07469424268696792,0.0127500569854782,0.8046875
-0.26167699831069696,1.7572954740209936,1.5159511101222827,-5.854202974634612,-0.45476202580264247,-0.5406894519168469,0.03452060690935197,1.8521890289041913,1.485957142474663,-0.09452417447125012,0.5957197767216065,-0.26150047431713297,-0.1822440080251767,0.4048162147682179,0.8125
-0.36863243690233993,2.530080944446514,2.200660469745228,-8.45258446401008,-0.6780373346556231,-0.7091714974258682,-0.0531295189580168,2.4878779284002674,0.9520096732133532,-0.001018631803018149,2.3247333767846747,-0.3378432976702293,-0.37734999267813607,0.4782565819331975,0.8203125
-0.25685025547259754,1.7172205297488232,1.478000897383884,-5.714524892112982,-0.4403634914210075,-0.5392233404883909,0.05027026349097334,1.8380510765155476,1.6444132090492338,-0.11426253595867619,0.3425377368807254,-0.2617037358704675,-0.1594070452188189,0.41232580677238473,0.828125
-0.13248749903915588,0.7726789092370381,0.6248867751827394,-2.5134525114810837,-0.14733878975680814,-0.3911376389977557,0.24376654843152779,1.2106125507736951,3.2948865829144056,-0.3425860717936192,-3.0064284883101737,-0.20075885319771175,0.1758768183262306,0.41016629575892216,0.8359375
-0.07965536024486261,0.44535576708665964,0.35259890352124007,-1.437230654893194,-0.0761496379292714,-0.252323190569125,0.18035400369926685,0.7670537393448017,2.359226260124676,-0.24949468611105238,-2.301100720607833,-0.13066279568230904,0.14566254782206883,0.27706199302526624,0.84375
0.018558140991430026,-0.08810974544096992,-0.0612206288107332,0.27244640159339845,0.0024808172867620626,0.08280638444377435,-0.08492610451257859,-0.237355474902768,-1.0350782092516593,0.11591659509960003,1.1605182047588976,0.04434396947004108,-0.08481297593632524,-0.10425666961238389,0.8515625
0.17235286128621524,-1.112846347156058,-0.9402085708539853,3.6770379626466205,0.2618398911829408,0.4133963786299251,-0.12787130239729178,-1.3573737250015063,-2.165143277825486,0.20198275692921566,1.1405113589829485,0.20537814256082876,-0.004265621107457782,-0.36331511460708626,0.859375
0.20963431829971707,-1.478501577971587,-1.2963086235659378,4.952516201685884,0.4088680992057407,0.37361447293690536,0.09174559858259966,-1.3492122494878849,0.14504546520028277,-0.07734394402679319,-2.222626084089917,0.17466141817375672,0.2878293903415633,-0.21739553667315517,0.8671875
0.08513099922678388,-0.6630850008616623,-0.601719422463988,2.2488278422775103,0.20887843350225727,0.09217323025711661,0.1532555694445015,-0.4101458257818247,1.3602508114612646,-0.18186721176770054,-2.595274109094325,0.036240168202817266,0.25436777215998774,0.016456863099792843,0.875
0.0159856629814567,-0.07957528381361953,-0.05644112755447488,0.2443565789076124,0.004028695674887326,0.06980441456750522,-0.06933413261811647,-0.20083798768941682,-0.8490322404941949,0.09516399913763504,0.9458105572694495,0.03723408119210534,-0.0683988698577709,-0.08669582516721878,0.8828125
0.15620169405042478,-0.9412606131599193,-0.7693859677317855,3.070304698691403,0.18857791994340298,0.44504878658164093,-0.2502583966621649,-1.3942326292144616,-3.471489969085307,0.3585803955092682,2.9940144331423286,0.22698205764969365,-0.16295893829267583,-0.4514247522761128,0.890625
0.30578872214219194,-1.9629467642022378,-1.654894609904719,6.480203956869557,0.4589218633435821,0.7402042299289814,-0.2417447863630622,-2.422457046104821,-4.004977649595151,0.37656735761861293,2.2367506334839575,0.36826244395599617,-0.025025939779402064,-0.6575755887571606,0.8984375
0.17380482638886213,-1.0865064494869765,-0.9036969187150654,3.5701821068020245,0.2383625519428401,0.4535100042128845,-0.19899306714962448,-1.4546510529223562,-2.9687144239463352,0.29507483231046117,2.169273781214854,0.22827991110897977,-0.0869539277864902,-0.4299619087723009,0.90625
-0.16232392868636897,1.1669346377639096,1.0347019641677044,-3.9256153761509402,-0.3383553022381882,-0.25439148346798207,-0.1326544285053214,0.9591842840946175,-0.8093727534981972,0.1431034083025923,2.6197506532828787,-0.11521541588169627,-0.2953890279253894,0.1109963830399671,0.9140625
-0.35071993521000727,2.3537568922641814,2.027494734558529,-7.833782953466481,-0.6064579198720214,-0.7297572778602788,0.0549955804941036,2.495704500634641,2.0900329112567286,-0.13847962781216958,0.6746313526044684,-0.35335448489926763,-0.23418320033752138,0.550812427482956,0.921875
-0.28752469639843764,1.825478411382003,1.5347861201503552,-6.022091196888889,-0.4226073277745924,-0.704421545254998,0.24871916686399204,2.293376512943207,3.9999151794025347,-0.37913474615683235,-2.4219840763521425,-0.3513186349770119,0.0490210730516198,0.6363772397093062,0.9296875
-0.19289050268685654,1.147931008850871,0.9366148454643441,-3.7465075153263987,-0.22960645673773017,-0.5490475319443647,0.31411189168166126,1.7161106854172659,4.3378851915325685,-0.4461968076646218,-3.7772969054954793,-0.28015802847071897,0.2073053031135134,0.5604662478692691,0.9375
-0.15203691405126676,0.8694584399844956,0.6958697390929954,-2.8184828726455655,-0.15671076279361146,-0.4669603413820875,0.31389296547790635,1.431748435917048,4.16517166109185,-0.4379548491015652,-3.946329020656658,-0.24082330224443857,0.24217744811219752,0.5017994920224282,0.9453125
-0.010724267559631481,-0.04953640492198398,-0.08447138193745496,0.2239747335525278,0.06541910102748072,-0.13997995376351616,0.2300917937188828,0.34845022435615847,2.628844405511394,-0.30095712504488503,-3.3174163416351066,-0.07941158045073775,0.26377623607252637,0.2234982715771791,0.953125
0.208054856568284,-1.3932438066946946,-1.1961735347673657,4.630475618680092,0.35282934383288755,0.4466120444083643,-0.054093308886943164,-1.516047266326153,-1.4854436274874414,0.11260877811942714,-0.08929287071947137,0.2173487927563311,0.1139884784758357,-0.34747611837164266,0.9609375
0.25462615747659484,-1.5671966663135086,-1.2956337957210766,5.137265511576245,0.3334030723221662,0.6863728451900764,-0.33485800718014347,-2.1810062113727513,-4.835543886565525,0.4880951697435388,3.8139016250708795,0.3473390122452894,-0.1788553885965569,-0.6689808044118811,0.96875
0.11285185603920117,-0.6441924598489313,-0.5110898911974228,2.0804021655067095,0.10941826587505844,0.3599994135746472,-0.2537047306041371,-1.098207278729563,-3.326571336249653,0.35455472693374646,3.2255444201143577,0.18627402337328736,-0.20383609897821828,-0.39252217503800874,0.9765625
0.044017960497416145,-0.33682764797015824,-0.30231055529025436,1.1371885057523947,0.10176308550328898,0.057269583190390265,0.06209475626878537,-0.23580191117648813,0.5106302312121981,-0.07097925921138688,-1.0964381784207455,0.024207942454983193,0.11131956897895254,-0.007345010223096243,0.984375
0.10262003277671486,-0.7787328342528778,-0.700447925759145,2.632331631688555,0.2377004006951358,0.1302458673320372,0.14699311463791537,-0.5386540386625442,1.2168454120181043,-0.17033189506316068,-2.582806898595553,0.05483334376328099,0.26172396665171155,-0.014018706115252277,0.9921875
0.06979056495755755,-0.44365597806774626,-0.3706785776521196,1.457955433798875,0.09886991625933235,0.17896337698328293,-0.07250485735025093,-0.577651503094064,-1.111501883382281,0.1097584111651561,0.7625411803448235,0.08986868434346532,-0.026397823689757065,-0.1663082520975476,1.0
-0.09961226376377112,0.8014574050563776,0.7401963435098026,-2.7409181889857046,-0.2705394388858606,-0.06522807032235664,-0.25465783817334553,0.37616606975679495,-2.4453242794440513,0.31450227587467233,4.138997953524844,-0.01779363733423928,-0.3867328549186151,-0.0894852971337168,1.0078125
-0.19629710596330288,1.4308836808300252,1.2747731519252121,-4.824763036471527,-0.4228451647214029,-0.28803051971294974,-0.19857167762929603,1.1151442824883184,-1.4087983375559767,0.22248249854247862,3.7288663278180674,-0.127774786086437,-0.40274556737801376,0.09959615079994001,1.015625
-0.1269992243132497,0.8604371449238148,0.7451477416256583,-2.8707058910926415,-0.22734272484748996,-0.25147966031044944,-0.0026266374515725756,0.8727297574689744,0.5011435088713885,-0.019777036370606845,0.5740259343255032,-0.12056436189876547,-0.11144764523205473,0.17841854861175346,1.0234375
-0.019512351563596545,0.057933102244671505,0.024696702815343242,-0.15684148626029173,0.016272982565332588,-0.10988377516888802,0.13842882409483906,0.29858244470900536,1.6346906747514327,-0.18299864841936775,-1.94120639434598,-0.06001579381144747,0.1474297074183728,0.15289964579020032,1.03125
0.009740783986628865,-0.12502784051797047,-0.1276826457192887,0.4451993900506734,0.05675983135911593,-0.034509960597295546,0.10634776841453102,0.05625285144213398,1.15183144785721,-0.13543186096559162,-1.595855125514106,-0.022168143456860488,0.13451016847639852,0.08194922092593313,1.0390625
-0.0374571575471053,0.2338187002040517,0.19689897622888516,-0.770976480256405,-0.05501914325186362,-0.08990293240367689,0.03160801824640866,0.29237344332081466,0.5100931866292282,-0.04698643224230187,-0.3036755455094128,-0.04488119066871431,0.00578183630035903,0.08147224787904113,1.046875
-0.08120953241993448,0.4659697344660839,0.37451394200278126,-1.5106274555077797,-0.08602522469549037,-0.24523736508202135,0.1612706036955651,0.75381697883818,2.150584049591206,-0.22471244590176923,-2.013903499789676,-0.12633739810964975,0.1219790499860631,0.26177395915086754,1.0546875
-0.007987817420961153,-0.12460600641409691,-0.16980869355849848,0.5058051313812282,0.11131337625195685,-0.19367206604137002,0.34313519476571713,0.467330551561,3.886965830581934,-0.447965215532645,-4.982384476025375,-0.111132796965888,0.3998512396092864,0.3223317318105178,1.0625
0.17762061130736112,-1.282223006317944,-1.1339559357301767,4.307833268593501,0.3670486851096486,0.28729477221817784,0.13389600508134195,-1.075512125135959,0.7564379917291627,-0.1388753002339203,-2.71046310093481,0.13093527316346673,0.3105528655031098,-0.13307115116715565,1.0703125
0.27461624973715515,-1.7029090572383467,-1.4122419206736962,5.583630053772092,0.368142353257681,0.7284286735541977,-0.3387371543345931,-2.324229734951762,-4.962300493862078,0.49692840249875064,3.7853864088556373,0.36773993311124586,-0.16637649768759338,-0.7010732825405099,1.078125
0.15486050164801682,-0.8508231309066835,-0.6616138109347294,2.7247306541027623,0.12756794927949872,0.5261953976760336,-0.41083235949640473,-1.5807155757967328,-5.269759095698469,0.5678386971862889,5.344264979023792,0.27441890717704004,-0.3541366714572184,-0.5953068406182522,1.0859375
-0.028531560483921692,0.2000106462919243,0.17705223944100135,-0.6730139431717365,-0.05830697642891382,-0.04480846134564751,-0.020980765508869837,0.16701051671770095,-0.11845143756142501,0.023344083256256677,0.42223943373112865,-0.020373700155378684,-0.04914126269104954,0.021074506312982327,1.09375
-0.1083679093466263,0.6415290571531364,0.5228804233804737,-2.0912396929017634,-0.1280622646921408,-0.30922184970128397,0.17916788842900194,0.9647339113240502,2.4661464289369315,-0.2534064610812816,-2.1640260415862675,-0.15793049249294014,0.11973568319161908,0.3170012637775755,1.1015625
-0.14330591786903027,0.9577048252380645,0.824870881366889,-3.1876133731129803,-0.24716910471980505,-0.2978580309909703,0.023633452906150054,1.017719796350405,0.8647238239253879,-0.0571093175161133,0.2583685808240125,-0.1442821930746657,-0.09429850505228096,0.22559345224088126,1.109375
-0.195233560148633,1.3221283232868613,1.1440404175964682,-4.408596074556266,-0.34781336278197994,-0.39056584183363835,0.0020013050499186873,1.3520851215065508,0.8393608737039947,-0.03896677325468615,0.7954565427111994,-0.18763324359179348,-0.16439414805317726,0.28017505854101066,1.1171875
-0.17150675148095762,1.0785268155769232,0.9034859101527635,-3.552605919609854,-0.24611806570740707,-0.427968112700923,0.16437546024261232,1.3854443372304777,2.5648692836692395,-0.2464307492897279,-1.6774801898800313,-0.21410552190670248,0.04810265636398216,0.3938144145044372,1.125
-0.053351997814727777,0.3234874696181747,0.26795534450364494,-1.0615923815826847,-0.07027122055439938,-0.14068935823653947,0.0673661342659913,0.4469437892234439,0.97961124432187,-0.09693169836220586,-0.760436770736573,-0.0710251579090267,0.03432532731362169,0.13680913235253597,1.1328125
0.04088492375727714,-0.17308208072978956,-0.1093146913721027,0.516364639692272,-0.006054269851646699,0.19735011223108975,-0.21830077288997504,-0.5555584691691952,-2.626066754839995,0.2943298888663227,3.0149635133930515,0.10632850871288987,-0.22324844629101473,-0.25744437615250115,1.140625
0.09532396641418041,-0.5464164864293546,-0.4337393156384653,1.7628103794093097,0.0935694727546366,0.3031678482517564,-0.2119861341462445,-0.9257688675495565,-2.784948505411603,0.2967616529985719,2.6936288546537654,0.15679383628190077,-0.16928641712105594,-0.32960593860265625,1.1484375
0.17817011249010298,-1.2292095460243497,-1.0683690054216104,4.104141115652644,0.32768574943953366,0.34617385752665497,0.023410801413353815,-1.2138058660488167,-0.4887349671619759,0.005569991254741265,-1.0951752568372604,0.16506000982244742,0.1800975112057161,-0.23427623028325908,1.15625
0.21393431981926855,-1.494508101384646,-1.3061468468327333,5.001098204351291,0.4074764709534926,0.39538289753664835,0.0663918445287512,-1.4096883852753528,-0.1552950970338114,-0.04369578755747496,-1.8756036225416368,0.18641886837664223,0.2615905369375493,-0.2463646140831318,1.1640625
0.08824466247989769,-0.590406903148275,-0.5054431405556746,1.9593776857761485,0.1474707987446811,0.19415980762850135,-0.03033979420058505,-0.6553419303035557,-0.7128976948415452,0.058061671902882805,0.0664678041336402,0.09483325764228383,0.03984014429341533,-0.15445753147831112,1.171875
-0.10557482757761644,0.6945645851839841,0.595030937677028,-2.3079943593583057,-0.17482627075494733,-0.22913075246924522,0.03669867514415283,0.7715950038955843,0.8548095610534114,-0.06708933914191552,-0.09492735785336799,-0.11200553900463545,-0.04637339713788629,0.1836229091291389,1.1796875
-0.17643343196735528,1.104115213285266,0.9231556467855582,-3.6338336778435694,-0.24940845488478663,-0.4460030022862315,0.18016150164808734,1.4383156825242613,2.763277711960508,-0.26796684104901936,-1.8902346898984799,-0.22370894717985712,0.06276670696710944,0.4152010961376817,1.1875
-0.07848398037526624,0.4405817669663012,0.3495651355886568,-1.4223109780653884,-0.0765131959620361,-0.24651324138977523,0.1740493551367922,0.751014149363138,2.2813703123207927,-0.2407173512750465,-2.2127646953389575,-0.12758333372859815,0.1390810132446616,0.2694506766463798,1.1953125
0.08105609668355199,-0.5934816331543155,-0.5268771131848199,1.9963094988140548,0.17169617571295762,0.12629474350515132,0.07212935940789038,-0.4803848300784848,0.4647201776262265,-0.07655461526206328,-1.3968340872616876,0.05684902282662151,0.15465610747883543,-0.05129322152515104,1.203125
0.14409836539127585,-0.959969576103333,-0.8214296242889249,3.1833680289546615,0.2395066959524956,0.3166580705094447,-0.050989550663275894,-1.067504029487574,-1.1833113481487976,0.09628061806406878,0.13496989311956473,0.1548424507898023,0.06262488648973728,-0.2531193388800551,1.2109375
0.02387081751596976,-0.04971841059937971,-0.0002793248847276002,0.10051519268877539,-0.04184113094929172,0.17050423345220977,-0.23257945217885292,-0.4539985255302361,-2.7169375184848543,0.30972359980346537,3.294634158684082,0.09427959843235603,-0.25515689057913166,-0.2459959787096297,1.21875
-0.1601602346996685,1.23517371769549,1.1237419836633822,-4.199096878465491,-0.39436448459570655,-0.16437785187768972,-0.29693015220985736,0.7445536133591534,-2.665043730323358,0.35785930896164125,5.011651077910227,-0.06321974140412046,-0.48836152120882165,-0.04132782084575432,1.2265625
-0.1962827295406986,1.3450574608229127,1.16987670119555,-4.493142552329476,-0.3608676688588073,-0.3766047650175234,-0.02868754753522717,1.321546935785668,0.5014291274423309,0.0007100106797183397,1.2457956531758758,-0.17937721461449743,-0.20128723575430568,0.2538768343408535,1.234375
-0.07369970977168908,0.3547969679632899,0.2561438051869265,-1.1085188221910167,-0.0290772791326337,-0.2920040852519446,0.27947707210079714,0.8460676748175562,3.4488518948198905,-0.37774216940725086,-3.7734547302771513,-0.15498046314441505,0.2684299748942146,0.3585072138142895,1.2421875
0.057011254512738585,-0.47113383801625236,-0.4362339260932577,1.612990101464484,0.1588250523233314,0.035228606332525864,0.15401453110604085,-0.21389538264549415,1.4897093263123362,-0.18860534409906526,-2.492259476462393,0.008868400309199794,0.2314410053931011,0.057678426719071446,1.25
0.1443376149209151,-0.8857209301649123,-0.7302899251314648,2.9005668657917107,0.18539137398945885,0.3954660185076549,-0.2008367270007168,-1.2523227359000788,-2.864688971197028,0.29160501840004005,2.323136567361156,0.20060186127489896,-0.11423125557195427,-0.389545025809327,1.2578125
0.1677058679456815,-1.07421298504618,-0.9036044098416779,3.5423758955999975,0.24824434092799996,0.4121331422731212,-0.1430623548322914,-1.3441011929428017,-2.31411831056261,0.22077856210174251,1.379713313256797,0.20551555338453478,-0.02591009664190444,-0.37051635045764564,1.265625
0.02627866282167153,-0.33686751283390337,-0.34594328841575384,1.2004385183181103,0.15731014059917092,-0.10295075898695037,0.3007225459887183,0.17823470692226392,3.266281927946511,-0.38602127621726756,-4.507892951047146,-0.06528920709148579,0.3787444019316148,0.23483716086092107,1.2734375
-0.18064130057790076,1.0245194511660856,0.8158651082836231,-3.3136920107973475,-0.17911953262047522,-0.565519873768576,0.3928878699345764,1.7264894774187256,5.170852843633559,-0.5465246669113696,-4.9810726126223415,-0.2923156608572545,0.31116257602106434,0.6144074873195619,1.28125
-0.13238469508183354,0.9543531964689128,0.8478486284250955,-3.2139026290096817,-0.27866458996857635,-0.20294925979754422,-0.11605098213951477,0.7713134206800923,-0.7510271254274996,0.12730734203846952,2.2518833264060323,-0.09136629600194084,-0.25024885757003557,0.08304204325362251,1.2890625
0.15323995605529922,-0.7694184322114981,-0.5656428670262623,2.4181349272003665,0.07392557864309346,0.5953798120065792,-0.5492984900051577,-1.738481169416706,-6.818934192659217,0.7483644996707126,7.376574692507827,0.3149061317579382,-0.5194449306191836,-0.7188531921384598,1.296875
0.24734590279222288,-1.5078621967961476,-1.2403962606450583,4.930421347710694,0.3129049324043309,0.6825319987601288,-0.3557262270616237,-2.1549930764634184,-5.038267625674436,0.5138151237457225,4.150445737613963,0.3466182905657536,-0.21005417026559187,-0.6773915657536651,1.3046875
0.031335437300851206,-0.2752189479869525,-0.25858795149954156,0.9446049589484379,0.09752290797455664,0.005354553448271083,0.11229595727071989,-0.08547283076120961,1.1280686737518195,-0.13912495161839886,-1.775898067442275,-0.003264621496809357,0.15964120372585652,0.05664677321264977,1.3125
-0.13696673638673207,0.7820434480997817,0.6250253695573481,-2.5328273224475804,-0.14001284487010204,-0.42219701378379126,0.2859794562024532,1.2934950875369824,3.78518816186023,-0.39829960786497365,-3.601341205185065,-0.21782953945287223,0.22175183053585076,0.45484468084288443,1.3203125
-0.11253656706213584,0.654106428815625,0.5276932295814298,-2.1244183598032182,-0.12387215597848791,-0.3335633324817154,0.2104192983865487,1.0314257846621442,2.8327883490452868,-0.2947262953792947,-2.5988956743449325,-0.17133847867355467,0.15326956525505125,0.35110775001358924,1.328125
-0.10806205872234194,0.6376901164760242,0.5181880522636831,-2.076472320301939,-0.12597832092251274,-0.3102158826165233,0.1826598333455254,0.9668726815470724,2.502965854024653,-0.2577366892274986,-2.2129399036622948,-0.15862344257977368,0.12415483473958323,0.31960305770586533,1.3359375
-0.13285860770280392,0.8336217328342443,0.6977954550479291,-2.74477958825564,-0.1899573088550378,-0.3321293478652157,0.12909065178442913,1.0739745142891295,2.0056619646934615,-0.19280062160644273,-1.3274093512290595,-0.16625077595061005,0.03946488897990075,0.3065593513822471,1.34375
-0.013962171392974254,0.13276293705354683,0.13062762350919774,-0.46624420450036236,-0.05544941901059264,0.017610359622999186,-0.08455792760004974,-0.011865395105226556,-0.8948772220440434,0.10918442541303382,1.2915534510610867,0.012981117715335035,-0.11190205869264172,-0.0575566990953068,1.3515625
0.1319049625138188,-0.7920741829422988,-0.6451171237786699,2.579788576765746,0.15632478942425787,0.3802149219076222,-0.21918292989462018,-1.188610760949707,-3.0194026419849447,0.31321306789840503,2.6427837837099197,0.19418105240548705,-0.14658819080254343,-0.3885125048860402,1.359375
0.0998273489405603,-0.6371805938602987,-0.5337310871560397,2.0952088827279636,0.14451464722069812,0.2510310907774501,-0.0949447450345295,-0.8144139304520851,-1.486569312192532,0.14459490584589402,0.9625131525900958,0.12559887759118668,-0.026823215952532377,-0.22973282797977662,1.3671875
0.01606128327583792,-0.12191316002140717,-0.10751456332063766,0.4066625439037214,0.034333472495791766,0.02641194981497009,0.013609645949868254,-0.10050833396166077,0.08532491115847331,-0.013457212876680528,-0.2701422616227574,0.012050643089669298,0.030118436341358967,-0.011242599420161188,1.375
0.04307419859164589,-0.2495528228161373,-0.197979072971744,0.8049024923508734,0.04238589322898004,0.13778993265818998,-0.09601264800369062,-0.42167699134609615,-1.261550331564715,0.13509594394493513,1.2183900123246418,0.0713156290141064,-0.07665630361749035,-0.14947210939620081,1.3828125
0.06355260288389539,-0.3597853155820871,-0.2831122528673885,1.158563961170602,0.0580689696867418,0.20881868641998005,-0.15318471803494157,-0.6336403988443335,-1.9907610921697116,0.2138900105508855,1.9683258126693821,0.10837690840683743,-0.126857909476736,-0.23078442151407683,1.390625
0.0063447929479452944,-0.05705699326394246,-0.05246590514169019,0.195102594478912,0.018131796299528446,0.0053375089747821495,0.017132361503580235,-0.02889458445623847,0.16350415814597422,-0.019587171752758443,-0.27827152243636505,0.00164572048082048,0.025909518147293253,0.005710802449678355,1.3984375
-0.013909128299145975,0.03059904856659808,0.005108123648174326,-0.07017976702786437,0.018129863681412176,-0.08698235432029404,0.11608786668589952,0.23250151435194824,1.3599687791990902,-0.15276796975362944,-1.6386371445961008,-0.0478735844271218,0.1256841072132011,0.12461256808535974,1.40625
-0.028181719593252972,0.19496424185191302,0.17167652234490913,-0.6533627396856693,-0.05588899851038484,-0.0463891749378779,-0.016440268209375122,0.1699921179987249,-0.06957177952130607,0.017473218314149202,0.35735858194560655,-0.021380551585789345,-0.043433666146354986,0.02466153409516227,1.4140625
-0.13369223200091773,0.9296550904263434,0.8140637046847461,-3.1133722785932934,-0.25680393982716526,-0.24020097103005994,-0.0498835428625464,0.8612944833879109,-0.0010947469035789683,0.04062777194656158,1.2901749348355767,-0.11274656519666067,-0.17303455679652302,0.14512498145310407,1.421875
-0.1628593614375839,1.0115944169318756,0.843098031643953,-3.327391640961321,-0.22496586713880895,-0.4185240675873952,0.17976487750319217,1.343648753685772,2.70238755608795,-0.26485223913025785,-1.9425008768395617,-0.21051538502954317,0.07398847710762814,0.3953969937597334,1.4296875
0.011469295905956448,-0.24227057720965223,-0.2671657993382474,0.8886444382027461,0.13586815811511352,-0.1395369570892502,0.3140239434446518,0.2977660443869485,3.477393262512151,-0.40621872039079854,-4.639003236911583,-0.08354031615442588,0.3816757151445328,0.26808025438031374,1.4375
0.12802811472384518,-0.9375696683693967,-0.8341604797639345,3.1568095214895258,0.2740735283183882,0.19405850957657683,0.12207015260513476,-0.7448329260307653,0.830012642954575,-0.13295231863980747,-2.3257337155742825,0.08686550892642643,0.25380713385033515,-0.07288950490532482,1.4453125
0.018477177473236857,-0.07209679876989092,-0.0413670264030993,0.20883911378198494,-0.00850632751348903,0.09826550945631159,-0.11473558229726777,-0.2732997235266602,-1.3699511440623569,0.15490582758513977,1.5959115247578777,0.05332964284796557,-0.1200676471945093,-0.13128916015012831,1.453125
-0.031596011735218976,0.28182361457062777,0.27024915104482333,-0.9781687066062179,-0.10796077812058352,0.012118718679853193,-0.1416283029909653,0.04095771739522577,-1.4616746865390444,0.18033787943381255,2.2000296717090984,0.013306726393668327,-0.19452761185237247,-0.08417116119213977,1.4609375
0.13318544447905886,-0.8618362912727855,-0.7278244948678408,2.8464910614711716,0.20265152767109723,0.319664435202674,-0.0982451896492804,-1.0501202605858897,-1.6673620211756013,0.1557758584561634,0.8720060925693306,0.1587004061588103,-0.0023733350467942827,-0.28052148256828385,1.46875
0.19529073796457186,-1.2524473937276381,-1.0544554464224205,4.130946007186652,0.29067565823960345,0.47733766650145903,-0.16192137228354314,-1.5587107441258141,-2.643270211998394,0.25086761871514296,1.5407438093818517,0.23782149630083974,-0.024700367636982513,-0.4272081890375569,1.4765625
0.0006873820139144906,0.118657669881492,0.14979884787804654,-0.46692599435590004,-0.091183382238316,0.1360193819315858,-0.2549518239732953,-0.3213323056674833,-2.869155796476649,0.33433062207124403,3.7198007737445615,0.07883239238503185,-0.3009789812511524,-0.2333380178500642,1.484375
-0.13050346989093065,0.9811665954012848,0.8859109874491516,-3.3270553980224347,-0.30420810041765245,-0.1578381478027491,-0.19557172256101668,0.6615368182821993,-1.6503653880928297,0.23134104860210059,3.4050934654343386,-0.0654490436732823,-0.3426833086029203,0.008276548585400532,1.4921875
-0.04351492668501293,0.2479345789982545,0.199895194322472,-0.8062197076532372,-0.046908193585004566,-0.1292341006107133,0.0834119685066081,0.39773738687880295,1.117689762096142,-0.11579054556804946,-1.0365167551225387,-0.06645348821707826,0.06185639048241647,0.13724087400875953,1.5
-0.021468717947800992,-0.06462982481227272,-0.12992706437862409,0.3230124470873843,0.10981715699345158,-0.25271083803685157,0.4045235385622548,0.6362035828044252,4.633056508471385,-0.5306936274712152,-5.819931008519585,-0.14268957882759647,0.46077921051063087,0.3973214223901751,1.5078125
-0.17427562708073985,0.9634267211582419,0.7554765521305158,-3.0983485505259694,-0.1546128780237305,-0.5713254658215237,0.4284321876678849,1.7262206805967306,5.544998934569105,-0.591765176630423,-5.526006795681502,-0.29696265195701604,0.35851969162205566,0.6376125705089806,1.515625
-0.20640908127152957,1.3576410545215913,1.1599793890446461,-4.504728271068434,-0.33822982544647673,-0.45541212870647957,0.08309093408459574,1.5285618163576957,1.7998354011007922,-0.14724568734582527,-0.34698689759345913,-0.22309193923050313,-0.07781500573085269,0.3699994230565635,1.5234375
0.0023980061006124848,0.1105870199569668,0.14307084674757833,-0.4372015170083599,-0.08994218097850334,0.14164212962488165,-0.2592640680727938,-0.33804227303753365,-2.925551277449419,0.34035445096801875,3.7740287279339433,0.08170307366554738,-0.30477485627737533,-0.23954249864474128,1.53125
0.15917582209325262,-0.9357042637687767,-0.7552259970104823,3.0403542406403683,0.17556340873138931,0.47704535527120834,-0.3001047533421611,-1.4761068082589732,-4.043639282384622,0.42416252178843,3.7106603823807363,0.24496388236848976,-0.2191663499219551,-0.5008860927757377,1.5390625
0.07748658720422033,-0.4515492608682719,-0.3618196654554393,1.462123450085021,0.08109496412688852,0.2398070022543747,-0.15916054550491482,-0.7372641768755493,-2.1160890917384227,0.22422142650595167,1.9967726011342641,0.12361740335093507,-0.12207313994100188,-0.2560769787744201,1.546875
-0.027623520678063625,0.17747967352415372,0.15171480066105325,-0.5903584214904912,-0.044790664827523884,-0.05955724867547011,0.010913273119529358,0.19958368426903852,0.2361069493228762,-0.018164449252790787,-0.04427088328751382,-0.029127600566762713,-0.01054516904362204,0.0486854810883786,1.5546875
0.059679207468724335,-0.5124618886224813,-0.48005940197582636,1.7620100294484613,0.18029231943260565,0.016385923261109627,0.20037459185796036,-0.17578264317307887,1.9964414533938533,-0.24833379600731922,-3.180355386003988,-0.0026487692995454544,0.28834816060039914,0.09587564261817005,1.5625
0.2055202143777806,-1.522349962179995,-1.3604431191365616,5.139017896834766,0.4535846227110804,0.2904370323858224,0.23493560658611862,-1.146152941909081,1.771671681383734,-0.2650768676915561,-4.301559998702003,0.1271565312752416,0.4538983078856627,-0.08128783724271514,1.5703125
0.17805032337158624,-1.2180542406574932,-1.0545155203276175,4.060530870724889,0.3198624693803616,0.35659252249549833,0.002836054041870418,-1.238116596509666,-0.7191798278859427,0.03239697945357349,-0.7964478304558358,0.17116118490857346,0.15563830023710773,-0.2527654653872639,1.578125
0.02050111932777589,-0.08180484534498579,-0.04759355425138311,0.2357028747166293,-0.00831162272624222,0.10782281541780082,-0.12496652025892135,-0.3001465855470543,-1.492345038918567,0.16855028599494257,1.735553907563356,0.05839249068020246,-0.1302879677206427,-0.1435803274430369,1.5859375
-0.0630857075408529,0.3816149802159231,0.3157478930055982,-1.2543642418843743,-0.08231825652324186,-0.16747234789005994,0.08173734195039373,0.5316955964130796,1.1804258985832439,-0.11737738253415607,-0.9298530177846015,-0.08473847295023196,0.04304190747842288,0.1635998639923415,1.59375
-0.06805966300248896,0.39895282875521454,0.32481265119921776,-1.3025728321182315,-0.07953103742835646,-0.19449214350269078,0.11427301487103089,0.6058242546119743,1.5667638105589303,-0.16075889495633708,-1.3838045799075258,-0.0994203728449288,0.07729699857338324,0.20030908067816638,1.6015625
-0.14483413168426076,1.135711612024006,1.0396144703074053,-3.8715436023089262,-0.37089432037218334,-0.128097478588173,-0.3075522429210512,0.6251085536287395,-2.8482021116717,0.37478340127242343,5.101531800057581,-0.04529554760125454,-0.4877624473634415,-0.07287141795225484,1.609375
-0.2393756069789623,1.8605253381026305,1.6961836566090802,-6.330843237946031,-0.5982196770747928,-0.2338464115938799,-0.4675853454907684,1.086431497480727,-4.2476767594439995,0.5651528602189125,7.83836830114619,-0.08766444509165017,-0.7579509296214431,-0.08301391396837872,1.6171875
-0.1514824672517837,0.9892929650923843,0.8435084102803231,-3.2808539596520045,-0.24420344859240461,-0.3391047856860648,0.07130935334585141,1.132516180310524,1.4365195781386673,-0.12116859373738674,-0.4040264310702024,-0.16660861735244192,-0.04469969600631841,0.28060639022102735,1.625
0.02843457719204078,-0.44519452983325436,-0.47406958385591885,1.614361409235696,0.22891906328539738,-0.1955271783666781,0.486386151009171,0.38917851482288496,5.342177205481554,-0.6279028447953059,-7.2267581401152095,-0.1194826414903936,0.6004563347459867,0.40027755136482956,1.6328125
0.006668751462432741,-0.11644904980858425,-0.12466385786025909,0.42396990234360693,0.06011720196847598,-0.05364049317379792,0.13103222323295713,0.10758101510845065,1.4408075328268606,-0.16822012981273649,-1.9439653267618215,-0.032599920041393095,0.1610265417028381,0.10875753751571407,1.640625
-0.13264178891796122,1.0431664803528897,0.9551531847523287,-3.553815340516247,-0.3411957455015429,-0.11475451665045111,-0.28614246372994734,0.5665250385823802,-2.660332471764146,0.34927802763719124,4.738835896036912,-0.040013132078022054,-0.4519589087010256,-0.07090558396168972,1.6484375
-0.0032171727408271166,0.05190194336523444,0.05724407353539673,-0.19091251660325625,-0.03024705048140948,0.031118601317364502,-0.06887258765744955,-0.06710333159805298,-0.7632572995570869,0.09082291927662167,1.01897986082122,0.01857709396831391,-0.08415837269602755,-0.058737018886262156,1.65625
0.3393603779593344,-2.4436490203544077,-2.16200646402233,8.215378693428956,0.7004214072757633,0.5482819219589649,0.25457713760584205,-2.050746219758691,1.430705667310105,-0.2648501423274601,-5.153187369916354,0.24996913434724244,0.5913637203356072,-0.2548372504328353,1.6640625
0.4005485010577122,-2.780909664255425,-2.4252213859301923,9.297387869411281,0.7527499019975198,0.7521038990306814,0.09865132695276507,-2.6652820713451923,-0.5781834047712708,-0.049452589058097365,-3.134875120413829,0.356121748837134,0.4589671829771687,-0.4838408345162664,1.671875
0.10277485282932591,-0.637350405906603,-0.5273094744432283,2.0888176944443524,0.13596591548962386,0.27625476378709374,-0.13213104852432622,-0.8799343415234891,-1.9192759309065202,0.1939585399186895,1.493679119259233,0.13969904790144683,-0.06848796093006718,-0.2676413970140226,1.6796875
-0.10162359832231567,0.6867379964100202,0.5949050630134748,-2.290464452121046,-0.181350938415788,-0.20171827144926466,-0.00043187870322582004,0.6987038717230594,0.41981083051804713,-0.01766572198252892,0.4332344237935058,-0.09687684534239219,-0.08693749233009854,0.14412596602338318,1.6875
-0.06058073910236801,0.3180246607328156,0.24374822364854504,-1.015383159321319,-0.04375980920972737,-0.21119366597725153,0.17518410022173353,0.6277741230627666,2.2211918026472937,-0.23900249403846469,-2.3059382740865635,-0.11069849660890965,0.15607467201181033,0.24491036063592242,1.6953125
-0.0797261424023882,0.49921646545846543,0.419163709106997,-1.6483221601403732,-0.114925305230312,-0.19699806473964432,0.07421189668720041,0.638141009303327,1.1679945742639548,-0.11097854079989179,-0.7508242924738399,-0.09852299658178493,0.02002118875912933,0.18072377195577544,1.703125
-0.20627808461898292,1.4520476385068644,1.2768928275006783,-4.873321258526491,-0.40724703971002973,-0.3563949954870205,-0.10621277215595257,1.297015374922832,-0.32751025235603587,0.0999857870727705,2.419182525525051,-0.16553744606329188,-0.3018244157381438,0.19793048766198273,1.7109375
-0.16643565043158381,1.2119029173563651,1.0798044385121779,-4.086811819772899,-0.3581062986234775,-0.24499247453294995,-0.16661324016501625,0.9467253044911911,-1.174709450037914,0.18663179824246415,3.1335155465971742,-0.10884400529905842,-0.3393345637682041,0.08603373857699417,1.71875
-0.002216827186959903,0.08359880850631643,0.09900765573304712,-0.31822720050471703,-0.056565517729819485,0.07302484348682874,-0.1454346785253554,-0.16753569083847317,-1.6276984080882335,0.19089391946926018,2.13064452859095,0.042765575569580036,-0.17397730725753385,-0.1297085834322132,1.7265625
0.015663465170273328,-0.07748814934556335,-0.05463672628388388,0.23875061336493544,0.003725453660894589,0.06872517031296496,-0.0684524157848791,-0.1978168805066506,-0.8381000335321594,0.0938673059702615,0.9310601311024523,0.036635690717173514,-0.06757582511967651,-0.08543976726691736,1.734375
-0.02242223116700276,0.15089338966190372,0.13170115836113766,-0.5061628067397634,-0.042154825646869,-0.039418495142390084,-0.007508423246466117,0.1410051838377424,0.006199856678937459,0.006975298652907298,0.20327125023317213,-0.01849690198701054,-0.028027485106056356,0.02440290072229788,1.7421875
0.09164564987627587,-0.5846980606772808,-0.490835712687557,1.927328173334147,0.1327850395692173,0.23008747371866742,-0.08625424351420287,-0.7465802343874851,-1.3586153633111733,0.13203932549176237,0.8734818829301341,0.1151204874749375,-0.023879323837601094,-0.21015193191630296,1.75
0.1450426488652217,-0.9231118595036952,-0.7745429662078496,3.0430285873815426,0.21033458126177773,0.3624050001848043,-0.13490880281212278,-1.1767080829367706,-2.1292613217054814,0.20596068679414797,1.3584555088139272,0.1812294110635192,-0.03575239568199981,-0.33065235242342217,1.7578125
-0.06940070292100681,0.41548725658069274,0.34172457146653407,-1.3599370369777,-0.0865432795019327,-0.1906354808054563,0.10167761440346063,0.5996616049103242,1.431733146461772,-0.14465715155529452,-1.193941155347124,-0.09688945668670543,0.06142477905838044,0.19085430879373316,1.765625
-0.21641433535354782,1.2844885902738592,1.0472177926093515,-4.191529263094782,-0.25504783852708773,-0.6195705462103549,0.359274510960532,1.9338970926264998,4.944986357531312,-0.509662628739535,-4.337519394293235,-0.3164940998047397,0.24092243715950565,0.6349979141104747,1.7734375
-0.008633546260590682,-0.059622224692686125,-0.09164427823763743,0.25416366067385193,0.06634064751525774,-0.13157022829277445,0.22177578477814053,0.32439236827225715,2.5267713330148087,-0.2898555580189834,-3.206235847727711,-0.07486501848434875,0.2554926037399833,0.21299222741447899,1.78125
0.195633086421217,-1.3089826254177492,-1.123186602494744,4.34904259165027,0.33049889098017354,0.42177472714569114,-0.05444120695875297,-1.4298594755044944,-1.4356321711786475,0.11050345103880273,-0.03342718116845551,0.20545836913510154,0.1028517305957044,-0.3299172636769297,1.7890625
0.05511994258230295,-0.39208753055771833,-0.3435935096282941,1.3135264862184075,0.10741546688672914,0.09960688436211307,0.023341035074415605,-0.35981493849735285,0.028732558349824848,-0.0182642780672488,-0.5766651391982065,0.04663923523384685,0.07492363573970136,-0.05825920660674673,1.796875
-0.09402741792766431,0.5164988828285567,0.40493442147212794,-1.6613253946726028,-0.08284634128238799,-0.30853417492352714,0.23269388388184067,0.9306455533109291,3.007566229901718,-0.32057098849865684,-3.0048963284965007,-0.16039150034762126,0.19532050030543288,0.3451879318636229,1.8046875
0.10954773380837107,-0.7833521116706591,-0.6898094371816023,2.6279604063043043,0.2199131499659593,0.1871205227493936,0.06456315287152528,-0.6870302829464746,0.2622772628880149,-0.06153301996143458,-1.406636394598711,0.0865213022162244,0.17003566555605082,-0.09870634185676744,1.8125
0.338997704566279,-2.158215170894698,-1.8134363122991632,7.116488627144515,0.4964189896525958,0.8383953697823849,-0.3021088709936082,-2.726573039160217,-4.822424649089468,0.46181944196687763,2.9821990258440403,0.4185950254288469,-0.06804544456225717,-0.759965403306349,1.8203125
0.15284251498929358,-0.8639882524910569,-0.6832381501188375,2.7879850338625727,0.1439851673036046,0.4935843164320884,-0.3557130266408686,-1.500141803523327,-4.64245294508997,0.4956738695628436,4.549635356185933,0.25578439260934316,-0.290363347992152,-0.5424759588376049,1.828125
-0.23150485765997084,1.640502468257963,1.4454255671354423,-5.506033244679322,-0.46365450416051485,-0.39036066957018994,-0.1375015029062477,1.4334298248264281,-0.5752498118565808,0.1360372014213068,2.981938166384839,-0.18022937822098198,-0.36029521613986515,0.20540807825277896,1.8359375
-0.32129555785980435,2.1911126364166797,1.900719414858985,-7.312393302239136,-0.5811253528562292,-0.6319805555284842,-0.019433902124517136,2.2006840980725095,1.129096516000294,-0.03563007224805045,1.6359333552124415,-0.3024587264982795,-0.2972858854018043,0.44108692301201674,1.84375
-0.11710527738565861,0.8152425735272202,0.7144895819115348,-2.732722460426648,-0.22607001045243474,-0.20842621602599373,-0.04719664878653262,0.7495577115490899,-0.04012287462956659,0.04028917508369631,1.1812620154208961,-0.09756992459734125,-0.15570745292724902,0.12382620924252426,1.8515625
0.0015651462847069187,0.0065298575994396,0.013874439770329622,-0.03578106463690057,-0.0131028919885624,0.028384651179294763,-0.04537716188138555,-0.0719878033914227,-0.5178048159326321,0.060967927864860834,0.6543224727270797,0.016058046454797005,-0.05211437322069035,-0.044253502866665365,1.859375
-0.08988646767940386,0.587641316409233,0.5022959101988612,-1.9526247415783498,-0.14695390843319817,-0.19737418916027671,0.03597589465712058,0.6621204339102104,0.7800635848728227,-0.06302848836208344,-0.14900891426167653,-0.09664696653344097,-0.03400049325454428,0.1604870748710633,1.8671875
-0.15154240336578134,0.9458098828531311,0.7905786505249625,-3.1157476745376744,-0.21303828488852194,-0.38447346475439464,0.15746617328309084,1.2384602356018308,2.4033381472646935,-0.2335548305160828,-1.6633950224063216,-0.19289081785036866,0.057010998702646795,0.3591061301067005,1.875
-0.01653118479247531,-0.017112165089547656,-0.058759218327091335,0.11786839730639813,0.060064864671214066,-0.15965093329748864,0.24470324043414862,0.4077337634238243,2.8163623516757323,-0.3211241622297136,-3.506279130944725,-0.08950584780831157,0.27559613549987133,0.24529882179487233,1.8828125
0.16520583579012607,-1.2317021290743002,-1.1023982058424802,4.157213052736359,0.3691020659901302,0.22734110129631988,0.2009182104070366,-0.9072765726335885,1.5613198903685241,-0.22866280721082727,-3.633356460085584,0.09864967376746735,0.3790787036421629,-0.05443602036325906,1.890625
0.17693181016670972,-1.2501061784734955,-1.0966772112998655,4.188781124027898,0.3461857316254325,0.31408809533858545,0.08018044020515766,-1.1361097366237651,0.1546863252166108,-0.06877927840709784,-1.9194965507233226,0.14663642798483273,0.24620444293578445,-0.18101201617747417,1.8984375
0.05607178842743857,-0.3990853855703207,-0.35015140290179736,1.3385726569779324,0.10991449898479833,0.10113089657687309,0.024721068062807647,-0.3650408552209893,0.037975981670194635,-0.01976141627722658,-0.5985959104926272,0.04723938762023518,0.07735058901425104,-0.05865213389469224,1.90625
0.019332454985352132,-0.12255288871858983,-0.10128281305543448,0.4028589791230801,0.025195359967273782,0.054562207795641735,-0.02711175312899962,-0.17319020121426443,-0.38966306635325093,0.04082354459546655,0.314149113662659,0.027606019431029007,-0.015331254624301825,-0.05312494746099298,1.9140625
0.11706610145463613,-0.7091738509422946,-0.5805603225371176,2.316070111139148,0.14324508242323739,0.3311060685932347,-0.18217715248739708,-1.0402876646503163,-2.5407903956344344,0.2620970798327336,2.1650552951128645,0.1686389290350937,-0.11542054446912205,-0.3335590862576905,1.921875
0.1601908286797979,-0.960077126863959,-0.7823730110315851,3.1297942129942884,0.1896875075537121,0.46142502145735914,-0.266420554647275,-1.4421711306985705,-3.6681223956686906,0.3802812170271095,3.211368132029319,0.23569037620220495,-0.1783694547803304,-0.4717078530501448,1.9296875
0.039763878508226665,-0.21153403632015205,-0.16027550504420623,0.672469955676248,0.02568191595113335,0.14718243688120583,-0.12628210528966394,-0.43571649184094735,-1.5888540851983781,0.1739655782015149,1.6728313887495496,0.07735933732105855,-0.11532824902955502,-0.17235078926098,1.9375
-0.10070370472747274,0.6610493651385071,0.5651009724388139,-2.193548763126399,-0.16554582643043628,-0.21982637225539844,0.03784378346667444,0.7391416884085488,0.8450315267064166,-0.06748092788402234,-0.13000578456347672,-0.10755761792839279,-0.04096251231461963,0.17751620316188155,1.9453125
-0.1218116562358682,0.7913952042841923,0.673940404292759,-2.6247358420274542,-0.19421787728063195,-0.2755139701623558,0.06310716134468061,0.9166569213928307,1.2187566214925956,-0.10458298515173825,-0.40964841662715995,-0.13557696805553252,-0.029101692322618482,0.23076788520202912,1.953125
-0.09153641285599118,0.5786120790349605,0.4879653469492334,-1.9142632780029807,-0.13557882913264574,-0.22174064779664981,0.07586142029416784,0.722315070826422,1.2356250742140287,-0.11542397657309193,-0.7245498231204203,-0.11038174430079456,0.011793033894093408,0.1991955303602004,1.9609375
-0.094040248769585,0.5915843303156528,0.49726359373347345,-1.9531628359743889,-0.13687850545749436,-0.2312466388366085,0.08461517265154206,0.7503787203426444,1.3441948603276235,-0.12731670579754678,-0.8415963412489279,-0.11545437698705578,0.019988885421229168,0.2107130780667798,1.96875
-0.07462670620380914,0.5156714209884891,0.4508669162899159,-1.7261033622070827,-0.1422076004316369,-0.13475682415961407,-0.025311886064222328,0.48167772196953124,0.027312706645532037,0.020023659324048548,0.6831620346117657,-0.06338892517396891,-0.09359264985688018,0.0830239701175928,1.9765625
-0.021457949678091514,0.16714539736783862,0.1538983046374303,-0.5713687689646313,-0.056697688458107125,-0.014455809166805823,-0.05171611032840497,0.08058619912090362,-0.49286882279484007,0.06484477813920735,0.8444584179515345,-0.0042126903391136224,-0.07949636366067657,-0.017020971743296188,1.984375
-0.03736148824586188,0.16467374436555515,0.11243756518701366,-0.5068457975487919,-0.005570261524394377,-0.16029276444919754,0.1663349929422106,0.45665944320844487,2.0229743509665177,-0.22286864472930207,-2.273964421973075,-0.08569060861447844,0.1650478678348954,0.20377460679858017,1.9921875
-0.09321503590799186,0.5281020033066309,0.42090660932082363,-1.7082120541738428,-0.09323123843260461,-0.28982332461071536,0.2001630803728127,0.8853116166829006,2.6367393955692764,-0.2778194506619617,-2.531952639704807,-0.14968211892858208,0.15744316481908677,0.3143631974463583,2.0
-0.007944504233043695,0.16245164088190664,0.1810612282648226,-0.5991153817505355,-0.09507299865844711,0.1017657830650734,-0.2223851117193403,-0.22157323646748367,-2.4687871552190614,0.2903510768360015,3.280700048646821,0.060599137249188334,-0.269939741592411,-0.19136689341093321,2.0078125
0.19901023413147154,-1.1209808019294598,-0.8847037806810355,3.612396506344889,0.18464662485203412,0.6457978655021316,-0.47026622241992944,-1.9599936647837024,-6.122301659196715,0.6540502548094272,6.026894792889936,0.3349118646532312,-0.3866440424426456,-0.7124584950082219,2.015625
0.26011823544569573,-1.7487679496984472,-1.503508923244938,5.812302467767471,0.4459210118364574,0.5509914808130993,-0.05444951488124124,-1.877431578816618,-1.7068368307724857,0.123037948071493,-0.3062915286609659,0.26748038506446997,0.15787284055597964,-0.42218987961957144,2.0234375
0.07754615697849333,-0.7247450332000497,-0.6955492534022298,2.5127468603949352,0.27682702122477293,-0.03984489769913986,0.3765923908031618,-0.08511657713458932,3.902521550666996,-0.47507676656791314,-5.831417553272546,-0.0389690917267153,0.512316960503918,0.2303786942322156,2.03125
-0.1332279236925617,0.8122203147612774,0.67118805487136,-2.66186348327806,-0.17336463275664,-0.3573639779284296,0.17618908797192778,1.1335556080463187,2.5360731058691814,-0.2543536546988843,-2.0125618067984505,-0.18087943488032585,0.09505409627645124,0.3497832057506805,2.0390625
-0.1873775481535334,1.34372257387909,1.1898909075885964,-4.51881111920233,-0.3875575933850788,-0.29796874353200475,-0.1451894974512917,1.1176935544035629,-0.8464920794980237,0.15464012194846372,2.91118859369196,-0.13540836025901715,-0.33164648574145417,0.13530759935193934,2.046875
-0.11454170879636072,0.7569008253948039,0.64971699764809,-2.5167456767081515,-0.19226726710949973,-0.24496175981071694,0.03279077717203826,0.8287181085950588,0.8482431703204312,-0.0635714704766897,0.0031898379959349856,-0.119358863168543,-0.05859289367172451,0.19272807625513272,2.0546875
0.008397526559726075,-0.22326047205922736,-0.2505138722742191,0.8270123464262429,0.13085539361915016,-0.14643444704522893,0.31576072771587066,0.3200422171264487,3.5108302935612326,-0.40902662400100553,-4.6498097265218155,-0.08698406696698882,0.38149074900403585,0.2738942209574577,2.0625
0.12931322143159693,-0.9774041986081996,-0.8795510142901253,3.308492110351136,0.2983447251183021,0.1651690369444735,0.1826445366840071,-0.6809413667606432,1.5059192750406218,-0.21174036690483172,-3.216099578103274,0.06972293502968996,0.32696737327308545,-0.019809210643402252,2.0703125
0.1626636211116248,-1.064263972187423,-0.9046587768258975,3.524538854739746,0.25758223596772595,0.37528581121314264,-0.09225461771119554,-1.2465438591672473,-1.7231620388590547,0.15347455857775108,0.6573894870984204,0.18520428818930454,0.02968484179836547,-0.31699074259289367,2.078125
0.08721428609438783,-0.5079419379352081,-0.40695815603406726,1.6432484499361588,0.09137303249417046,0.26901591260727864,-0.17832969812470753,-0.8273830178408704,-2.372060267700776,0.25104139445559565,2.2318497703415905,0.13871249337247776,-0.13676079297254323,-0.2872129836334816,2.0859375
0.01656009792952077,0.022635687848764734,0.07071058616743262,-0.15427433034472507,-0.07133932812967249,0.17987351909849825,-0.278323789619971,-0.4590621610447465,-3.1980337459473334,0.3678723633916107,3.9916878838463785,0.10110832993496435,-0.3154169579160015,-0.2771088751811171,2.09375
0.008562504701337816,0.15461877289812004,0.21245200504861142,-0.6333648795469617,-0.14137245548380772,0.24367119929722117,-0.43090922882603955,-0.5896491471496087,-4.879877617281619,0.5656150879186412,6.256948990953287,0.13977646903881397,-0.5029122937349487,-0.4043600803446839,2.1015625
-0.038339301232004394,0.39068777041073754,0.3864514397281788,-1.3740567707697646,-0.16503063816005933,0.06329716953763066,-0.26553907590475495,-0.06259199772316432,-2.825733979867301,0.340658062743902,4.040259690980956,0.044474331191309835,-0.3472296917978839,-0.18705815011248253,2.109375
-0.16452161430901366,1.0187494634429484,0.8473791882230626,-3.3457907836196337,-0.22463175619863668,-0.42717832949953355,0.1896339342675866,1.367469959792575,2.8191352509721717,-0.2780213123240987,-2.0771280780123833,-0.2151053153612308,0.08408892516571957,0.4068332184072717,2.1171875
-0.2203287739489849,1.2870563117821012,1.0399940026123253,-4.182014627443664,-0.24442358545856802,-0.6531800696833656,0.4087169546620869,2.021046105707105,5.515642673796477,-0.5747174210297703,-5.041834820788499,-0.33529765254675065,0.2961386054276757,0.685520868240465,2.125
-0.09715005342779069,0.5255957091301129,0.4084959881018488,-1.6841650202539475,-0.07944724379869844,-0.32699564653035196,0.256876266471695,0.9808328729744916,3.2912031290462065,-0.35245945820477376,-3.3421742651081563,-0.1706660832918317,0.22165308810993828,0.3713423768300775,2.1328125
0.07218266508109675,-0.5653806108642914,-0.5142070537280192,1.921185324726839,0.179389236225878,0.07510651461716238,0.13621201566809896,-0.34109181985959,1.2233229032175799,-0.1621393986922436,-2.294432486930312,0.028884416509936454,0.22322924519896933,0.019629459699476697,2.140625
0.07975913542646464,-0.6499367612105985,-0.5995774598003513,2.2219135736367295,0.21674658206928962,0.055984407197046546,0.20161827451894884,-0.3137485242192738,1.9272574370979358,-0.24620663865059972,-3.284377592033056,0.01628502305769828,0.30705449207893215,0.06831445085486125,2.1484375
-0.07512020651110608,0.42490074324542243,0.3385308896611154,-1.3720767855632627,-0.07543624582894054,-0.23263166653606626,0.1602241466131831,0.7105991048452738,2.114063633114087,-0.2222690935336328,-2.0273203575054124,-0.12018542059141177,0.1258620682904,0.2522380617559125,2.15625
-0.17116514038575162,1.2307242660274893,1.0914644120034098,-4.141765103438596,-0.3570498007076563,-0.26786661821931285,-0.1407345192001969,1.0106282478538593,-0.8637364149612925,0.15196757634342217,2.775606394163811,-0.12122618186005629,-0.3125420563353144,0.11622337909569538,2.1640625
-0.03294473040186384,0.4491712811868504,0.47263103433658554,-1.6240873887354599,-0.22457033927651837,0.17313443565250267,-0.4552799159390012,-0.3313713340601342,-4.978856631793026,0.5892953688419311,6.78762037773937,0.10723814260647986,-0.5671653592032017,-0.36710495044206404,2.171875
0.2237728527316374,-1.296149202776076,-1.0377011201516482,4.192999320701748,0.23323520641631548,0.6893829559955916,-0.4591823357056778,-2.1177006809289933,-6.101475443761851,0.64412535322219,5.75967476842067,0.35539950792238456,-0.35264531519190195,-0.7377760886899208,2.1796875
0.3024736364362005,-2.021067788498135,-1.7337714161883866,6.711929211765321,0.5103399052088694,0.6522092074985811,-0.08581906008654251,-2.2095195389622777,-2.2377553031014785,0.1721164253607567,-0.02705861500470933,0.3178057071766925,0.15680591127677113,-0.5113075012019107,2.1875
0.12255979790776977,-1.0227632423063147,-0.9510551617169967,3.5038639138221033,0.35148216705197777,0.05878390436950897,0.36051578619524055,-0.4173160970472386,3.532579805145714,-0.44529762910455634,-5.786073465356902,0.00926615493586668,0.5317775757247776,0.15132990786351386,2.1953125
-0.04796784426151475,0.10492555592512132,0.01341329103370335,-0.23915854230706726,0.07037122264739525,-0.31729566837318246,0.4262404400987131,0.8466739630598757,4.988413168872405,-0.5642092075546602,-6.025533657561147,-0.1747725527679941,0.46392953996363134,0.4550262740406897,2.203125
0.00790621600510048,-0.08315421768791788,-0.08048386159078576,0.2879946548949644,0.03225010618767634,-0.008197176900322177,0.04851149831297449,-0.001084407122855813,0.510725449566937,-0.060342791622009576,-0.7446692698527951,-0.006432738857392665,0.06438275702435926,0.03218733139177157,2.2109375
0.10792688449366127,-0.5951002331559221,-0.46339802785297224,1.909507954058703,0.08985862555030545,0.36569649166689633,-0.28348319801575017,-1.10016846061204,-3.6404611308039256,0.39253630895251257,3.6824922291473037,0.19055939354830942,-0.24319672736477319,-0.41244190757721055,2.21875
-0.02570319193661003,0.2618668047825644,0.2594699588867115,-0.9186451155581489,-0.1113793690298762,0.04423752816439226,-0.1802363354459419,-0.04723127981271094,-1.920554383695117,0.231904253157956,2.739765651314349,0.030724601052596567,-0.23506432712495437,-0.12770584390734216,2.2265625
-0.27319434007611815,1.802201062554605,1.5413077040724195,-5.980567291836651,-0.4504425914540523,-0.5995722329381531,0.10308578163797329,2.016122659357355,2.302825563143137,-0.18610312844861793,-0.3536927224332951,-0.29334476237430435,-0.11114701101223619,0.48355934148562446,2.234375
-0.2810771793620178,1.8542307240326275,1.5857029196781833,-6.154605044602544,-0.4633145846984186,-0.6171779515787434,0.1063358662494039,2.0753805840960373,2.3737551560670664,-0.19201814440551754,-0.36909325254988523,-0.3019540922011431,-0.11419819968069707,0.4978840692454193,2.2421875
-0.03380604632357366,0.29205997469325523,0.27636868826940225,-1.007660405952735,-0.10783233696784766,0.0021326374524729447,-0.13092604520907664,0.06993206922061326,-1.3315664372779863,0.16583564662135378,2.0529075028354575,0.007933231165146753,-0.18392159778546727,-0.07125729718089162,2.25
0.13396132149422582,-0.8233463710513104,-0.6798233922462914,2.6992394796654273,0.17308531004598754,0.36553502908427227,-0.18296312570117104,-1.1585210136394501,-2.623261597565886,0.266596922824528,2.1069017030324946,0.1851787199174541,-0.10214017787086867,-0.35860103992793757,2.2578125
0.08143451274508519,-0.6096720506449207,-0.5460128773791747,2.0601679850089147,0.18223506424984698,0.11299079525254285,0.09913697589058164,-0.45044023721853094,0.7666098469136893,-0.11184829106980987,-1.791341097210403,0.04905989217560371,0.1870563118765211,-0.02733263476310981,2.265625
0.011878077019467085,-0.27120135635945763,-0.30074826296659585,0.9980671742602457,0.15453732633573586,-0.1644972516492774,0.3633926955064995,0.3546025245004261,4.029939071708912,-0.4705651675910952,-5.3600118360740785,-0.09809717099062158,0.44053816860346534,0.3122520508764271,2.2734375
0.03556192208126533,-0.3704109515303158,-0.3638418609084277,1.2941286680800248,0.1520322917004501,-0.05287653552412318,0.24036282634595363,0.04037118138051119,2.549966542655222,-0.30551898494536267,-3.6649407973432755,-0.03802292753145803,0.31518730289444863,0.1667395122736958,2.28125
0.0023540422226570774,0.031579193963961784,0.04761485661514602,-0.1378544541292502,-0.0341505804452378,0.061942600757149927,-0.10668915534067781,-0.15240314529779334,-1.2094579719535852,0.14113388343623093,1.545310858829883,0.03536324741551369,-0.12391824141964808,-0.10101118268405541,2.2890625
-0.12008428897545799,0.8960077097434199,0.8070508821790502,-3.035433535229398,-0.2754070203525241,-0.15133164006709493,-0.16777860909877768,0.6227628323950016,-1.381526855041784,0.19715313538630222,2.955700361352845,-0.06385685326872159,-0.30073504064776707,0.018544986553595,2.296875
-0.1198737602201973,0.7580021953762706,0.6381059143828517,-2.5032906710949896,-0.1762473941838277,-0.292210670778926,0.10260003316351295,0.9511109587192997,1.6552909171766257,-0.1558343850514521,-0.9953344124525678,-0.14571591184713778,0.01946741803019004,0.2638721275150804,2.3046875
0.03696831961307164,-0.31513737477847303,-0.2934435274137279,1.0786506124354283,0.10885592420016706,0.015060077334394057,0.11548928434064845,-0.12124455461803288,1.1407142691444476,-0.14227617328275483,-1.8468662211208258,0.0012322612483915262,0.1684760104634794,0.05140380492388319,2.3125
0.07549897626923253,-0.334035973142844,-0.22260075816777403,1.0149601985829737,0.0026723648507644957,0.3424916967982977,-0.36374113883891707,-0.97235055966211,-4.4056854049971514,0.49078938554244605,4.991099876411961,0.18374018426203248,-0.3661568069607516,-0.4389177220046846,2.3203125
-0.07125372545614678,0.810628468064952,0.8207513632303376,-2.878329020794838,-0.3650545984501499,0.1993983473155593,-0.6523841986332549,-0.30551424263375415,-7.03179134430694,0.8391148319765549,9.828061654034249,0.1301878362858253,-0.8332438945246475,-0.49128232627229335,2.328125
-0.0617924873612208,0.5155131011290027,0.48219906856753614,-1.7731699093218647,-0.18204066891446688,-0.018963752622883405,-0.19779372066642176,0.18253792244711958,-1.9646786910740697,0.247645321378525,3.1483416052564928,0.0013451081804313116,-0.2868711524263445,-0.09202535989284139,2.3359375
0.23237485000427732,-1.8084675032175195,-1.6458309580599808,6.147218861196187,0.5762370847317451,0.2378232846524034,0.4387836413613211,-1.0838452772476037,3.9494117983933905,-0.5260010237241111,-7.392010445208991,0.09113852663525175,0.7181042980803144,0.065430013857829,2.34375
0.3894822582601031,-2.8843677709038595,-2.5800114054654624,9.741744557105205,0.8623404996249637,0.5446671855152184,0.4537929026809316,-2.1562521182451238,3.456633912140605,-0.5149729004882095,-8.274603684784463,0.23770186415247346,0.870068066362403,-0.14558293236209927,2.3515625
0.12784168993018233,-0.9027551055841098,-0.7920968735292303,3.0292118685024634,0.24952264391324128,0.22791482400462093,0.056835384720432515,-0.8239864166474495,0.09714631907641234,-0.04771387748236268,-1.3724458631651704,0.10645300783418682,0.17665091564998636,-0.13191723682962286,2.359375
-0.1657311770669436,1.1386395200240262,0.991431671528399,-3.8043137261826745,-0.3073385311033901,-0.3140606978105786,-0.03132113727216896,1.1063112236204868,0.3416893616649993,0.010228476843820696,1.1540622109574392,-0.14920687831467086,-0.17841727781665995,0.20781376807242377,2.3671875
-0.09567579723755534,0.5473028500276338,0.43879810731146573,-1.7763241125613596,-0.09992749593590737,-0.2908957375071198,0.1930642609144509,0.8935220107527337,2.5679437972016967,-0.2690041669295824,-2.4180924695533843,-0.14986991191670543,0.14706492863607606,0.31132845391780317,2.375
0.06310610635931313,-0.5329531025336546,-0.4963687365291718,1.8255511045591815,0.18382342880136615,0.027354702435067612,0.19268514493353261,-0.20899251529194235,1.8956646864380853,-0.23759055550392666,-3.0811627317206867,0.0030308484073433297,0.2821637187369906,0.08386607361990665,2.3828125
-0.07116816843554015,0.5252868000132153,0.47146207450034106,-1.7768625258163588,-0.1601747127317354,-0.09323214785140482,-0.09154433393581456,0.37677043970534885,-0.7323827752336693,0.10721380032948119,1.6369871244698737,-0.03990230766739679,-0.1690643782972509,0.017826987209787464,2.390625
-0.27035086060860014,1.9475588360798797,1.7269706862448337,-6.554949989490844,-0.5645439142137122,-0.42341592412880014,-0.22350147529779749,1.5986955968511423,-1.3760127872835743,0.2405593094070222,4.403416920329618,-0.1915265040725175,-0.49541254156948356,0.18296158425119718,2.3984375
-0.18819352957093408,1.3142623805691573,1.1525143700827836,-4.407583899249939,-0.36445742743336157,-0.3349029756906876,-0.07802202853908032,1.205947229856003,-0.08645361756774102,0.06658110122109971,1.9313066545424948,-0.1566650118969969,-0.2530505495689339,0.19764062533806717,2.40625
-0.037375690734203666,0.24513060358641534,0.21163633383007396,-0.8214179434964259,-0.06399987594623409,-0.07672751388786794,0.006159072211719626,0.2617692401220315,0.22462952642487827,-0.013898679422981432,0.06669702000152475,-0.03710078441257004,-0.024622278727607978,0.0583569375182246,2.4140625
-0.10644612689579773,0.7878469383641008,0.7072257154286634,-2.666050444592017,-0.23953240047269636,-0.14062512424457788,-0.13620834612137195,0.567401059624058,-1.0848833072298647,0.1585763961966395,2.4385751000292406,-0.06031613114235948,-0.2520679186076573,0.027780355066495552,2.421875
-0.14171514550771103,1.0653980739537048,0.9607164587713067,-3.607138858799556,-0.3292359666236293,-0.17325134147456892,-0.20889357977017056,0.72311504930848,-1.7530540072258156,0.24658830518322492,3.647701466971339,-0.07218897076651062,-0.36802939955069885,0.012206776447600686,2.4296875
0.117605248539581,-0.8150552177169534,-0.7088144110306761,2.7246341411904065,0.21794295930976207,0.2267064782707478,0.01988132804698957,-0.7983215639953175,-0.27300675167066313,-0.0016419008746257938,-0.7903908405844583,0.10783623180809893,0.12442283914040209,-0.15084885477962903,2.4375
0.3395845633773619,-2.442627591343461,-2.159842090945734,8.211045215186243,0.6989801516164481,0.5511966249369994,0.24998002920439374,-2.0585473520208124,1.378683874964718,-0.2588317606336648,-5.088679056258721,0.2515464540180189,0.5863838116702343,-0.2593307737646028,2.4453125
0.18592016473089362,-1.3170772830779538,-1.15684752246719,4.414763332344505,0.36664467035843556,0.3260849639062458,0.09178250220809019,-1.1844852558391994,0.24747008697590092,-0.0822110877311839,-2.128744877595006,0.15174048016617434,0.2677714740156466,-0.18328889083514885,2.453125
-0.05592090185652384,0.48673817915430007,0.4614160577861876,-1.6820864841898255,-0.17948138089396565,0.004419117342285922,-0.21983533675173705,0.11448600250136896,-2.2365421503210907,0.27748879883989225,3.443554581206732,0.013672736557713706,-0.30773390791675836,-0.12045908992660782,2.4609375
-0.029826733299875376,0.26635054983927614,0.2551998757718258,-0.92357215583958,-0.10190223630125042,0.012160912844751197,-0.13477275092952273,0.03695446194961282,-1.3906216779616838,0.17148863621859034,2.089975799876919,0.012956380537287787,-0.18474325794359614,-0.08047779201234137,2.46875
0.066121052281637,-0.58203691717673,-0.5494455892600634,2.0075273014757125,0.21024538566582468,0.0028961257682896665,0.2508095223995876,-0.15920716575524357,2.5376542525516186,-0.31311946199794455,-3.9468311819394586,-0.011779894618428611,0.3536817949263872,0.13252998325594612,2.4765625
-0.018595441094860672,-0.025547478262406213,-0.07485664417756818,0.1607244109425402,0.07297647149088764,-0.1871017764979627,0.2897876432955585,0.4764993224365584,3.33102258787951,-0.38032540753487065,-4.156079332437255,-0.10510414330817634,0.32736801159793466,0.2890327440024493,2.484375
-0.05033209435024279,0.3897821774100142,0.3561598897112612,-1.3300683090294845,-0.12728035011235808,-0.04525643694611256,-0.10348961688840928,0.21810156126804833,-0.9553790704367383,0.12700082328127207,1.725206504726502,-0.016244174069138195,-0.1656169786512132,-0.02281181165322825,2.4921875
0.15267859582032997,-0.8923900868154138,-0.718404606804129,2.893433129208351,0.16432026371565228,0.4632498463359441,-0.2988502678319683,-1.4284965322908363,-4.005052536905445,0.42151810213662316,3.722423016148625,0.2383624796149199,-0.2238092604509647,-0.4905010643489919,2.5
0.23546253891046726,-1.5790560552306687,-1.3570688396849642,5.248438580328976,0.400973452979776,0.5019410247448026,-0.05572131979322783,-1.7068981960342375,-1.6212277477910544,0.12017485138932434,-0.1799802038907261,0.24419080164157245,0.13475844047098154,-0.38798533931601875,2.5078125
-0.053929967255665956,0.28945423818010235,0.22493455337139875,-0.9300340570600745,-0.04427683150076413,-0.18073751016483022,0.14175342245981126,0.5417111970180847,1.816136074585992,-0.19399045864162867,-1.8445227460020617,-0.0941616740951495,0.12174692942014671,0.2051714839650442,2.515625
-0.3026708431317529,2.0255922952413012,1.7441447984510077,-6.743372424068941,-0.5204627320431273,-0.633431610251931,0.055007025628222725,2.1619204322465566,1.8891913552071555,-0.12922162591053737,0.47190927192806137,-0.30712505483076574,-0.19306565046035548,0.48199024236105453,2.5234375
-0.11920432976998271,0.7810033479563915,0.6679778285612383,-2.5940155563771983,-0.19489122305945653,-0.26241586538655504,0.0483261909198515,0.8802539378745855,1.042996234218961,-0.08482514836665404,-0.20547920412337048,-0.12861404997782877,-0.04421719795581144,0.2135639981736096,2.53125
0.1477444810863331,-1.12902053492641,-1.019803952112638,3.8284203698715764,0.3501582406116096,0.17484848590089486,0.23471208154200304,-0.7455079898781101,2.0140736469443854,-0.2761329336283437,-4.055840143498354,0.0715931299506578,0.40440672858519733,0.0011849804496285754,2.5390625
0.017728037370480603,-0.22127802403298785,-0.22611827784871175,0.7927126286252426,0.10127430307427633,-0.0622147017299345,0.1900681353244507,0.10228098882719122,2.0591792230068475,-0.2431195582792612,-2.8555660376239103,-0.03993737774028998,0.24057121608730064,0.14655764954692732,2.546875
-0.28508843487687563,2.0332637188779974,1.7955979962907698,-6.82814254134292,-0.5799583352146844,-0.46829432969803525,-0.19350992291085728,1.7365644399239761,-0.9766052546191712,0.19858436959130363,4.026183281394726,-0.21479734463127606,-0.4721152073473272,0.23113689166169854,2.5546875
-0.27807268771907007,2.0903740863452738,1.8832219227283808,-7.077596714410043,-0.643144837579342,-0.3455624292271355,-0.4016929050692031,1.4345379850059705,-3.3451246273735173,0.4715773168882282,7.039069884164336,-0.14483734944408896,-0.7126811773728974,0.032046176593673245,2.5625
-0.049723881419815506,0.40826044225778163,0.38109543593273193,-1.4044232328694155,-0.14269564232317264,-0.020055573341569915,-0.14955778916763376,0.15738825333682235,-1.4731142709488256,0.18684760259897046,2.3934934835293373,-0.001686768573920149,-0.21931141473297597,-0.06539754143106388,2.5703125
0.04029380975840345,-0.3586469324234714,-0.3384653919225847,1.2324996384246736,0.12930249941484673,0.0014170598502571225,0.15444396928560453,-0.09672647570320125,1.5636623208095688,-0.1924272484508008,-2.427108650485853,-0.007350122664720984,0.21740416746084423,0.08199233669051827,2.578125
0.060423851512225374,-0.46322537572710576,-0.4176168467882601,1.564527924556889,0.14208872756608992,0.07498153578077896,0.0909624932806424,-0.3139111537465738,0.7658500976318047,-0.10560315424901229,-1.5858199225256941,0.03129355712119462,0.15943298154899188,-0.00453065278515802,2.5859375
0.22530479909144838,-1.454093550475067,-1.2285979594032443,4.802129586562379,0.34288446114325605,0.5393555667529065,-0.16579326068837602,-1.7713278287813654,-2.8127532632325107,0.261707560444203,1.4679247354492413,0.2678273367414953,-0.0037673165275273804,-0.47352775846395395,2.59375
0.3285862548562698,-2.1375560742476676,-1.8136093340287143,7.074042865686134,0.5139287657864288,0.7652147447746741,-0.2022428589000843,-2.5326609718069606,-3.657516663463356,0.3295118830718864,1.5646306554761658,0.37822218649135464,0.041248701612482445,-0.6542833703833786,2.6015625
0.11783995396459897,-0.8256864233260403,-0.7218001534752001,2.7643761964016234,0.22490857363826613,0.21756169053961927,0.03824524798548114,-0.7770350816898897,-0.06957408484836415,-0.025316590824868302,-1.057708479102758,0.10248993326433976,0.1460452282618952,-0.13453298955190363,2.609375
-0.13870392181008828,0.8071787401692828,0.6516623220175566,-2.6236161280834875,-0.1530660511592757,-0.4113317177422608,0.25877721547846333,1.2721165064305047,3.4872457679085143,-0.36310364208581164,-3.1952235262432622,-0.21121578141732858,0.1881100449746937,0.43250580794303084,2.6171875
-0.05847476631637855,0.2706827906071003,0.1909678191718419,-0.8420445763965912,-0.016672527730770065,-0.2405161891870001,0.23930136860311535,0.6917057436632419,2.930845926566752,-0.32212780956865933,-3.2493113873975608,-0.12811244736463331,0.23345868806153128,0.300076817436422,2.625
0.19926860584860315,-1.40040562215782,-1.2260514879673914,4.686861940272257,0.3847914294128354,0.36025791381972866,0.07702374271946887,-1.2945038102452482,0.023622075577991723,-0.06022331131318495,-1.9682314868151525,0.16906035914433246,0.26127262548264946,-0.21573353376640914,2.6328125
0.19200771298904198,-1.3057165500071908,-1.1280801745331692,4.3493217019239765,0.3395407711673795,0.39169212347677096,-0.01121672114895221,-1.3515076548118288,-0.9361975198442709,0.053470835739885654,-0.6505005160151427,0.18880880584952547,0.1506674742927634,-0.28534431609301936,2.640625
-0.11643390213158537,0.7936881371714042,0.689519285740193,-2.649641636197277,-0.21222891552427886,-0.22545213208141435,-0.01226593802181321,0.7876953943411468,0.35035652927439787,-0.005210672962129738,0.6664740212140409,-0.10761052055904305,-0.1137324008501287,0.15478865230248276,2.6484375
-0.3242029375425182,2.2376493237083355,1.9504270790201934,-7.4800075940666,-0.6054559864528704,-0.6102639346370768,-0.0721098996772458,2.156745560121951,0.5515384431383964,0.03249399713254029,2.419070666094256,-0.28928769332515486,-0.3619892150056668,0.3974764972052773,2.65625
-0.16683691580150184,1.208460115358672,1.0743331382850814,-4.0710540314669,-0.35410288458608885,-0.252079108864682,-0.1544536861916341,0.9644700961319537,-1.0363039527443434,0.17059655122693912,2.9587296787594424,-0.11286197471313494,-0.3253104905978928,0.09758756175170864,2.6640625
0.12308413489806289,-0.811136253190609,-0.6908362092676213,2.68678351931684,0.19784057313621967,0.28069841687461305,-0.06256108235449752,-0.9359327927627871,-1.2229028113136582,0.10703039339539408,0.3924597723548272,0.1381688895493307,0.03107105916429873,-0.23361528707752827,2.671875
0.12007728023921524,-0.886170608222839,-0.789801844040279,2.9871715758154376,0.2609952185225238,0.17680852485719384,0.12518695471926344,-0.6870225391920834,0.9000748567101758,-0.1385939107551657,-2.337456647662753,0.07827921973403675,0.2511165564579941,-0.05887388952997469,2.6796875
-0.1844390022481561,1.214689941572534,1.0395956953906142,-4.032875888155725,-0.30433802825864215,-0.403317413591727,0.06817282658157514,1.3567324247755947,1.5401759710548846,-0.12335675841984141,-0.21864425427488085,-0.19737564890284096,-0.07627032445899384,0.3248111365601935,2.6875
-0.32992969023964064,2.3495926416890773,2.074193204551448,-7.89402743391758,-0.6687539622855971,-0.5457951066633103,-0.21739959557293778,2.019129229185538,-1.0572045464907711,0.22106341986572933,4.5671032863953505,-0.2506633244778238,-0.538855483241185,0.2736041761437811,2.6953125
-0.07964662481456271,0.6657990310622364,0.6231921063597672,-2.2904736240661814,-0.2349392367783558,-0.025013424601164555,-0.25495070360852523,0.23669821297649737,-2.5320443445933196,0.31869016326960603,4.058671986672486,0.0015172005632601874,-0.3697766416972879,-0.11834548743427438,2.703125
0.2075810112974791,-1.4687923403625265,-1.2898149376569799,4.922888660585958,0.40850237657250754,0.3646544541102332,0.1007748539082382,-1.3237983113343577,0.2565715639075558,-0.0896995659456679,-2.3499432682542443,0.1698789557644363,0.29683200672149845,-0.20607956188186652,2.7109375
0.17274973257757287,-1.3470305075179168,-1.2260871655903962,4.5796835085605485,0.42934747184652056,0.17612069823059964,0.32851209166396506,-0.8050227780389596,2.9612361372792924,-0.39358518024366285,-5.5294153675451545,0.06725407280256453,0.5369058413637315,0.050484709552731065,2.71875
-0.015332813590747054,0.05530694293103521,0.03189891793052425,-0.1601502725780532,0.00495165286919357,-0.07471900419893598,0.08727149851983768,0.206810767598209,1.0415252421397598,-0.1152936106745577,-1.2128723762549527,-0.04049201320738457,0.09052269558001519,0.10042574208699441,2.7265625
-0.058047827132212924,0.48412319774825946,0.45294653424948095,-1.6646059990114161,-0.1709084186913876,-0.018281618421405823,-0.18510977919138136,0.17217424989588975,-1.8385218087664428,0.23175280865939554,2.94445957281128,0.0010372532510258788,-0.2687398368761846,-0.08570446353153785,2.734375
0.01645868911693645,-0.10204971047638309,-0.08274095188360789,0.329332005233885,0.01911980941481648,0.049554545052114124,-0.02939295742350012,-0.15496070386450633,-0.4017111475448834,0.04292607320288228,0.355791164955634,0.025434363498154488,-0.02084406491623786,-0.05079131432859065,2.7421875
0.08901654403735298,-0.7347127465764894,-0.6802317310798132,2.511459332576562,0.2486229991305376,0.05237561150883021,0.24380281981387789,-0.3260661165424183,2.3624090342129658,-0.2994238598420727,-3.9388625077250983,0.012355360590044008,0.3646934944371288,0.09342718170293135,2.75
0.17141091089218286,-1.238318044248655,-1.0956354748872381,4.161489182923425,0.35478144292217195,0.2766269521930596,0.1307550334548047,-1.036107627937937,0.7455394139929378,-0.1357455412952056,-2.6343960594268756,0.1259761610625398,0.3013456609402045,-0.1272079804515928,2.7578125
0.20788702170100415,-1.3210499456595237,-1.1077963933845412,4.351021852865717,0.30097536314839496,0.5200879877266388,-0.19547598341186864,-1.6868564513589546,-3.072818432892559,0.2971083455728237,1.9758980249661804,0.2600895837631606,-0.053712109181677965,-0.47566305472580545,2.765625
0.09974614854295982,-0.5563882618800613,-0.43554429074853784,1.7862985411840895,0.08694297340726206,0.3328839816080271,-0.2519551235307225,-1.00492516361056,-3.2524292926989227,0.3497421815463465,3.256848045793805,0.17318458802185305,-0.21298289800279535,-0.3722441659055717,2.7734375
-0.039010706419305985,0.2929453541535651,0.2656488371654006,-0.995961015843431,-0.09298838305148095,-0.04287287933142661,-0.06487995856098229,0.1862952391811651,-0.5674302536860114,0.07860235593386408,1.110789753222772,-0.017093098255630223,-0.11007464230856721,-0.003845587191890982,2.78125
-0.059558291169467245,0.3926722322888122,0.33765122226635685,-1.3071042999864149,-0.10096273327084096,-0.12532815653041882,0.01407452189052595,0.42517751574795726,0.4060767051859172,-0.028457009073285182,0.04461042220406513,-0.060837669599661304,-0.03416287435032259,0.09729406059896842,2.7890625
-0.07210214550981185,0.5083351379498924,0.44846627047281623,-1.7072299339844847,-0.14500760165911897,-0.11933854859409153,-0.04531731835945054,0.43970091451231014,-0.2078766190842742,0.046569065811953914,0.964622314154333,-0.05488226640501549,-0.11509181138438283,0.061274799119152956,2.796875
-0.18258586695590134,1.257258347533941,1.0952673391338659,-4.200924288728702,-0.3400926830513014,-0.3438048722349531,-0.03887225547353956,1.2141013388613937,0.3290798037248601,0.016687878408912202,1.3370404710728885,-0.16309649051438055,-0.20168743668219902,0.22502457943053336,2.8046875
-0.2218260564218496,1.4759397644972598,1.2670452069182105,-4.904475139814917,-0.3753100192597842,-0.47230746139035734,0.05678127409793264,1.6029178921362932,1.5679006080725446,-0.11573084281392054,0.10581755832428433,-0.2298550597419893,-0.12193810178835544,0.3679624090944643,2.8125
-0.0900169602916094,0.5297178541355043,0.4306413041934957,-1.7254796370995724,-0.10435814387242057,-0.25909770903701884,0.15370974129917728,0.8063460685961857,2.102229502443605,-0.21662857234215802,-1.8677852664577272,-0.13250852234250224,0.10530227796761128,0.26760197369612815,2.8203125
-0.013644041261796563,-0.02067795141001592,-0.056462875438909856,0.12462186784983317,0.0540698057082526,-0.13777729865867427,0.21403798426075446,0.349816932005739,2.459183519189367,-0.28056062637835544,-3.0733417310918343,-0.07739830195731325,0.24193180195216601,0.2132771221463887,2.828125
-0.1398949291988801,0.8682708510711735,0.723796643601191,-2.8546829826049205,-0.19318457280105086,-0.3597743862071842,0.1551127048171079,1.1539681232335612,2.3280993821877565,-0.2281601636832935,-1.6794883720517213,-0.18094789787735743,0.06445358852364899,0.34022101258308485,2.8359375
-0.22691005530318195,1.554070578014764,1.3513238264971699,-5.191733500861352,-0.4162984452604258,-0.4369575948574723,-0.030460517225572723,1.5315039444884595,0.6090471988009055,-0.002838471009679078,1.4001424340486694,-0.20827081874738954,-0.2294572595559302,0.29595787526578843,2.84375
-0.02354208558593199,0.19988000023605543,0.19020377263193206,-0.6952417391437851,-0.07428619627193522,0.001667335128060694,-0.09031192587579497,0.04719340893453809,-0.9177882261828296,0.11475323404212781,1.4165540423677119,0.005545535112140771,-0.12663445375689822,-0.04923941636246505,2.8515625
0.3209267725826114,-2.2383929367376587,-1.9545351836367912,7.484131908760559,0.6094594203639547,0.594511578084653,0.09549590026656533,-2.116935401771164,-0.2780008037738928,-0.060809756711245534,-2.7514017547793412,0.28049912957788387,0.3874579799925724,-0.3729955240279309,2.859375
0.4664051414209745,-3.259963619073635,-2.8512062906774287,10.911476004885929,0.8927101272767419,0.8524855982633515,0.15938755732547263,-3.0485953059702497,-0.1724801031456135,-0.11581184298433202,-4.297430872224962,0.4010607486400362,0.587220218180941,-0.5229568638823462,2.8671875
0.324420472080793,-2.12035986220971,-1.8028888395650067,7.023149337210414,0.5142529409820273,0.7460718028390678,-0.18157508866476257,-2.4782458489165933,-3.406986784650954,0.3016339455342781,1.2829119891786462,0.3679718800643874,0.06208718171119912,-0.6295404846553903,2.875
0.09231411481700133,-0.36019673131123064,-0.2137462089797946,1.0566063261135314,-0.03096545610215184,0.4673206792628979,-0.5383250142117499,-1.301446186937221,-6.438675641657807,0.721994894709553,7.471784897870406,0.25292375117588617,-0.5586926738885701,-0.6215265023752716,2.8828125
-0.06757663946478108,0.6648760762035512,0.6513228866749978,-2.3301928711396687,-0.2715984844418978,0.08233751250073161,-0.4143996843282847,-0.04062939008257044,-4.373446057621637,0.5290928655672025,6.334907821168773,0.06145546510908232,-0.5485054109333264,-0.2803056260074381,2.890625
-0.1745027173466505,1.1745101366183912,1.0136868788613602,-3.912535790481145,-0.305715252758492,-0.35633344396337713,0.015907474918239073,1.2251985767477842,0.9099196487359109,-0.053209969491142727,0.5019237424127222,-0.1719696524908121,-0.13015147010361616,0.263255865566592,2.8984375
-0.24677289391052698,1.5481697127498377,1.2945227232395973,-5.094928550753457,-0.3499836310567188,-0.6224403574071654,0.24853912042582313,2.0097102951331407,3.826361938003891,-0.37080770776926664,-2.589913311076456,-0.31204230405025346,0.08370273871890586,0.5777516273654498,2.90625
-0.21350308669149276,1.3404716130771082,1.1221853569823605,-4.414810077584351,-0.30434482479755226,-0.5362024794260073,0.21071018648422124,1.7327640465230008,3.261794314105837,-0.3150282035050989,-2.1794146375385073,-0.26859161869766324,0.06732217252550697,0.4959089255786344,2.9140625
-0.09252230616515424,0.5300009006370514,0.42570241859522645,-1.7203411581256096,-0.09730197108056506,-0.2810766343278346,0.18586136418687654,0.8629146033023074,2.47503034531051,-0.2590857912805939,-2.3289292105994424,-0.1447475720905722,0.141253082427619,0.30048971175296857,2.921875
-0.007431873957178802,-0.08475987597973156,-0.11979421554955685,0.3509821767705969,0.0809638691809048,-0.1480589626817054,0.2576821706655992,0.3596036916229962,2.9245219406663177,-0.33619269840976257,-3.7362032633503035,-0.08468737300903571,0.2990860661878213,0.2440140312261631,2.9296875
0.0349640249281762,-0.3632836913198342,-0.3577780894898459,1.2752385381397982,0.1497694485616982,-0.052580901025239254,0.23778732188251647,0.04102624254595012,2.522368503501004,-0.30199603203780545,-3.62258075642063,-0.03778600636653551,0.311754866925065,0.16518588704158774,2.9375
0.09720861058938034,-0.6840309486218347,-0.5980639965183542,2.2872486363976496,0.18671246508493144,0.17892862707896087,0.033208283012324154,-0.6399609742703969,-0.03824708300063966,-0.022993401325736865,-0.8963671735716213,0.08423501791795143,0.12254921563097637,-0.1096753996580874,2.9453125
0.07869701802605776,-0.44630995940833623,-0.3516795814529913,1.434565690321623,0.07292851931534394,0.2571970244882001,-0.18775360239253844,-0.780632633274287,-2.4434429509118454,0.261816501352172,2.409776067127725,0.13348701575840366,-0.15493940884186247,-0.2838684744466343,2.953125
-0.09011352582661215,0.7244400061527159,0.6692337944207922,-2.4770259600492683,-0.24449326845885674,-0.058856677208314556,-0.2298438223416897,0.3394294947095941,-2.206975222931147,0.2840416299325966,3.737723654854837,-0.016142845293091592,-0.34885294675656453,-0.08071658197810971,2.9609375
-0.15691796212912115,1.13191677207253,1.0044297550026833,-3.808717513177006,-0.32975129313782364,-0.24152068301893598,-0.1361641040084968,0.9172016555601065,-0.8732602193351345,0.1487415350221945,2.6499785873026633,-0.10885049192835784,-0.29497549462225786,0.09988850312272515,2.96875
0.07667836339614827,-0.48317672683365176,-0.4025050747918132,1.5867792266810306,0.10606513991596372,0.2004524445974138,-0.08680616257421112,-0.643574557574188,-1.2998524106518992,0.12956919093566854,0.9401286397425525,0.1008513978977657,-0.03716265923452676,-0.1892419578357471,2.9765625
0.3078088768314665,-2.0491855799354357,-1.754938238079626,6.8016345423626685,0.5140800509647938,0.6705754819286979,-0.10091474356016802,-2.2647148648483513,-2.429478408458703,0.1928962364569221,0.16998925863216233,0.3274368524670224,0.14345181018038272,-0.532469337698554,2.984375
0.1770785681771679,-1.1840843366721185,-1.0149474217019137,3.9315985486195224,0.29806636371120376,0.3829647361217552,-0.051655302436188745,-1.2973864108938113,-1.3266945681764533,0.10332317593640128,0.004615758977717326,0.18671736272412504,0.0901447292938595,-0.30076546181411706,2.9921875
-0.11577955010320627,0.7469487946097232,0.6337191368688684,-2.471577346131092,-0.18064298687452757,-0.2678384070491114,0.07146836544765159,0.8852624183316267,1.2872367391401516,-0.11424942042946502,-0.5561064459301384,-0.13235328724344012,-0.01418808566730849,0.2298037551377691,3.0
-0.15743225400961713,0.983498798807445,0.8213947439358914,-3.235630332273744,-0.22121060362364767,-0.399385107554602,0.16375843893640363,1.2867627654826448,2.4991875855571726,-0.24286821104494202,-1.7293478018315873,-0.2004118505777024,0.059555198945039294,0.3731452797066077,3.0078125
0.012980228370580757,-0.18892048361629687,-0.19783512039545517,0.678974686158153,0.09250491108069833,-0.07069887046728185,0.1880860052292447,0.13332617213587472,2.056745981360807,-0.24152875018981132,-2.805230069278207,-0.04385998662056381,0.2340629010595704,0.15152748604084226,3.015625
0.06433002902889509,-0.5154100165651421,-0.47223684000272526,1.755709950252785,0.16774198139429175,0.05584448191377748,0.14278072081557971,-0.2784200446331587,1.332351134753729,-0.17237383787510874,-2.3600206066921756,0.01928137395113475,0.22436124220953801,0.03694966485000254,3.0234375
-0.06084098893209949,0.4009961968876507,0.34409127231969006,-1.3336322910574714,-0.10245500469353935,-0.12857816848060646,0.01576748551320333,0.4359064922752847,0.43095126263672445,-0.030897814474422396,0.024184459609811994,-0.06257568925765829,-0.03307379863506752,0.10059762946378344,3.03125
-0.14195205962452537,1.0072067610958377,0.8887512060534986,-3.3851584253534743,-0.2866691488723628,-0.2350121875438752,-0.09166209381113602,0.8682116441841263,-0.43629831449141154,0.09355328845846322,1.9361606340342226,-0.10797719735802258,-0.22971361326087472,0.11900022584167787,3.0390625
-0.07234278720068867,0.5243080282084809,0.468043003909657,-1.7714995959722344,-0.15601718479489035,-0.10457760574899526,-0.07449908617625191,0.4057597999702652,-0.5366382735766585,0.08470557632704034,1.392393958374539,-0.04621158551667627,-0.1499315733954901,0.03501285822762882,3.046875
0.022138265150074034,-0.11312789423834436,-0.08191326127751729,0.35281996606933186,0.008807531896589409,0.09032307398534219,-0.08528140409817961,-0.2633570778717344,-1.0545386479116552,0.11718329279606009,1.1517456451630323,0.04793935385983295,-0.08195379636677111,-0.10988762563446694,3.0546875
0.01222233277480721,0.05177931498026455,0.09520005938879084,-0.2456304921629295,-0.07869320362531751,0.17028895540490263,-0.2763353869141124,-0.42718528634573966,-3.15898423086926,0.36462685432181,3.9838353260610115,0.09637378996459169,-0.3166629903800806,-0.2692062706564215,3.0625
-0.035007326979098224,0.41866249569806185,0.4290585420459761,-1.493437246439026,-0.1955974224914736,0.12248618666176199,-0.36581420499693695,-0.2083393875870162,-3.9657525807935508,0.47219722345529286,5.489048931213573,0.07810388006999358,-0.4629127808368034,-0.2829559753654111,3.0703125
0.02845782131251863,-0.1901534743462942,-0.16106963107813735,0.626815453682596,0.04508752716482097,0.06791951548338429,-0.017843933567311555,-0.2251273322849901,-0.32283755094127925,0.030307429817044224,0.13786215983567188,0.03355601465734098,0.00344667328220823,-0.05771816368127702,3.078125
0.15184414255623496,-1.2756932031384867,-1.1890609511248773,4.3754592242863675,0.4425630860040794,0.061841812570140826,0.4669225308514588,-0.49107530051917014,4.605330313113794,-0.578465610117352,-7.463656120581918,0.005110195937231559,0.6828828191447278,0.20614132937884655,3.0859375
0.1272164855458867,-1.1172199225846269,-1.0556468762598623,3.8551230850994065,0.4053763368595438,0.002224229720691249,0.4864223434943341,-0.2962255033300215,4.9280154083436996,-0.6087122343055882,-7.644425266573344,-0.024530768985189477,0.6848536343111191,0.25916596402835385,3.09375
-0.036074688636750195,0.21299957887652757,0.17429246132882614,-0.6932921743369271,-0.0438785192784244,-0.10001768837498132,0.0557941135261643,0.3128047624558858,0.7762793598154064,-0.07840601109967894,-0.6655705976481087,-0.050943782016815486,0.035402058809703714,0.10165225791320653,3.1015625
-0.07688291092944752,0.6373407155562065,0.5946188133064465,-2.1874855856573405,-0.2224796405788809,-0.030362460465671447,-0.2341158049640315,0.24311079874134126,-2.3088374256538673,0.29200894720178544,3.7405948629585746,-0.0022176817802086572,-0.34276328272755446,-0.103277154168423,3.109375
0.07451427768838746,-0.45607395945541224,-0.37419857892792274,1.4878190443783121,0.09322833118427634,0.20883870246933328,-0.11142824795157816,-0.6581657783924377,-1.5665770707650322,0.16128824529771357,1.309455716425753,0.10621482848965326,-0.06821318598422693,-0.20841601824259032,3.1171875
0.16677671011041167,-1.1807589667552518,-1.0363336841050805,3.954356756134602,0.32761204517379194,0.29443806039119186,0.07868617074827616,-1.0671730158146833,0.1805768003114986,-0.06881893283175658,-1.855789026206677,0.13732376056483667,0.2356878706103187,-0.16781825995532346,3.125
0.04776545509372403,-0.33271516592484246,-0.28885337607457306,1.108826638718711,0.08747371210908683,0.09512872363505331,0.004073331612862413,-0.3323636538004065,-0.15868071633182942,0.005574791105428452,-0.26228130342789535,0.04552310111638015,0.045734260178665456,-0.06549551705441359,3.1328125
-0.1332208034926387,0.9844382212813093,0.8818927195827403,-3.3265173917190576,-0.29746464818134843,-0.1796941583806775,-0.16380659968907127,0.719252199337001,-1.283834079865834,0.18952140733603942,2.9539232212745588,-0.07764227898838097,-0.3075671290232684,0.040870518854728546,3.140625
-0.21745268081922262,1.5131327041693572,1.3238573573088326,-5.066760791147972,-0.4160714136301812,-0.3942426238348198,-0.07615779474055126,1.4107332570013917,0.05633856582348358,0.058614464663876986,2.0283321458735,-0.18532195882088273,-0.27565787296271854,0.24101969489921535,3.1484375
-0.21296033103828668,1.3355182278182496,1.117721017696176,-4.398283644413833,-0.3024130898033924,-0.5364452822406695,0.21331938322523672,1.7320848028437072,3.2904616802929985,-0.3184196727602691,-2.2193412451980565,-0.26889478014093204,0.07101860078765185,0.497542341562192,3.15625
-0.14540984249296504,0.8369303489754536,0.6721944568691984,-2.715177590823612,-0.15367724046536888,-0.4412508000658,0.29011188873390303,1.356736951064751,3.8688107959006213,-0.4054472653580169,-3.6257859141714106,-0.2272295627679883,0.21964070972557187,0.4706949908648869,3.1640625
-0.008117137378889583,0.057441909495618795,0.0527195835900353,-0.19690532884206444,-0.019442855374955995,-0.007216607125069622,-0.014585356734678217,0.032977944848951245,-0.132296114473179,0.019019886397103947,0.2455522013264894,-0.0026796644379067014,-0.024015714324980314,-0.0023002607538872856,3.171875
0.12540148878148472,-0.6772092314870615,-0.5209864021437413,2.161470766819487,0.09426892980189228,0.4390359686553662,-0.35717398300697495,-1.3107470108597732,-4.542948423463794,0.49211064233053015,4.685891958530487,0.22974672910762006,-0.31575855313313933,-0.5043076874356013,3.1796875
0.1445605598686598,-0.8101539566946232,-0.6370435133424375,2.6065851772310173,0.1304685461550976,0.4747721332562095,-0.35200489644542654,-1.437560936650156,-4.565611191156685,0.48904954551049734,4.529636713599458,0.2466320425974155,-0.2932527961828325,-0.5270622316594085,3.1875
0.07278936153061652,-0.4669231986165388,-0.3921217680675634,1.5389997061947565,0.10661639900964327,0.18182969797657175,-0.06604018690503738,-0.5913547455982996,-1.0509451943708714,0.10185981493629431,0.6561539517422171,0.09083110181697575,-0.015858516839457514,-0.16484279823492715,3.1953125
0.06258443417476298,-0.5010996445288092,-0.4589678084931436,1.7072415352079724,0.1628048214139654,0.05503973398031389,0.13765927420772783,-0.27237434842993286,1.280896433177658,-0.16599950882690256,-2.275895621417841,0.01921312541429381,0.21660909447360996,0.03469617800329585,3.203125
0.1690922473105109,-1.198531957195897,-1.0528726473682917,4.018203849558492,0.3334813720788254,0.29647018791502705,0.08366328128305556,-1.0772642835655426,0.2263848942409212,-0.07485653596867102,-1.9375054409894492,0.13806227047711955,0.2435494608795874,-0.1666122863235359,3.2109375
0.2121864506108278,-1.419182558196832,-1.2178627545698741,4.716615268833429,0.35848099473204853,0.45703485585784104,-0.05855981981773241,-1.5497400891662727,-1.553196852847159,0.11914136478007148,-0.04344521874336793,0.22267002947331774,0.11194628591066004,-0.357383840069416,3.21875
0.01397789432458246,-0.07732683734337535,-0.05874514653343076,0.24610129980920525,0.009230099480201839,0.05275462190813458,-0.044445640084107424,-0.15705861945040608,-0.5611034962193545,0.062190111374174364,0.586039695967353,0.027693219499550732,-0.04050390303447749,-0.06115595633460183,3.2265625
-0.2592074396624521,1.6909511023795327,1.4397653176992369,-5.6047382820180305,-0.4142383885827166,-0.5871249035278199,0.13315286663128417,1.9553941247367146,2.5837723316329537,-0.2227601278866083,-0.8544917220241368,-0.2890236188494463,-0.06342508630652084,0.49078673774928405,3.234375
-0.2683090255584536,1.6832295446177352,1.408393638170196,-5.544659579211255,-0.38076855460843023,-0.676508638065576,0.26926782593018705,2.1845861434605833,4.151513539510504,-0.4021938272212068,-2.802716867352331,-0.33909703690257137,0.08993217174188264,0.6274639778928638,3.2421875
-0.031031113146983032,0.08389330061456678,0.029122494153548208,-0.21853592333518718,0.032609318348500616,-0.18603439382358783,0.23998056671309098,0.5022031157622142,2.823981272207576,-0.31773529310724885,-3.3755440273319013,-0.10195895126143,0.2577790180269509,0.26160874784556853,3.25
