AF3,AF4,F3,F4,F7,F8,FC5,FC6,O1,O2,P7,P8,T7,T8,time
-1.093705610517276,2.4186487683745512,0.44598270040606997,-1.0002204386947269,-0.1741147882595828,-0.13104191909855886,-0.10700084130030808,0.43570735929787285,0.22043485650324363,-0.6836214949206079,-0.4592311132598289,0.542507966691725,1.2528947440506766,-1.6678339831565132,0.0
-0.351576212382345,0.20766269216598465,0.1666520064479556,-0.21122199502187305,0.10902094480003625,-0.1344686682683346,0.10202607742614021,1.0897559067677853,-0.12196976882055688,-0.3523941575548464,0.5036899874186785,0.06723048188426066,-1.095485011107406,0.02108005560991566,0.0078125
0.35207358920695425,-1.3995524222928701,-0.14283873531137795,0.45879507507295086,0.19023371893664676,-0.052627473105030374,0.14369672627601215,1.1807695766413693,-0.2074826199963147,-0.016134376117586745,0.6238317361459554,-0.20606571156675588,-1.55329469825323,0.6294272692335456,0.015625
0.6941252302208939,-1.5478904273255338,-0.2910869337050169,0.6461062559601654,0.07855501075264507,0.06288320583705721,0.03692569617674725,-0.020056967390663528,-0.07753394189537495,0.21393919595496122,0.14149455264205557,-0.27185078642086125,-0.49119029731990477,0.8266205041810067,0.0234375
0.6574107550559615,-1.2386861705772707,-0.20968269916085563,0.5213827135191159,0.11958212566913555,0.049634381396805614,0.0718092815058212,-1.0780916888779848,-0.16254851825385752,0.2708179965061155,0.46935546176634174,-0.4107013755123619,-1.0996142903432808,2.040031591026554,0.03125
0.3310890345298713,-1.0479063610938437,-0.05922498137540713,0.31668829237359103,0.30772920144754634,0.02818597074917118,0.25922674837211546,-0.6588837233692576,-0.4626465338068353,0.852232270705678,1.2876376626660646,-0.5529190783669105,-2.8293894912482096,2.2286194234124075,0.0390625
-0.11021861679923789,-0.3331033230332689,0.029123781053821976,0.01344356770480752,0.2719791359410893,0.11644185476969199,0.27012934300220204,0.12683380839457753,-0.46832297273251156,1.5754257392088664,1.0437324392991623,-0.37209141602616275,-2.25475701289128,0.09147730857551546,0.046875
-0.33697528614507327,0.6707254819986352,0.09500358596593687,-0.2767349745874999,-0.005532484477980846,0.07788690837003723,0.028461067991556774,0.033324751606969814,-0.05483630499272816,0.6865041433027467,-0.031216067927417258,0.05391819031166145,0.15263563773457028,-1.093717085216086,0.0546875
-0.1582568722939183,0.6507806441075804,0.12855023626044984,-0.22936219031980287,-0.1682760496079984,-0.20471999012055617,-0.17295158206307282,0.03189362197171494,0.3226376214165721,-1.685463820462101,-0.4989533804646004,0.3302100573094936,1.131103226742328,0.5220728780860089,0.0625
0.08523473740688309,-0.08961164360504927,0.05087426453967024,0.038137714586692115,-0.16543782657715173,-0.34151185817260404,-0.20489991537802113,0.927775517498521,0.41706081999345845,-2.7041104448852615,-0.52896012346715,0.40203586466480545,1.0557924996622434,1.0576895949399334,0.0703125
-0.02275589930041142,0.10686513069490827,-0.07430221469743527,0.02930767917718407,-0.22297510979738266,-0.033626795140733176,-0.20157731012495989,1.2132427047386944,0.37825998083314233,-0.8316206296468364,-1.05891950746968,0.4259816062912637,2.202215046394166,-1.9092298945754382,0.078125
-0.20611727476371042,0.8685855517648496,-0.12761927270589074,-0.17022633464682352,-0.2506066911858509,0.3730418072422117,-0.1548957469322026,-0.1477311276014611,0.20939775670852723,1.8136357872966071,-1.3233902865314795,0.24421264509598134,2.935807755751155,-4.063770483025617,0.0859375
0.02768464869099523,0.36552864810854996,-0.12681006699738148,-0.02423689980349468,-0.03255450091416395,0.3885994163958069,0.026243032049951324,-1.4229248888493908,-0.13520693669026038,2.394766375830556,-0.3022262466405636,-0.21849314374448567,0.7668909588932519,-1.70848809566658,0.09375
0.39930551088982585,-0.8542027936843571,-0.1073263407953798,0.3184809495409064,0.19444375723904445,0.078077282309516,0.15973619856103327,-1.0963251692569216,-0.3133579125949372,0.8186282893986134,0.8111809347741447,-0.4698242918241376,-1.7734221584415193,1.8326747328797421,0.1015625
0.31809452018461915,-0.6681482619506431,-0.030257683049675403,0.23395619292503078,0.09568890139366137,-0.12183204421081378,0.046434036272271495,-0.45053438108262533,-0.07651746966398998,-0.6970866572161069,0.5054118012840555,-0.19563622985507337,-1.1396561541923158,2.1792912954938917,0.109375
-0.08191181420378965,0.5630910384425796,0.0782703752730584,-0.17762193810451857,-0.10233064973928337,-0.05924315656143093,-0.0973659277257058,-0.6848856972546498,0.15550252971168957,-0.6144370358341203,-0.27353646650421365,0.11247618540689641,0.6793513301889299,0.5033308231182477,0.1171875
-0.33610572786818305,0.7799499996768183,0.15518080014713548,-0.33147622461715204,0.0004088385589807557,-0.006292687038889336,0.01999617763241225,-0.3545290040771817,-0.03928125656491422,0.16064139713518036,0.11819040722323124,0.03843181498180047,-0.1354747543277559,-0.06908216854021704,0.125
-0.42670706630855904,-0.0026512750207367277,0.21433297381661048,-0.21342466545503283,0.24615876158630748,-0.1638421906318966,0.22635308887790664,1.4685967808561993,-0.3176363267573519,-0.11696379226324213,1.0720216475313677,-0.05852657564889567,-2.343725875279777,0.41554100129763405,0.1328125
-0.35449419635009677,-0.36633304566016395,0.20045315785048998,-0.09885763164697312,0.22106428707572354,-0.31029282145785636,0.17867690208368012,2.449262699134682,-0.19159839080290395,-1.1719622170713335,0.9553314473960552,0.097274964895244,-2.1929449391835,0.5842581680550861,0.140625
0.13237531975346872,-0.40908868308995416,-0.020870215548649495,0.1413624387880082,-0.02515173587446584,-0.15441224275081647,-0.05308497103533444,0.7234741921635668,0.12898405157325532,-1.1386437969584289,-0.08858556821268988,0.12273055308845383,0.09759983393988467,0.5446349376789579,0.1484375
0.7525547243438594,-0.8630150284235101,-0.3237012559343925,0.5307130322689673,-0.1423102588419767,0.15215975415860017,-0.15471071578306517,-1.409316423152011,0.19693339594732395,0.14255740049614937,-0.696885371972515,-0.1401237253007459,1.4381376971234099,0.5186966392214395,0.15625
0.717930466924905,-0.978361919933053,-0.35055859507077836,0.5577429220279088,-0.09238327301612372,0.22636747842471003,-0.09556863759384085,-1.129553381182975,0.09460752748269963,0.775067867484934,-0.5821245717027919,-0.19986607709929433,1.1708279925272598,-0.1134586399828898,0.1640625
-0.02650966141804926,0.17782943861425113,-0.04705212135134494,-0.01534399603370196,-0.10364517172841628,0.06393068234435985,-0.08111393370183069,0.20055925548120843,0.1342974106574814,0.13606331279127915,-0.5128504062648833,0.14206036542092287,1.10291553307313,-1.1709383256338517,0.171875
-0.6294272469918015,1.6713136763154202,0.23337226451953808,-0.6223357745512308,-0.1946269167836936,-0.018542117812251693,-0.13848431774835376,-0.13212301833469525,0.23902148451569943,-0.2871521633126727,-0.6619293918930633,0.38645381705785314,1.6185888093930105,-1.4637145490166799,0.1796875
-0.5603932309041632,1.745719234150071,0.2351108669987696,-0.6328129496120802,-0.14822578855663027,0.05002370924661168,-0.09277410210652554,-1.1889814299402348,0.12357444553254118,0.24605342575033795,-0.40456666819740705,0.191713627778216,1.133377052200949,-0.6982750487817018,0.1875
-0.14026209041356136,0.21096008580705575,0.05844203727927431,-0.1188297114712219,0.09956923027056756,0.0758432232524615,0.1093856896670733,-0.419389739576373,-0.20515707455471147,0.8505695932433066,0.43235975209219507,-0.16884554769506907,-0.8667043029845157,0.08012494143209034,0.1953125
0.058829172526749615,-1.1386481133115527,-0.04916490905617499,0.27593063263773304,0.3217183668502916,0.01487040278720555,0.2914125367793474,1.445016869715108,-0.45689424339459567,0.955230421831816,1.1397739689080906,-0.32184603936726125,-2.622364889484991,0.08461902827353326,0.203125
-0.16453267523722387,-0.6564996736937021,0.04814944538817461,0.07307730704358689,0.2743576136724699,-0.04305978210016016,0.2544449825791848,1.6640237759477512,-0.37867198376171207,0.5854511995127388,1.0070821835410737,-0.1728330273459705,-2.293120360026549,-0.19735283097407727,0.2109375
-0.3723344393753531,0.7569199090360547,0.19532837224558,-0.3495199123256879,-0.007616208876112735,-0.11074046503012461,-0.00011778085243073148,0.08037665311772968,0.02083018861499914,-0.5060656986412826,0.12756308955379222,0.13061046307243407,-0.18257174728517864,0.2183487431400204,0.21875
0.07191094810936303,0.6373637561392663,0.06695760429274658,-0.14273261474715446,-0.2363763106858918,-0.17012220920627877,-0.24570071670640564,-1.1023759138311702,0.4089677941698411,-1.7862134848603557,-0.7140937541254623,0.26098256687188975,1.637813180403094,1.312937063035312,0.2265625
0.8558349045085922,-1.1122794742678055,-0.28721890683085927,0.6029943349266206,-0.18908858615037902,-0.08991650640809971,-0.2395385947284771,-0.8682002276011145,0.38702081649162723,-1.6072973736959286,-0.7688579866470342,0.03008061013919888,1.5266915277318305,1.7582124298798172,0.234375
0.7959565423685223,-1.7185683274486305,-0.34724731697774613,0.7377484079061798,0.04817493010807169,0.07756362739951378,0.00557683407257337,0.04035082888581019,-0.0256718922950894,0.15961898994355775,-0.026329919895380867,-0.25142756258823407,-0.158607236385173,0.6628844745641593,0.2421875
-0.22442730757217513,-0.17762465761422155,0.03281896462391082,-0.04079374170875626,0.1958044828748248,0.0986521590296492,0.20755880155714812,0.8766590919630128,-0.33905584434327446,1.3076863528604767,0.6650357805798213,-0.17206087027281503,-1.4683148563460406,-0.9598709249062798,0.25
-0.7498205720748516,0.9836657916656482,0.2604875310264471,-0.526449001020454,0.10583252340160948,-0.003363041609809677,0.14441014924759918,1.153112230864946,-0.206497736179836,0.714370404661357,0.4437180280297457,0.11640410089689718,-0.8697713095919698,-1.5638978593019133,0.2578125
-0.07216036619732111,0.18858356673004928,-0.021396837640870008,-0.041846417056873635,-0.08301987928574409,0.03663941058690398,-0.06355581191570037,0.3646143297642743,0.11287112068769038,0.04896549377223015,-0.41443670706923946,0.14766408926532737,0.8875014253715015,-1.09009851035565,0.265625
0.6624155218102822,-0.8224585680140686,-0.33081934623118553,0.5029667682469512,-0.12954381813483165,0.20663953872706559,-0.1282530661244189,-1.0427317564285428,0.15534981961464558,0.5813386836377237,-0.7210124254816335,-0.12385665351024212,1.4815221733898345,-0.2934888733791999,0.2734375
0.5187441998748559,-0.5728957809060367,-0.2184760039626512,0.34767696828403183,-0.009450659886395813,0.20077394911385743,-0.013431161243726801,-1.6606378974374247,-0.053150166845632854,0.9644697425408655,-0.10382645121652025,-0.31047739197394686,0.2323360801440661,0.6759749322427822,0.28125
0.021036826892489903,0.23998693013583228,0.06534537736679125,-0.08594173756099754,0.027847796606870763,-0.023858994922877467,0.017745591343862756,-1.127294257588716,-0.05668020812945306,-0.08321187771525516,0.2792544339944278,-0.1363288990926911,-0.5113295908178456,1.3731548191030434,0.2890625
-0.2977197457380318,1.1354967920939538,0.19305394110461127,-0.40536197217566083,-0.17194539898736533,-0.1470443294514022,-0.16004849142662747,-0.6663831880314803,0.2759060413446481,-1.2466485593678671,-0.44837633996197984,0.2814904309744453,1.1172894113543197,0.5419869306502019,0.296875
-0.6281580529083252,2.132878105145218,0.2477039935726443,-0.7238525004971257,-0.3461143232607115,-0.03734978583339982,-0.27913645688012395,-0.7541526227552501,0.46289529206505786,-0.8320511010453234,-1.201259445777452,0.5410205528476016,2.8474397834260743,-1.4291412170642819,0.3046875
-0.8524377361264136,2.018043685208955,0.31711053112256676,-0.7987177417160893,-0.14083122947803575,0.01217629460852567,-0.07127040730069403,-0.13973860706372512,0.12270171321301693,0.1934129871776774,-0.4187030324647273,0.34920480080786953,1.1496344680138058,-1.74179833844993,0.3125
-0.5894519048957593,0.15748777423359853,0.3055403645061198,-0.33457329000038105,0.30635849061135756,-0.22274844733835705,0.28220153545977045,1.694946796687271,-0.39679567477494193,-0.22554936634388098,1.3791963301562546,-0.06612863257117177,-2.9870423412965064,0.6961165850940818,0.3203125
-0.1254354388244148,-1.5175623003426097,0.2019357403501534,0.19743123827924974,0.5035797717365339,-0.47566348625619476,0.39435038720043014,3.098186487329165,-0.5187282536660489,-1.579420482662624,2.1598088505126007,-0.21835621849901501,-4.926288575537116,2.8076921783439412,0.328125
0.1667698988151361,-1.6265134196866606,0.014141725436679917,0.3921850220932064,0.31033021368053887,-0.3414606289446361,0.22175488594539577,2.6119349489528245,-0.26044630773539545,-1.4308424230372667,1.2352880723687567,-0.10582469368842518,-2.953625235482489,1.7672162252079842,0.3359375
0.5612336948130014,-1.534969538840502,-0.31456957585315465,0.6281531140729859,0.05664831691410393,0.10922792884595747,0.034830956823941744,0.9651840970055356,-0.05285237052379152,0.5263563433585322,-0.09293057697245469,-0.14162142508884662,-0.03500954471542505,-0.7103834538588651,0.34375
1.0261552408190417,-1.8966602944150188,-0.5947783982904985,0.9516639402497588,-0.053835277660635665,0.42567074204019734,-0.04794133809316282,-0.45542599238438447,0.0022717296585590884,1.977960441969122,-0.7435488547271137,-0.3205364726966666,1.374169979468684,-1.6446608293796168,0.3515625
0.8893376139534479,-1.1676684426706254,-0.5146772039139629,0.7205820057457467,-0.15512631931526374,0.43443557450161424,-0.13110344088524561,-1.3640182863182302,0.11890896365693777,1.8314604869263,-1.0325938351094865,-0.2402882315259374,2.118773091414883,-1.5056081370584304,0.359375
0.22514808890673038,0.5846583323610088,-0.21202573502230784,0.032168526376172873,-0.2843367091091335,0.36757594772110275,-0.21713947006970077,-1.9250036629282252,0.26446968103426494,1.4351657011018633,-1.3148214260360174,0.04245052740629103,2.9605001720039232,-1.958054633614776,0.3671875
-0.12357264498461762,1.2517619527545718,-0.03710942692919029,-0.286959312183022,-0.24790257338222013,0.31154674493511464,-0.171197230394347,-2.0083362104361298,0.19505720111848673,1.3894463344317758,-1.0340237261735123,0.07598419800865187,2.4526853134996704,-1.7697971833503205,0.375
-0.17374408734798064,0.9066134431987326,0.116484878513157,-0.30599525841766795,-0.03988498650733934,0.0661165590756884,-0.018085080414151303,-1.6839098900791905,-0.021638869708752582,0.42980652856465695,0.024726434252104683,-0.08431371285673803,0.14242312869266965,0.638793965270137,0.3828125
-0.5219616117351837,1.377503143350925,0.4268275623263983,-0.6421615954234416,0.0405077992854015,-0.32062833747802355,0.017261717700751984,-1.217054795695535,-0.013343013235118495,-1.6245436320509918,0.7123706307967728,0.04865148617565205,-1.2917263292333239,3.0071392374875066,0.390625
-0.7828205438587473,2.0287942913498056,0.5345394653456871,-0.8845926429678734,-0.12778571575901812,-0.46591785609268443,-0.1388228830503417,-0.5126333093404344,0.2915252304693214,-2.8809610974786777,0.09413916627229989,0.4411209751380907,0.06296824064803874,2.338961950131488,0.3984375
-0.42407843291390224,1.1451773694009397,0.24275123446858674,-0.4519550898483748,-0.21841760422050638,-0.2940956833151903,-0.2141094283989341,0.5250808425813525,0.41994313743794437,-2.2492382614119433,-0.6424206294420806,0.5264558016267816,1.4723952214730656,0.16070332079348715,0.40625
-0.21033318016253996,-0.10032435743295723,0.10104467645270439,-0.07259402348457401,0.07063838895171992,-0.16502511495471803,0.0545324991179564,1.4263348268720943,-0.029961052083863866,-0.7396467574883875,0.29889785251608797,0.13075609487017614,-0.7163156075789263,-0.04736525253447825,0.4140625
-0.6254231191888515,-0.08459890305350484,0.3336369166959327,-0.31525621795508946,0.4803457314152961,-0.18334826585419728,0.44697666560291566,1.6629845989461232,-0.6813371467738397,0.5343418402809404,2.085564766461926,-0.30966380894763545,-4.513822582635028,1.172716747398894,0.421875
-0.4003927750121687,-0.47088652521558116,0.18782149175342527,-0.10766670055556644,0.4774635029333177,-0.034330528765173,0.45260855159427177,1.3802445114633508,-0.7205898234731565,1.3477788000132391,1.9346888004974674,-0.42689888291103534,-4.224078471665522,0.6064361650290074,0.4296875
1.1012953968499615,-2.714003877668785,-0.6378316528843317,1.1761783660120748,0.04915708303470089,0.30914940180461453,0.025584667678998724,1.229725030344033,-0.06213996007003374,1.4638245817521802,-0.43991483658688735,-0.2848087645433592,0.5473438707548602,-1.7631983861166196,0.4375
1.9995647435029598,-4.078330744767352,-1.10480239742391,1.9407243235852474,-0.2343448175803948,0.41584685801281746,-0.2689667739453944,1.4360709769645048,0.4192547944608901,0.8241361565107892,-1.9262111569527223,-0.10353306370398557,3.5203606908411964,-2.838485574031788,0.4453125
0.8095125271588375,-1.7878331548134618,-0.463787561672167,0.8273566500716558,-0.1003253229605022,0.146910662933163,-0.11583238473251517,1.0938128352420275,0.1982126694711252,0.1802272536794455,-0.8502321138257936,0.018586899430299376,1.5326594635254762,-1.4864382032300485,0.453125
-0.8539917661127051,1.886508936477466,0.4229973281373097,-0.8334526756779637,0.02620003362967977,-0.09215035209131056,0.06175855538066004,-0.6836580262661076,-0.10235772166391585,-0.008248839337399214,0.44564228956913526,0.10901478055186892,-0.679429826337849,0.3021742310663197,0.4609375
-0.8737550784823126,2.8510852292380005,0.4712104289118677,-1.0712423415754833,-0.17980564732568396,-0.05012556658479098,-0.11997049962207128,-2.5669671144685684,0.14934894937148452,-0.2948777041796543,-0.20936648263971538,0.20758783942137257,0.9184718387060337,0.7658691000967198,0.46875
0.07019485167585733,1.1275524854530246,0.0031987119610648925,-0.22072460283136702,-0.35454589510414325,0.0339920794303105,-0.32253064388092306,-2.1191135289955576,0.48418892091409194,-0.8028321353991932,-1.2592370180818016,0.2617308632076049,2.9094471324636944,0.1854627237774649,0.4765625
0.09747177595114004,0.07802728623112892,-0.03964510459466502,0.035785904251653324,-0.13732563074373716,-0.041571642954846846,-0.1359440583982379,-0.0525121271537551,0.23365227897300844,-0.7043662866866582,-0.5528101699334689,0.1739978645715574,1.182463050715247,-0.13858773340800026,0.484375
-0.6750715598795398,1.0812550285957974,0.34834127132211845,-0.5800732609083515,0.14953298839270032,-0.12182055010266685,0.1585868793074568,0.06951691625791036,-0.24365764765522266,0.039104758227352994,0.8573844383597371,-0.0168001417816049,-1.688483614052556,0.6210939034029213,0.4921875
-0.7380233917978467,1.8895916785326632,0.43567830877603464,-0.8252580868954433,0.10069593369080092,-0.050882856682163934,0.12504774360631318,-1.9878712235864116,-0.25091824606908736,0.40297757434732323,0.8679191384969904,-0.14673068049063698,-1.5118838347102832,1.6872261388408494,0.5
0.09969881382566442,0.43458578820530436,0.021819750943364576,-0.09134007215290176,-0.0374920560145523,0.06814743145313124,-0.03358684113022706,-1.9715932952480155,-0.005782700375018982,0.2826704093647931,0.017533583995804694,-0.1703906435371325,0.11109484575031256,1.2733327118245719,0.5078125
0.5421866262934663,-1.8056440278940553,-0.3001466629758496,0.673523762557464,0.14567099777014883,0.07310301759297472,0.11161096268472415,1.4819571911093374,-0.1640125825664529,0.5476615912643712,0.2502660700598514,-0.19914931642421935,-0.8219136812430287,-0.5325110282811257,0.515625
0.023658780250667227,-1.9853890363832312,-0.11143505606583645,0.49022647153295396,0.43910152251246876,-0.040820728933174164,0.3958016035230991,3.876793413310618,-0.5609275301672952,0.9348786414556242,1.3746526758859587,-0.23517016261852602,-3.3413685404600035,-1.255460752287025,0.5234375
-0.40662578592806764,-0.40681064153780766,0.16581194606729766,-0.0968637212174498,0.32321284555441926,-0.13072063143464846,0.3011165996911992,2.2243537669822935,-0.42876469242472975,0.30028212817834027,1.264211673275619,-0.109365720737727,-2.8367765473954454,-0.16063203099891918,0.53125
0.15601719110760542,0.13899486887683632,-0.04081265773237654,0.03900314793613644,-0.17607926646412606,-0.06668666196276002,-0.1792772625425807,-0.3991315120865448,0.3003948366919961,-1.0050238586301246,-0.659929382984905,0.191414862346167,1.4320645435723147,0.26864148018199363,0.5390625
0.8920431440372135,-0.6750773884902814,-0.43222366400886975,0.6043419896134357,-0.4864054182227332,0.07304713609156792,-0.48404853546105225,-0.8037251662288294,0.779761614692808,-1.41274801437578,-2.1772558730966423,0.3762987417360227,4.5697928577938995,-0.8251798256476233,0.546875
0.5923179686271973,-0.513479373140746,-0.30188026354249026,0.4206138893735179,-0.2968269851904579,0.08514984460117034,-0.2920735716880823,-0.49704484765977996,0.46415046126431664,-0.6292224036756967,-1.3729155905890889,0.2055877375619354,2.8725347646016006,-0.7384536175759386,0.5546875
-0.16872180234528678,0.6226649194555186,0.14382224044492614,-0.2594288669484613,0.06140835161962817,0.0050409040008273865,0.06392535764134363,-1.3562368442789274,-0.14340426305991097,0.3161159506550239,0.46106695446551627,-0.17247420778010422,-0.8355898924680611,1.2602095734875514,0.5625
-0.03957946328961261,0.28609518495901143,0.09680691129716634,-0.13981116925782053,0.1523453363398163,0.0672237902600855,0.14657641219589265,-1.7004077618991749,-0.30188182318246143,0.8935847624006734,0.8073465496899698,-0.3733386163216246,-1.5945063122569991,1.6988847506668232,0.5703125
0.4489789647987061,-0.9773408554530614,-0.268562793241411,0.4522334786389635,0.009689270673077397,0.18701637559470094,0.009909953506786837,0.08591211440246097,-0.04350167263704849,0.9587678368482431,-0.22276132667142173,-0.15979906030376329,0.3529958246791376,-0.8329274735889147,0.578125
-0.23737810204897541,0.01219609530188339,-0.029182546189665377,-0.030366798054659312,-0.08001208885105218,0.011332885032129298,-0.05054530878447903,2.081362660001749,0.14193961872480998,-0.026942701150432718,-0.568155413543991,0.34044754064081445,1.1124703900565271,-2.6765262220733455,0.5859375
-1.4544140268655323,2.575417550307709,0.648550885766342,-1.2175124204994616,-0.06525662212818596,-0.3644451965550165,-0.019521270134955408,1.8052354152575074,0.14382334768631752,-1.6718579048718982,0.09770623905047136,0.6702614541448634,0.021549544061406523,-1.1693335037603534,0.59375
-1.1740967656414016,2.5576582721665995,0.6567910769161212,-1.1601578688752696,-0.042886402732306025,-0.3974313267749903,-0.02645848237814088,-0.1800077195986351,0.10455128513260258,-1.9715833449925053,0.4220707896706346,0.4143867999620493,-0.5802316840007269,1.3781073763392984,0.6015625
0.3372911886218249,-0.25241352170245945,-0.05658368731923284,0.15495328398219052,0.030412560686501916,0.024779711127551937,0.006535563642395327,-1.6565442436669735,-0.061390862184632064,0.05697026067304336,0.25351021118657985,-0.2682074759456634,-0.4936717343428217,1.9254261565234896,0.609375
1.0121764480495445,-1.963837557481254,-0.4735892054475497,0.8837886640623707,0.17881752752722355,0.38426856036017665,0.15339493601751694,-1.572622842820632,-0.36242530969728703,2.377256266362296,0.41712663086319796,-0.7188097549930972,-1.045264887122942,0.7299150053081563,0.6171875
0.6402454096030809,-1.73610722284021,-0.352993004419787,0.6876678728042591,0.25170015479823493,0.3235940297379904,0.23591901801520543,-0.22029605188892618,-0.4544869492272944,2.404414566371165,0.6744982803358913,-0.5989139834660092,-1.625252947928577,-0.23026127089137247,0.625
0.5345086027795088,-1.837242377463376,-0.2722678488614653,0.6625425280819107,0.1888107531177184,0.045545400792643166,0.14649455462948135,1.3839712760880334,-0.22180820292573494,0.5009669939309325,0.4695926688382718,-0.2558597272485164,-1.286772162359099,-0.0580122605102303,0.6328125
0.4737441949727879,-1.5690068837487179,-0.20357299072543475,0.5649288628327266,0.09015188238304184,-0.10682633789989547,0.03843145675095454,1.5786208477291723,-0.012658862473553445,-0.715382952010506,0.17683266882794113,-0.04208959966612226,-0.6464947382185039,0.37344723730778245,0.640625
-0.4362503567459542,1.070187682684249,0.19410374348539935,-0.43365459837673587,-0.0629519881121707,-0.0416981103714855,-0.0359581254512358,-0.23747558207016825,0.06398431959984185,-0.17896839157183203,-0.11222652012830482,0.1670955182846364,0.383668105128047,-0.3418038533149953,0.6484375
-1.209227138493833,3.4550344905319994,0.491825139812887,-1.287383799304132,-0.2869930796260532,0.05690817854549285,-0.17682265790456417,-1.69285145724899,0.2570691557529925,0.2890531433121019,-0.8022222192340402,0.4651638711136509,2.215416948721927,-1.7773869181246782,0.65625
-0.6434327002075497,1.9968712535380377,0.23837501000180875,-0.6919476817697663,-0.3273609876209046,-0.04710369488460419,-0.2617724409468645,-0.30090011843145104,0.44711856745133693,-0.8332586646051519,-1.1696191438404149,0.5628308066096134,2.742413840445999,-1.7121022526055643,0.6640625
0.23690517132804143,-0.813360367442635,-0.08188546493991099,0.2972633367135514,-0.08359741035296121,-0.2501432903442836,-0.12468641899376685,1.7961037098352197,0.2908647012083013,-1.9842380777642261,-0.4081915751084487,0.30824825837941294,0.671940098309271,0.146693037760506,0.671875
0.19322591240653939,-0.6231855415462381,-0.011611392466016966,0.19277893949891248,0.05847099482257352,-0.17328661241234092,0.014924303218372362,0.5113438557489564,0.010320503455462806,-1.0631316299178892,0.2951569997583053,-0.01576492169396677,-0.732782995009212,1.3439168977198581,0.6796875
-0.041990605517539865,0.9901501729362984,0.0803408171247069,-0.27807274405722304,-0.08035557227722223,0.12140375235790976,-0.05648505025884475,-2.6490040711487306,0.008998600358041158,0.5909133879993448,-0.09441568925077769,-0.16193368670332844,0.4509589075669057,1.1178387576921438,0.6875
0.30281990612071985,0.13284662034236164,-0.07103479822104902,0.07205611978338963,-0.07745606358999617,0.09375504077341455,-0.07860396461556038,-2.0990350000628273,0.06191911903988278,0.21451616685363092,-0.1960052081184836,-0.17832737512932598,0.5315585403919438,1.2900675611688484,0.6953125
0.5588338210596082,-2.029192218557584,-0.17728990906546493,0.6716402480953697,0.20289735468856113,-0.22817564414772562,0.11645468188445719,1.9153263874285458,-0.11953643980042172,-1.2375286594903514,0.6975461879607014,-0.14181547606789555,-1.8300067629541377,1.602122351020201,0.703125
0.43352449564115814,-2.141630742783312,-0.21729542349305772,0.6867451500665658,0.23570843906799002,-0.13220576774814616,0.17080706910621649,2.9119496238787606,-0.19690726323050597,-0.462392446332894,0.6461268468404633,-0.10212749590758471,-1.7770179256609546,-0.05318350805449891,0.7109375
0.5017252747859812,-0.8152961891635617,-0.3822295176419679,0.4846601236838033,-0.0776675524958402,0.4015231975829653,-0.03999571358774858,-0.3733934994059745,-0.0010903724244203854,2.061949653372669,-0.7306160140998886,-0.16491432611564374,1.4782414135744968,-2.341586780237297,0.71875
0.4387562094547729,-0.3347360987232111,-0.33942386166530614,0.33582210339570584,-0.09558044940516573,0.4787846018550065,-0.042563302349743544,-1.5105065996534592,-0.03710947931677633,2.5561794022565345,-0.7150503925471333,-0.25553946745953976,1.5613765870915037,-2.0400745884482756,0.7265625
-0.4044720826794999,-0.12452278487824589,0.1652237339714779,-0.16158273423577138,0.282228234509945,-0.06471380879317062,0.272813631581992,1.4608244209933288,-0.4101602470163607,0.6138991145424356,1.1320637855399622,-0.14500965534611973,-2.482779398974416,-0.13381964900862015,0.734375
-1.1375929310532498,1.1675196301022575,0.5470031918699491,-0.8073686811644959,0.3276383857950292,-0.2885123459301073,0.32609658215282117,1.9263904527138558,-0.45092072747007544,-0.26550471850667323,1.6026822479177092,0.0603911778071987,-3.348586001541288,0.340890890037637,0.7421875
-0.7523757458904878,2.4455039579678632,0.368572915049232,-0.9089298339591255,-0.11064968307041882,0.08477080444419724,-0.044379175381047305,-2.504334522640813,0.003618493079933659,0.6971092225647685,-0.07093463136343586,0.0505461729555184,0.5742943165407238,0.1670135029346243,0.75
-0.1542520911545827,2.091983479215308,0.14560392577537767,-0.5743404471381226,-0.3036089816847706,0.1690397069332334,-0.24630337915625136,-4.2467545879284785,0.2819028898501017,0.355903999663126,-0.8468279460543415,0.0031414888423880244,2.258308731164491,1.0647014976915794,0.7578125
-0.34167794199059176,0.5930158602315883,0.23482736961529574,-0.31551282209734777,-0.04581060373362396,-0.310468425881216,-0.06589601200957737,0.7584425359134768,0.1768175621413353,-1.9163491635622183,0.05077704865067326,0.30272679773477096,-0.07601831718220765,0.9526343249978789,0.765625
-0.41890577133802787,-0.587511437056304,0.1427274808364597,-0.01141171086613744,0.04076259187626721,-0.457907420870218,0.002809165061851007,4.843386930523452,0.1903042422351385,-2.604271317221524,0.0330532775690387,0.6183841724765238,-0.37819960351303,-1.4145608782419385,0.7734375
0.4429031216658409,-1.0258720855488221,-0.3184405346786362,0.5106980936180777,-0.20445387298227422,0.04381467881638004,-0.2012028706598189,1.7155959421604337,0.3765044924274292,-0.5679999509316097,-1.20438292194193,0.3247174545389521,2.347998275484284,-2.2390704876678598,0.78125
1.2078347401079865,-1.2190198197334403,-0.5244858698902787,0.8149041187395185,-0.24091586590710398,0.30663340461237987,-0.251108795627012,-2.7809604427540293,0.29868378444227933,0.5942962067720077,-1.159240776673107,-0.2754738082743684,2.440356085854765,0.7896812534586345,0.7890625
0.8380553398035351,-1.2674584784574774,-0.1998537137480471,0.5722471042333362,0.041715279005632044,-0.09095820716271039,-0.032594712806847496,-1.656009178154042,0.016189460771717908,-0.9472379299031296,0.3052615329044864,-0.3485896183700601,-0.7354899442792082,3.5047032121561603,0.796875
-0.050980539623673486,-0.5586023029969559,0.14752698839096223,0.04163606365035507,0.17258758924940498,-0.3537730727120204,0.1068362988920686,1.345673743568903,-0.09622184030676903,-1.7600817413895002,0.873072831136465,0.014924971826744148,-1.99496330078286,2.1121370026098933,0.8046875
-0.47002549394239335,0.7915770410205065,0.16852005459803218,-0.37499586776500904,0.06033266053154053,0.04806089068963747,0.09170243008428587,0.13302077056998152,-0.15383921061797587,0.7539235091123325,0.28494434499856913,0.011163620419818962,-0.5081794187421479,-0.8353863747255583,0.8125
-0.3050003098119326,1.1675695794990886,0.02195027267210714,-0.3670252271434776,0.05069542312024243,0.49579119697147517,0.1364247967032227,-2.442606631680772,-0.3603965466017762,3.5162951030574883,0.1488579305074215,-0.3894978410777839,-0.03888312756522348,-1.6331170298283375,0.8203125
0.09399249648732616,-0.16289690504905907,-0.12934813428113423,0.0996860170144002,0.14818126469843995,0.3813152324815902,0.18405944897462945,-1.2074251495242705,-0.3960189128861643,2.813939372146239,0.42225098886729295,-0.4543949678758549,-0.8458239316565974,-0.9474132489185939,0.828125
0.3063421485542122,-1.1640096888602602,-0.19296471396736056,0.4273292856963026,0.07678714798971482,0.032228777410257134,0.05798151688787532,1.36320530299045,-0.06865712430103832,0.2342925398903942,0.05837589888094698,-0.05504600849045064,-0.32975784394130975,-0.746564686818155,0.8359375
0.061987670258770854,-0.19804602867098137,-0.06014970604658631,0.09982278675523658,-0.09511811909222118,-0.05271172923904258,-0.09557073607584603,0.8679103396426784,0.19165487977424678,-0.6457133130130314,-0.47655293940788357,0.21088924642171322,0.9449646925415708,-0.7533402831407895,0.84375
-0.2588956072170649,0.8457869303446413,0.10450411151643824,-0.2954765378355032,-0.10980996320204535,0.0026713137778750532,-0.08281002163287925,-0.41950874807136596,0.13109551774590175,-0.13361839168523454,-0.35887175194431464,0.16262925741158643,0.886862848003791,-0.4737625990498842,0.8515625
-0.15418977003968032,0.0456974588397167,0.05011169173695124,-0.06374085751234768,-0.012779471808330405,-0.0919762751573115,-0.013609788771768123,1.0324034522163874,0.06456198823582983,-0.536811381354681,-0.07599870244484554,0.1720775146761139,0.11675787603185497,-0.5314512482477709,0.859375
-0.0372727695030315,-0.6936950004503627,0.0019443024109116783,0.15906861936186142,0.0297404381360122,-0.23863557618329204,-0.0021557212693842464,2.559240231254208,0.10459399148552143,-1.4350071137026443,0.012284764917075504,0.2765789383333742,-0.23790264125935673,-0.4984557043726554,0.8671875
-0.43603551371128163,0.5799364847272855,0.2641571028295938,-0.35695634111353997,0.05207593785736876,-0.2636427020334614,0.03538561593256464,0.8248804122844939,0.0017278330778217044,-1.2879961031674727,0.42975563263891026,0.18061476336280144,-0.8841194279168593,0.8591643138024726,0.875
-0.7300858704046467,1.7340219793962557,0.4873910603650098,-0.8057482796967594,0.08978132991859342,-0.24113500699875096,0.08665853037048787,-1.3432717679764146,-0.14313459278632848,-0.8528303212900986,0.9052650998165981,-0.012534362085544865,-1.647523302134087,2.471519022123316,0.8828125
-0.2730460674896277,0.6228754711602885,0.2398377965911401,-0.32259661157911146,0.05688540915427093,-0.2032226937303243,0.03603911689748916,-0.5067994180383758,-0.044285284396146825,-0.9762380578946863,0.5366957563329635,0.0005480530401840994,-1.043233952809816,1.8758039480645983,0.890625
0.29557869601542314,-0.7570050343084166,-0.15411595868799413,0.320096505803299,-0.027028412669995512,-0.010300655852858848,-0.042718781679646385,0.7259425962609918,0.09057271767344933,-0.3165793396954554,-0.25592989868004556,0.04418258661328049,0.41413520109155527,-0.32675469551778275,0.8984375
0.42145234645563323,-0.408929805214959,-0.26266610568105236,0.31610858534840275,-0.09450702503288755,0.2808489013097064,-0.07014879662623603,-1.0470056728660628,0.049085592709333534,1.2955658659564653,-0.5923304183443582,-0.14641877746874735,1.2623495390530546,-1.0038565040659293,0.90625
0.6896837099261941,-0.10330308524954109,-0.3238755762229585,0.33895201871631564,-0.2142370199894634,0.37653190947134946,-0.18464170675942645,-3.2308210523386207,0.16931070426708908,1.4251152457493403,-0.9500098806159263,-0.2684101737380143,2.161485473772205,0.1131483646949181,0.9140625
1.1094803002317404,-1.1714666119790762,-0.5020866309915724,0.7808568685007301,-0.30717250277778807,0.21293660307172843,-0.31687435391494573,-1.808088286845135,0.4494407338982879,-0.14034426481950618,-1.4607756212468552,-0.04727723342398715,3.0390836933368837,0.16193710941152017,0.921875
0.544449107445701,-1.3837139784023118,-0.318951167460751,0.6052016948221498,-0.07256463336904237,0.03885007105522997,-0.09022670897968971,1.4137963764397616,0.1803399447649114,-0.28127756605815163,-0.627517239817392,0.10004332064968652,1.094289969984441,-1.2018478014299647,0.9296875
-0.856287623924168,0.49987738815099936,0.31375872870205024,-0.48497734545546495,0.36112714028824255,-0.01817219252570902,0.38032712432174526,1.9216591899778417,-0.5821540058629071,1.3933637148684457,1.4507528939954053,-0.13256747700555957,-3.098503699680662,-1.1469121219427394,0.9375
-1.2061625951336148,1.7632198336036446,0.5702587755851566,-0.9842904427660398,0.37728878675123884,-0.04557700556352744,0.4082900216898913,-0.07047593705920838,-0.675561487929127,1.4769414293088803,1.8678062433845084,-0.2529080123621771,-3.7350697674226847,0.5073916198633951,0.9453125
-0.043359796396076615,0.3846716238788793,0.059804194425162556,-0.12168432346188333,-0.06078334303556665,-0.04463876073265549,-0.06004932500661186,-0.6099908234507928,0.09218717229922502,-0.4330610871705705,-0.12874680800442326,0.050210612181307866,0.3468914592105358,0.5695832324787912,0.953125
0.7272351686140694,-1.4706417931076186,-0.402276141303683,0.7175341032217128,-0.2023414012161024,0.02992135747794894,-0.2202905581836893,1.2726886703834304,0.396435100852401,-0.8167484045576018,-1.1814062789293003,0.2278343498373441,2.2626080921960274,-1.339742110193387,0.9609375
0.08450962645986779,-1.1779914957320077,-0.14891003591727817,0.35515648846596076,0.149298848641856,0.030199889188404126,0.13919410429307838,2.484641095350878,-0.17409254782584596,0.5504239747671346,0.26334643957476794,-0.005318018919128409,-0.8167679934338119,-1.733249573078227,0.96875
-0.6281733572368368,0.5039493738002258,0.31192844243125456,-0.4244918079363563,0.2548300809022238,-0.15725837551578978,0.24696622286977102,1.0816120460224798,-0.36222224948533965,0.08067257259311748,1.191105074784574,-0.06543901937294631,-2.5152139723790987,0.4817551791908953,0.9765625
-0.3929499010321715,1.3869098205283463,0.33442301347957937,-0.5559533508658052,-0.12041009530631575,-0.30246606869592874,-0.13262144712865145,-1.1155311703666273,0.23914390273265354,-2.0266116508563954,-0.01876588936846057,0.2428370135095607,0.25374854987222584,2.207483487375958,0.984375
-0.060265250503275615,1.1115678910916322,0.14630658242257807,-0.3195732108329761,-0.2507814705459958,-0.16598247290181528,-0.2509944165285682,-1.7171593256154718,0.40205910905127584,-1.7127905831318764,-0.6736514134925659,0.2510343324289029,1.6398141043082013,1.5986350295383702,0.9921875
-0.2867109025149102,0.7462993119193315,0.14435648089235176,-0.3164823857973271,0.07222440927087628,0.07700375626314014,0.09286836656532865,-1.069845267996003,-0.19338751477831037,0.8775051186257932,0.4285876093905463,-0.1605400454761827,-0.7620093060820182,0.3480334188250169,1.0
-0.29229778889251845,0.6723789070609048,0.11462940683591365,-0.28974188699384795,0.09802555076285312,0.14432636015610031,0.12701823593055162,-0.973348614641657,-0.25768622068761937,1.3811055251410653,0.46603512465618085,-0.20784600195634353,-0.8527173053740317,-0.13127064900696406,1.0078125
0.3587758022133895,0.30310296421674937,-0.17476171288204678,0.1202497593143428,-0.3481163248984096,0.08936592771724411,-0.3247296456960141,-1.3564449563562075,0.4981513956507873,-0.6094914529962756,-1.4356626384364513,0.24416714026911443,3.146261387584502,-0.5110613815282334,1.015625
0.7434289256634209,-0.6297052019854381,-0.37756806624765943,0.529586512497925,-0.42440897387566706,0.05697655538669965,-0.4203712012042478,-0.326847427274574,0.6884872377855406,-1.2691791238823709,-1.9345225283618426,0.3714178736988281,4.038232988819322,-1.0442765105355742,1.0234375
0.3458764377492797,-1.6166174354462537,-0.2146110834821028,0.5480051613823562,0.14365573941839038,-0.024490530273332072,0.10870304975343356,2.238345089327484,-0.12366245358843657,0.020753511106171286,0.2693004030219038,-0.05595090780195963,-0.8761535290442708,-0.760699913468985,1.03125
0.13218279928761967,-2.205909484119628,-0.08047874219763831,0.5443420574540107,0.514706739255762,-0.12480895263564534,0.44309046115916406,3.4362994617968545,-0.6420245816921526,0.541616949362824,1.8026560750117289,-0.3721497408048964,-4.258187587797254,0.27069370585483765,1.0390625
0.751491224847518,-2.298900490446849,-0.3417366866852069,0.8487694424500898,0.2217211083424554,0.034042651562602846,0.16045366708106595,1.263682378263627,-0.24889902868161562,0.3914453847173939,0.5912988989008744,-0.3522413494956096,-1.5977162339363467,0.5764971061975206,1.046875
1.0927607608404502,-1.428618604601609,-0.536891555164877,0.8341366139589373,-0.1254699723880846,0.39109384090016563,-0.1252362992137802,-2.041953506283657,0.09474505348535221,1.530035756418554,-0.8225431881745328,-0.3690976110589088,1.6718803970314393,-0.16644951697162924,1.0546875
0.012422116849942919,0.833143382685766,-0.050059335016981336,-0.17594589891960952,-0.03803711722471261,0.39281546132573925,0.019839876062913826,-2.878903279707549,-0.16374253633446148,2.431477216527541,-0.13896871277166856,-0.34030849398266755,0.5455081058376122,-0.45048692883649843,1.0625
-1.534399119871199,3.219441904542866,0.7422557418795248,-1.456628505516525,0.11594838751418562,-0.1185516314105091,0.18031580353436324,-1.0984953493128693,-0.3046436450996979,0.4856583640935864,1.0312093051061095,0.09962814911545434,-1.7345681505256842,0.37216579756468626,1.0703125
-1.684704570627053,3.3759012408382785,0.8762197295901649,-1.5660832080769944,-0.03880852059232954,-0.5122175475192784,-0.006859897222177099,0.5696952228242561,0.11135972346806698,-2.3971628503064464,0.5439377134204741,0.6196731104730887,-0.7726020985872448,0.8806898361578466,1.078125
-0.4380200512443826,1.147682679994517,0.25784392594879296,-0.4583653724830815,-0.2368127474735695,-0.3452654450570711,-0.237170232716275,0.7611888740108068,0.4724770566929256,-2.6209153654512916,-0.7021435063833121,0.5923143293164275,1.5854754420487966,0.22111224108209004,1.0859375
0.42640503766050125,-0.7268975068600503,-0.20710694248667924,0.37826989361819346,-0.1461318246344449,-0.025264110519463517,-0.161009888307395,0.48180216022017436,0.2851115322926857,-0.8247227749061933,-0.7364864287646795,0.1610108620322466,1.4465931193930879,-0.35021841260136294,1.09375
0.06935997544336196,-0.42287771555392867,-0.04311455941400165,0.1294171658164137,0.06954534581268215,0.002466177973690577,0.0598555176750546,0.5270044672117598,-0.0879146607434529,0.16427134096817128,0.20834488961413267,-0.06180928792511182,-0.5190300435164881,-0.09247659292618643,1.1015625
-0.423386118350264,0.5261610975343887,0.1775013289157944,-0.3095131293374406,0.10599168130091927,-0.02831131968871069,0.11871674196469335,0.4621344254606555,-0.18066182823128515,0.35655951999399443,0.4929389779461548,-0.005312224213278179,-1.0006756022037362,-0.28958424830710905,1.109375
-0.04218188888626701,-0.02815704496042777,-0.06773118688594887,0.025294564754302102,0.020256219005659715,0.1701843237846136,0.047778542960529136,0.17155203862114174,-0.09878468557777255,1.168330068882031,-0.07945493702046472,-0.05979893492910179,0.16432432836955846,-1.391201668220975,1.1171875
0.7014436921151666,-1.6345628054117243,-0.44790468726584787,0.7414375539147892,0.04315644321056535,0.3406579652617984,0.04839866663747206,0.3076774624651297,-0.12606961117501989,1.892991085177614,-0.2965686284920475,-0.28787311157251977,0.4235377473032723,-1.7079009771024087,1.125
0.9250506873255926,-2.3386178946926672,-0.4884210635290989,0.9702950304165489,0.12388625497927308,0.2206143334377813,0.08927686729737454,0.7243277585421207,-0.16988598073766736,1.2182838215994933,0.05128851437752571,-0.36576973073271035,-0.42555629427569197,-0.5368920895038543,1.1328125
0.6989539305081391,-1.4962502533954831,-0.28920473244137895,0.6407283781670885,0.025903051649557144,0.01795039519359589,-0.01743327428266278,0.12838869673893863,0.024315641118650057,-0.2213578373353803,-0.05996654150901274,-0.17367173299478963,-0.06522836374776046,0.7855754978907686,1.140625
0.5108252121381633,-0.1618894035345555,-0.12207506743937435,0.22625093587939993,-0.19372972684902387,-0.05899011473563286,-0.21914134453826795,-1.7055417459233957,0.3288965282021611,-1.2099445448275021,-0.6410605202646431,0.021896284220354386,1.4134027955483528,1.8106857757830475,1.1484375
0.3295976259315091,0.5091280723066641,0.03376964783806838,-0.04542193261698233,-0.2010988091368159,-0.13624739906340586,-0.22834124016618706,-2.667895587104817,0.3309818757322545,-1.6107712920012232,-0.4444108155609053,0.00804547085691583,1.1214600126808931,3.00075984817127,1.15625
-0.1416781877824292,0.5445387330018376,0.2373768484592774,-0.27352693573903925,0.04516520421261141,-0.25655897296120195,0.007850021882473352,-1.0443073778507876,-0.004800151321323651,-1.4217788790685688,0.5783589898149508,-0.04147358431728922,-1.1193470332093787,2.889341325041985,1.1640625
-0.8282150361976176,0.9937553548451649,0.3889036467017097,-0.6102859471988414,0.16739813909102555,-0.2107879734799317,0.1732687009721037,1.353399403244952,-0.220884324328885,-0.39798261433272686,0.8756402667358932,0.13565991005195516,-1.7992078086422996,-0.021501274466225948,1.171875
-1.2614142801720558,2.142603147623537,0.42329144326583706,-0.9776534909726322,-0.01409697312490984,0.007920595612268917,0.07120181061555322,1.450969136558486,-0.07146466764716386,0.7457754552691179,-0.007920585078801078,0.40650485854737545,0.22210609679551813,-3.1385006991875164,1.1796875
-0.9564374099157844,2.255666944938362,0.311451383826634,-0.8741498102840679,-0.16584862802518804,0.10249649178774733,-0.0733294880268765,-0.12705201313628156,0.11544377595034729,0.7545778268409216,-0.5843562155293663,0.37531635225286475,1.5331902049634027,-2.6672497003850357,1.1875
0.04440700621126534,-0.10250302636596288,-0.008772337046072288,0.03725459850550207,0.006465961907775512,-0.01675406820443237,0.0006173229449845302,0.0030637904503121203,0.0010970201000090982,-0.11676756479493244,0.033115030814332674,-0.012292440298567667,-0.08283137020165184,0.2150551695391871,1.1953125
0.8797772775005442,-2.8485689042083644,-0.3796126189090032,1.0215357162424699,0.2672933403989858,-0.05735588284869743,0.18084005828684235,2.007727365569673,-0.25231617757285935,-0.14899912166784798,0.7427765822418536,-0.3425401374353479,-2.0254504699390545,0.957845016895794,1.203125
0.7136123472649883,-2.5812941300639345,-0.43754554760312203,0.9513134422916313,0.22820057995028095,0.15190073193380582,0.18932727446920086,2.393151537010442,-0.28337505783867595,1.179931343040002,0.37572411748572504,-0.28992187475512504,-1.2241693451960802,-1.363829926424335,1.2109375
-0.051624978512932844,0.09608677470849664,-0.15434562591406825,0.04078631770239815,-0.05731535533750352,0.32722682605054404,0.003013280765196717,0.24010154331173603,-0.042563286546881664,1.969310546851258,-0.5518343486053277,0.0014302124083388176,1.1824756420560247,-3.0014644503601033,1.21875
-0.28833966416118423,1.3472005126152817,0.07545637918059939,-0.399146769094623,-0.2114377331799687,0.15382252472524996,-0.15106578470765983,-1.3468311018955204,0.20149797471231387,0.5755079817516693,-0.7947713070051069,0.1726079146995865,1.920295095934036,-1.2548181653485242,1.2265625
0.17775686176079997,0.18443302050840338,0.048192302589775825,-0.015386396600523107,-0.09957767365397537,-0.16607709360380446,-0.12881905376961594,-1.1382449226123723,0.20874869552150876,-1.4392416348350257,-0.15936679204287074,0.04980602451664693,0.4062655487998532,2.0714520817199427,1.234375
0.5326240728571584,-0.668315204838733,-0.052154897729012446,0.29737042247882833,0.031245700865491926,-0.16773250148585128,-0.034457660606681706,-1.4982533914184715,0.03657847514139206,-1.2924996972539247,0.3692984905619991,-0.23200935958954777,-0.8043944592862754,3.4823157988348123,1.2421875
0.3661698039314415,0.10302847859304375,-0.05847843752075035,0.0800768499089867,-0.021531753571912737,0.10727059339526568,-0.03164603226382997,-2.79345831279029,-0.03858251936912111,0.42858342412660916,0.10416343405037838,-0.333864981918378,-0.07553148528126143,2.1621342664474654,1.25
-0.1463317700850037,1.075886200121649,0.08495040821667214,-0.31961804156475665,-0.11796538204371802,0.11417360257304583,-0.083295877089125,-1.9846943694454033,0.07394078142178866,0.5034717704540257,-0.31184362439991076,-0.027272546053370646,0.8922233386606615,0.24380109741575715,1.2578125
-0.9078665761808076,1.5319133468054453,0.4113812334360548,-0.7454748448245072,-0.033800247114391044,-0.2657825862006206,-0.011254502484101186,1.3603850388431395,0.09950158840236234,-1.2633469710403784,0.09353412036342984,0.4427929894120068,-0.0760320794538701,-0.6382817016531428,1.265625
-1.5003732893858457,1.8178222255033836,0.6657672144361125,-1.076231942335996,0.16454195089986767,-0.4428320101538087,0.18123490231940062,3.302504833610118,-0.1451584009596079,-1.5043123976161556,0.9474168423358547,0.5302592402131484,-1.9445299335189985,-0.9977438400774538,1.2734375
-0.9779462539842076,1.0970571918219425,0.37905077567393297,-0.6680028683140941,0.20321422643354597,-0.09314650433678513,0.2339534949481125,1.7466230838303065,-0.3278832707127361,0.5428883785648582,0.900143903121128,0.11466819548823591,-1.8507410321194624,-1.3007570288887809,1.28125
0.727190299490179,-1.3342737090267744,-0.400540095254169,0.6573000984913561,-0.0016057068751416687,0.30016422391039027,-0.0017565217664277653,-0.5978801364038396,-0.059948791964714886,1.493452884311418,-0.3362867993879085,-0.3010498560349547,0.5848683343782697,-0.729425593266557,1.2890625
2.1334936834688087,-3.6293778217507215,-0.969292323487345,1.796370847809941,-0.21892512382560497,0.29046487301565405,-0.2883220725876117,-1.0637248641155304,0.40144362262502997,-0.007048802831665706,-1.4535300797963873,-0.3360001803893177,2.6835194060808707,0.6621696933355832,1.296875
1.9454204798631225,-3.460121390311392,-0.8428383293767215,1.659667856813537,-0.20980724418008312,0.10204001577764821,-0.29589335237534936,-0.3019393578114364,0.4618131186220923,-1.0829573577142475,-1.3105569156240346,-0.17869872183202778,2.359071879796829,1.1564252097133545,1.3046875
0.5426884069096736,-1.1893647215285839,-0.25233192627205403,0.5217470529142122,-0.015016147355331159,0.0283144917564599,-0.042260909708986806,0.41432507523342266,0.07415371029664901,-0.18546329894738808,-0.24721562705053718,-0.06377900935878211,0.3557434565184999,0.06048531254296301,1.3125
-0.8064533390689651,1.0571186157397643,0.3120693240422087,-0.5847483669180227,0.15224614215381307,-0.031511911195271455,0.18515897612231697,1.0071745724451353,-0.27481840676008235,0.6939667365529736,0.6937112178249598,0.061634464514006906,-1.3849945690805008,-1.0774289993248598,1.3203125
-1.2775750168590059,1.934145805677905,0.5513018856729565,-1.0113590006198991,0.2010806076701614,-0.12203283039938076,0.24470415644962298,0.9951949076370307,-0.35948170161450627,0.5319219857429104,1.0715293289242187,0.1215589830081887,-2.0786148457572544,-0.7990484808082166,1.328125
-0.8777707898659567,1.5287190825511623,0.4279878040898052,-0.7708085912991344,0.18021677483449738,-0.07133100713528118,0.20592622510702926,-0.2675083541590925,-0.338000771376805,0.5737270105260301,1.0239782909361963,-0.06338105634809287,-1.9688985290773091,0.41765651479068194,1.3359375
-0.29241235723496717,0.9231465551207682,0.18043817378186766,-0.37564520520747213,0.05887619123880085,0.049840367913564644,0.07601166864852528,-1.5375620258407128,-0.17371062704907833,0.6735426755955364,0.4578978918472252,-0.1747659833690598,-0.7806782324959016,0.9112272969783612,1.34375
-0.22412064123306932,1.1085587181685879,0.10602857508220749,-0.3437437023564417,-0.19905810461355547,-0.00200449984460791,-0.16721075003190183,-1.004848230609386,0.2584472605467348,-0.428044784844198,-0.6603553489876997,0.22463706408008285,1.5884968712140293,-0.2619481417930423,1.3515625
-0.49812860537129067,1.4700289854437134,0.16964181266351594,-0.5008550667695876,-0.34316512205789185,-0.1314799690263676,-0.29623386439981264,0.6193269933499076,0.5401175396453389,-1.5141277527926982,-1.3070421051003438,0.6649090698146305,2.9250369042861655,-1.800133020340023,1.359375
-0.3504001904441416,0.5531887682524607,0.10888136165706662,-0.2482530096722284,-0.08029571916007039,-0.07789254348820225,-0.05980327442238427,1.0637823568595441,0.1434547262766115,-0.5254019587067569,-0.33755510904776287,0.3018489169557976,0.7340805087929556,-1.2238883995075778,1.3671875
0.3285370224478985,-1.2558596572554095,-0.11552831510696496,0.39063351187831213,0.32352784793228984,0.09156103463548157,0.2846770331546151,-0.05067038902262494,-0.49811843205059625,1.3007246011475113,1.2193208514312037,-0.5397086288450119,-2.7375664448918617,1.2610345328896264,1.375
0.8977022816685173,-2.044894573831645,-0.33330974419321246,0.8054271352385942,0.28533298341592794,0.16780977537599684,0.2241189162120332,-1.0701126771305378,-0.43836984274121765,1.3557043450074688,1.012567747763717,-0.7222563006222937,-2.3487514845117023,2.20991801094806,1.3828125
0.9435012683851937,-1.396476854788773,-0.4171291770367101,0.743646196108701,-0.13687437324115434,0.13802960103539158,-0.16297666746999934,-0.9245171618332506,0.2240004093759849,-0.04582404412263617,-0.7613168617245231,-0.13851105490362187,1.4854616152237625,0.44855663507930427,1.390625
0.4827469095037084,-0.4269013302910948,-0.24092665659262877,0.3483784214230569,-0.28366704538292475,0.009325167917357088,-0.28415014282717094,-0.0750289995620246,0.4733139209119911,-1.0167202186001807,-1.2841527696748471,0.2734517025287448,2.6718645859439185,-0.6479905200421388,1.3984375
-0.2870100478646117,0.5071263220913413,0.1875809423033017,-0.2640323100159458,-0.023462123742001784,-0.21780190731514215,-0.035453077574617686,0.501903965042732,0.10568582321942965,-1.292490180042885,0.0844034417134486,0.2074015887567498,-0.14590880322118488,0.671684322356225,1.40625
-0.7217537638364505,1.3042178825337734,0.4180857302732957,-0.6656998559242893,0.07312797771392474,-0.27154264689541396,0.06980605068699046,0.18401410231810902,-0.0697740673400278,-1.1062082155100748,0.6637054779005845,0.15576417870301865,-1.2599813635788455,1.2253552781653843,1.4140625
-0.22386178695078482,0.9236503556342978,0.07043950915167194,-0.2876881863525943,-0.14840835216878315,0.06183596903314174,-0.11125345572729568,-0.7119662478653941,0.16292436963053109,0.12123819762802913,-0.5419209518730376,0.16181412988997157,1.301220063213279,-0.779404345885688,1.421875
0.4455850943398439,-0.42001019808531076,-0.3326604242140432,0.36222872312220417,-0.15190487762606772,0.36726932440359555,-0.10959711658631979,-0.855671270717787,0.10893995142490774,1.6722213749680497,-0.9386220678923993,-0.08518327019487304,1.9902081346494935,-2.0537881097050246,1.4296875
-0.024845593643982623,-0.48741939267751855,-0.03334767779985329,0.10374096286338108,0.2155622380659621,0.126479709205494,0.21614216901888156,0.4162336504525421,-0.37130762896605884,1.4261906533766464,0.744025246498253,-0.290571897141401,-1.6524229041058012,-0.38788543058400166,1.4375
-0.9589367113508596,0.7893969231865663,0.5226397154312891,-0.6730592832653568,0.38763514581364994,-0.33222803693113745,0.3613976100684938,1.6238593586752137,-0.514258960490836,-0.48840698116220926,1.8979225906612998,-0.07028740800986358,-4.00991403505099,1.4667259771093126,1.4453125
-0.3596346842798827,0.22391208944507246,0.2277404795806735,-0.24194067324015836,0.09190747466587465,-0.281392601472667,0.06473612409432986,1.266491432430907,-0.03402661383766535,-1.3435813848718297,0.5410575212889103,0.15663660173953634,-1.1871771721487496,0.8783597455458287,1.453125
1.3905828369819273,-2.615868273796372,-0.7099224339046863,1.275620670479864,-0.21058711031970787,0.19365042650515357,-0.2454738436443897,0.5886566103275404,0.39275433526497266,-0.1763684825293518,-1.4019375240364222,-0.013450574982772325,2.622729976360891,-1.0887943753925031,1.4609375
1.6015757228654077,-3.3674349190217248,-0.8955263558878763,1.580591766827383,-0.16032212158112175,0.3495878120027906,-0.1878459045738229,1.3072695392368934,0.2912136077654948,0.8364724525870051,-1.4624137869085003,-0.11159196273958853,2.6310630973274596,-2.4132333883431127,1.46875
-0.1875398103628041,-0.11844168708948692,-0.01942101641109703,-0.001394317194917023,-0.00507215749798502,0.012409978626848707,0.013046168882512296,1.7154941614380868,0.023597830483995174,0.1683535686642266,-0.2170694339106398,0.1955870065497373,0.37032130548968994,-1.9514607693626422,1.4765625
-1.3300920254358244,2.9777159326412916,0.6766862211528021,-1.3090457086198954,-0.02112921098766826,-0.24011879718679757,0.026003946948570715,-0.7591278677449962,-0.019951577024586064,-0.8013682394604552,0.47981407724330183,0.3132527907512073,-0.6153095057153787,0.6211861496826121,1.484375
-0.7186291109918569,2.7186738041603986,0.5277794170229608,-1.0473624621853916,-0.04400639742553351,-0.09939691460599603,-0.018251874870691215,-3.9986032873715756,-0.05583861745562761,-0.3029031857610916,0.5576358261111705,-0.12011529409543226,-0.6624391252186871,3.2620239697004765,1.4921875
-0.31762582985080584,1.4097176910036457,0.2930827929566118,-0.5566695273523353,0.12017237603974425,0.05666651836861603,0.12974548017225165,-3.401322603350962,-0.3149775351402017,0.9161939227805749,0.9540044823881558,-0.42220141882992523,-1.6884555485374713,2.820307442844393,1.5
-0.9121758334685881,1.2300286020821753,0.4170062853138392,-0.707721245987618,0.24390950357005617,-0.08813195618098586,0.2647127684114629,0.5843118534673192,-0.41215846835489545,0.6582664534960876,1.203932814132235,-0.059969777452353365,-2.425413522340314,0.002812895244310191,1.5078125
-0.6526385992444363,0.5540438777716558,0.23967758592786756,-0.38233125246684546,0.02413781303047253,-0.22330243129340727,0.03393210782947704,2.5499722205183986,0.04680463154221737,-0.9932941573895224,0.09714696136608209,0.4050084316159696,-0.25853614221066046,-1.4402364006816557,1.515625
0.8675343510840624,-1.1854764996088574,-0.4370829263795647,0.7081697309668924,-0.33446834373541895,0.05709457758268917,-0.34620015092906425,0.15509719444283412,0.5746576514463866,-1.0857083882956375,-1.6436769253562733,0.2677500832445611,3.3298657916029386,-0.9268317651593028,1.5234375
1.4638647474221478,-1.5745227972866176,-0.7264729437294685,1.057946797684621,-0.3373188652197066,0.48725226071308847,-0.32611146538414193,-2.803815964082522,0.39810177429508964,1.3306416508628007,-1.7708199579969024,-0.25976671286610237,3.6997009396420495,-0.6379535382679333,1.53125
0.515144020676922,-0.4906098191970446,-0.2877010357424583,0.35413862485364184,0.021856936059270433,0.4240133948448453,0.04828946599238165,-2.209483292604667,-0.20255488297554944,2.489812922958802,-0.09868647423038233,-0.47490472550456525,0.26342088685069454,-0.3518580218761733,1.5390625
-0.008811286956970478,-0.7439949908521107,0.04243923993891008,0.13429783169428072,0.2350962375295455,-0.12422716535341456,0.19563246465716344,1.1755317459335517,-0.2825045240192103,-0.1377324646636923,0.9471692218710105,-0.16909379961626733,-2.1582437125336114,0.895325995315533,1.546875
0.460033174374493,-2.0772316697590463,-0.13900740869741945,0.6556775172651969,0.11641174543243847,-0.4187812189565529,0.01854161515731125,3.390418989295102,0.11203110147850452,-2.648368114829923,0.33224072911950725,0.1912706343558319,-1.1343806422331086,1.1417295146670026,1.5546875
0.2921559161844666,-1.2986851075114598,-0.15977800669735456,0.44939336021210347,0.023242849191950493,-0.15317360169891636,-0.015924841362793502,2.3529646478001096,0.10808511248128749,-1.1015306475156252,-0.1277316780460773,0.17057574818142537,-0.0051052134361394795,-0.5342974621315969,1.5625
-0.6904651507881936,1.0873888595228636,0.24249347445415698,-0.5331153121454226,0.11058412011064776,0.07672515386366667,0.15559489642288485,0.30742408248551195,-0.2591785452997163,1.2077693415791093,0.4908956719456419,-0.00506935010733613,-0.9141304337332039,-1.2774048802798987,1.5703125
-0.8541181847145796,1.3879334225871471,0.38779817889363544,-0.7048033414351449,0.09947910698206273,-0.12714224109298847,0.12494498772847719,0.5669030836784864,-0.17129221989989946,-0.03603830307722293,0.6233321876380888,0.13424472619993166,-1.1751158170925218,-0.25736476631108895,1.578125
-0.1275414158232568,-0.23891360344070256,0.060538557881871416,0.01218556611101238,-0.05881936453551848,-0.2797211923335572,-0.08322486942018918,2.190340614986456,0.23842039268792298,-1.8941417094427673,-0.25738846876951565,0.3949341456277502,0.40763226200678676,-0.36512564558150695,1.5859375
-0.006813263982408431,-0.1927809099223117,-0.06703049993217175,0.08397482956938052,-0.06631502437390552,0.004165070168267946,-0.055913939158111076,1.1239972820211732,0.12416777085662681,-0.1581106210693771,-0.4264488199380909,0.1905433006935788,0.8290888844288639,-1.381727838711841,1.59375
-0.46317514672021315,1.5569816756847612,0.19788816029048714,-0.574680307629654,0.060404333378460136,0.280783009238226,0.12146102461670547,-2.633458670845011,-0.30952126963036136,2.2605328634073736,0.4344504378125985,-0.3162732412881321,-0.5959738521226162,-0.017998092699048257,1.6015625
-0.19274544856753384,1.6087275144908637,0.21290141052422518,-0.5287031869145882,-0.01010929635613502,0.15894132953967854,0.018790714444730117,-4.175835451038795,-0.16275415755415729,1.1299341148649986,0.3929695360102799,-0.3755245687934438,-0.43529889954714274,2.3586968596526336,1.609375
0.6045356894392371,-0.23605155470081457,-0.17567371006309207,0.29237060898875256,-0.2402084683958918,-0.029016943614271425,-0.2624069536348343,-1.832851926514823,0.39378746111346064,-1.2019666665382402,-0.8641758153821971,0.04403105926788922,1.8854325780862138,1.620777207625277,1.6171875
0.6469611654902874,-0.8683453854619062,-0.3157389514234137,0.5209530448944769,-0.25741612236522543,0.015648453492293036,-0.26941445040139134,0.12426741987016522,0.4512969507035725,-0.9984912674177391,-1.2369894732802516,0.22010295727795953,2.5089083849677762,-0.5427993750639629,1.625
0.09957210266567922,0.004408711124054997,-0.04257882691947218,0.04047542417144087,-0.010038797574144503,0.07546189792722899,-0.004876728801871899,-0.6692733354169185,-0.02058161128107366,0.4037597209350031,-0.04244852308452253,-0.0924514978400327,0.12384683616955815,0.13465606634209773,1.6328125
0.1144269025914436,-0.2992559383786974,0.01840080260752977,0.06569549413678671,0.19951077483236535,0.04979400712159637,0.17795431792112706,-1.0451598829876347,-0.3364919563528743,0.8181082775990604,0.9059823648607284,-0.40392401017128104,-1.908651345630558,1.643747872910661,1.640625
0.45036673089823187,-1.5689720364300528,-0.2413989464148602,0.5625631692713412,0.20519083157508947,0.10768677020893341,0.17512204564317424,0.9099163657460893,-0.2905422616535553,0.9978423662671234,0.5612082143628018,-0.32375255021727833,-1.4231414179463564,-0.12205763248320438,1.6484375
-0.11442763778264728,-0.6441823258206137,-0.11129675938803418,0.17276182084138103,0.09157257275845945,0.11199728857737418,0.11216386451416065,2.357790381248722,-0.14113924425229504,1.0337083242012153,0.0032439952032406864,0.07509433531142976,-0.1893526984896045,-2.757707685241106,1.65625
-1.2789251760090252,2.189517164944732,0.5055416117690525,-1.0300187948984307,-0.0021770473662927913,-0.14494887068602266,0.05921929443198078,1.418099697380917,-0.03133356752166902,-0.18630279068951233,0.1844659596890706,0.44173294800822993,-0.1846221167040933,-1.939864124927679,1.6640625
-1.302573950876724,2.6128753619272747,0.666287138082505,-1.2105987222068366,0.0015111671826021876,-0.3334599639204523,0.03227844360684101,0.199021879077204,0.007721396358922762,-1.3664696892811832,0.5287351766720424,0.3939928343087045,-0.8131373430586877,0.5842497143459904,1.671875
0.1480918326368807,-0.43516301120023476,-0.005503301093481548,0.1378753201165676,0.02522929811089474,-0.1440064247628971,-0.007829025560743259,0.37089070638064864,0.041665416379274046,-0.9421332883686836,0.1567711107705193,0.016064116096160274,-0.40860575470893884,1.047230798251177,1.6796875
1.2118921771883642,-2.568566781179603,-0.5629075535584697,1.1440063968235854,-0.0697076031061966,0.0556212052411029,-0.1282599738394354,0.8327128539666631,0.22120638017901462,-0.5577960308290986,-0.6848434170905263,-0.09920558804422054,1.0933173009328363,0.11298278465057132,1.6875
0.6826629690730586,-1.2218355223608095,-0.31409081429428093,0.603846472375721,-0.17035640387782613,-0.03219847068352017,-0.19978884076766637,0.5602437845948756,0.35154578652085416,-1.0891583788915264,-0.8921097825205528,0.15011372193650682,1.7106081596099452,-0.13948435932949982,1.6953125
-0.20800352487215623,0.5235815328876265,0.098057259108998,-0.2108701358923015,-0.03757262694282603,-0.034564462950747214,-0.02612126115458091,-0.0992194319322423,0.048281077423075504,-0.2019953949890109,-0.0745972420700625,0.09566927617495422,0.22714312202227616,-0.09980883251325487,1.703125
-0.06857513174534974,-0.0026624112076802384,-0.00801083717583041,-0.030890569105499633,0.1736088287479762,0.21591618105323257,0.1925753369097263,-0.7152933802720459,-0.37345846707221353,1.9184436134572445,0.6430955195387832,-0.35634641823788654,-1.3224490618651603,-0.26556253218451215,1.7109375
0.4538338785167736,-0.8497428991818046,-0.23846341781720654,0.4001037730028199,0.08285256500647586,0.2461673738780912,0.08240744358462111,-0.864568912235216,-0.19976500618278462,1.5494976325040937,0.15339628275599215,-0.3648540910141919,-0.382832721250826,-0.06786828096663396,1.71875
0.2527735560140832,-0.10372201668906574,-0.0945303221242523,0.14295187838310675,-0.18216255939465517,-0.05642009778196534,-0.18885728776056765,-0.2105536372276492,0.31952635167899085,-1.021285494153025,-0.736982388745729,0.19316588103517707,1.557043747598461,0.1283010430334264,1.7265625
-0.2914687559710687,0.7935550381882309,0.1597234552397015,-0.30918834858399924,-0.1425220295886383,-0.17436275964954126,-0.1361522524085866,0.2824601347133054,0.2643111537170529,-1.3484647652625608,-0.42440115887521596,0.33510734570037776,0.9803648861529924,0.009872562675261919,1.734375
-0.4150353971877371,0.7673747320259598,0.22271665856625544,-0.39081910366504113,0.13954095293902677,-0.0019402460652594583,0.15015272358589912,-0.6384681412113754,-0.267020042378522,0.6290424580687812,0.7501447424304726,-0.16010853988968513,-1.463937186201125,0.6774958292386837,1.7421875
-0.24535403327556635,0.8050984747543107,0.20416184473248525,-0.35744903780029,0.14670090944057118,0.04287088701035968,0.14995410759058442,-2.0060896902369665,-0.3107899219338781,0.8481844768604966,0.8843103245579355,-0.3426420689796629,-1.6791570367060393,1.8594945375850311,1.75
0.06575003780230901,0.6314742897196438,0.05825819005952688,-0.15096052583448719,-0.13496750662942322,-0.04176212986278759,-0.1355515619021052,-1.7412519271243725,0.18800884927980685,-0.6671407429747302,-0.31804841899713543,0.025470774914753202,0.8325713749247705,1.387557571432807,1.7578125
0.5836609981559944,-0.8668314701107663,-0.28951018082468977,0.486848526819859,-0.18821580862421752,0.0412175672922357,-0.19920534967310624,0.10739932083811737,0.329136446453202,-0.6018993781154943,-0.9543972056349231,0.12986447227865414,1.9115131950660857,-0.48917061798726363,1.765625
0.590709727992027,-1.8885951008486985,-0.3589290878608955,0.7356099113787479,0.10101518315753248,0.11807122105988,0.07588552947472854,1.6905174564568366,-0.10449745238557276,0.6848743368081354,-0.013535693688441335,-0.14493985135746792,-0.2809006551577569,-1.2034534901732903,1.7734375
-0.4753045072193625,-0.11335368036279128,0.15781714384461887,-0.1742554377613665,0.2706654644519027,-0.047051995379275,0.2706264513756644,1.9762171641566373,-0.3943902856301754,0.7264596080661984,1.0154941216932558,-0.07430522035800077,-2.2577135677084756,-0.8789462067295709,1.78125
-1.3633846484856145,2.2525289613023167,0.5623294618253831,-1.1005590847658706,0.09412217063863029,-0.13122952755934203,0.15284782376632347,1.1621305306058085,-0.19747660612487944,0.22059927053304176,0.6263156297777691,0.30137086326949436,-1.1009778623426965,-1.4781378401664742,1.7890625
-0.6828999558077983,1.6135000640027148,0.22428624600626232,-0.624887541514997,-0.11780942202349383,0.07110874702803542,-0.05206270872376431,-0.10030865479202582,0.08207812717123854,0.5302957810227679,-0.4122965413904354,0.2668082988820009,1.08450916688198,-1.8832082737331306,1.796875
0.5978526498180398,-0.8004226784503101,-0.28413132677377,0.4627230482814293,-0.11177447726590019,0.13874769046435206,-0.11813094515502812,-0.7418014250879045,0.15628671405386246,0.227795713427888,-0.6130943373063662,-0.08532574092868414,1.23719673523025,-0.06684724756249245,1.8046875
0.7187116122828897,-1.3271792101424706,-0.22877403660106732,0.5832630661326695,-0.030184949524015382,-0.1148641736974086,-0.09034881357487823,-0.16836390173464422,0.1579442876222735,-1.2452426576936204,-0.14337740005101043,-0.0850425479984071,0.13988351454529718,1.833113966304429,1.8125
-0.06725277033269507,0.03999236598733807,0.09233447376571648,-0.060950497203666375,-0.03006274071737676,-0.21801831807958102,-0.05506001265658252,0.6194430092169194,0.14004966337672814,-1.444631003621219,-0.00035078244720020336,0.18183327811718847,-0.029763486655058968,0.8319487023287812,1.8203125
-0.4102875497728884,0.7061603275848014,0.13239786534937006,-0.31780996854882143,-0.0071771097337853884,0.013734101949965737,0.022616624147620425,0.45127734604979225,-0.024509358013062296,0.3129540561518485,-0.02101630964972406,0.13016511777618966,0.1149316676060995,-1.1038877317808877,1.828125
-0.07281165285439863,-0.012420642336584561,-0.0027498998347031548,-0.023759649282458987,0.10624956696335883,0.12532605943035588,0.11932972422770101,-0.1841452609285313,-0.2232540852876395,1.1505434666119063,0.3730556835255945,-0.18653225012776073,-0.7778931328059373,-0.39071457719368313,1.8359375
0.43178114864923983,-0.9645983562399759,-0.11106485966097612,0.36411318865422765,0.1127543619881269,-0.049462050624736235,0.06598513984007036,-0.3655853649610703,-0.11838954581423335,-0.25437767001745876,0.48073341684994814,-0.2580995651134922,-1.1246377186608112,1.7915084168798925,1.84375
0.8264438747244689,-1.3288521775617814,-0.28139184116580457,0.6389499207569849,-0.10941848321890724,-0.09553693717178524,-0.16597359203337067,-0.4194916838645301,0.27552398181029436,-1.4085272181740383,-0.4812678772503642,-0.02918287558138085,0.8688841438831706,1.7101933834517766,1.8515625
0.7826452509729845,-0.826866466378309,-0.3847203417227605,0.5725523314242975,-0.2815738668488183,0.1475006417963801,-0.28140345041366105,-0.8599995869696012,0.42642057091012114,-0.3002418036482733,-1.3546781122071614,0.09252046279954027,2.8115880925545973,-0.5433994732451557,1.859375
0.14388667456170157,0.17598273167126768,-0.1553937721716773,0.066670869100528,-0.08899923475923416,0.3046536501090288,-0.04425159042499427,-1.1709558816863332,0.0011712069568660087,1.6314680035450126,-0.5213991173540713,-0.11570692861850049,1.1909863030381054,-1.4172944127466454,1.8671875
-0.4727201673232738,0.6574335196713715,0.21092594399576747,-0.3859742055754655,0.26230037160019276,0.12362348761693327,0.2836203868492704,-0.7016539092556642,-0.51092449239026,1.8158580768297994,1.173723585162535,-0.36117968608801815,-2.3686007160732316,0.27383028090569944,1.875
-0.5568016590098153,0.4954625153077973,0.3380089287160196,-0.4219136858376326,0.27799545812060417,-0.19870931709727543,0.25565072917952303,0.47796074451551945,-0.38764564429052056,-0.1675627958366025,1.3898541775961664,-0.15252485221392134,-2.9110454843927855,1.5601448998928982,1.8828125
-0.46925315088202546,0.5828261211869519,0.2549980616848774,-0.3483974123882036,-0.050348452860197464,-0.3501809581218156,-0.06607331622997056,1.721954949237995,0.20943895543090005,-2.116389157481177,-0.032389306167868885,0.43509607324056454,0.0527122359330388,0.1751105245191223,1.890625
-0.3994278089909611,0.6644528180787223,0.1276936591106784,-0.2786516575698898,-0.20354407988823955,-0.2089832256274742,-0.18611604594332795,1.8699541935168402,0.39657470067045614,-1.678402524893638,-0.8339249278121363,0.5945609599564409,1.7592783319741399,-1.6226212046330268,1.8984375
-0.016314738831065573,-0.10282633342610942,-0.04244441383469837,0.03881731746442791,0.02117072855572692,0.0807492874795111,0.033437098639929407,0.2962274554129057,-0.05940697456555616,0.5905039284152104,-0.018157413475918278,-0.02537210627830019,0.015339297834078275,-0.81103133576381,1.90625
0.28566110533038297,-0.5263460034204601,-0.11169634874515731,0.21778899838863858,0.17871601597558925,0.21244074383076125,0.17288164352045213,-1.4031290750997352,-0.3609845576202647,1.7018674093525432,0.688110998466412,-0.49722739481704537,-1.451956881118532,0.8920331541014653,1.9140625
-0.19367639242872428,0.7655443236648496,0.08866935860110431,-0.2634355320622378,-0.038464766731736835,0.07846518246028213,-0.012463042136330543,-1.0830055110094143,-0.016471182919846946,0.5133386918703631,-0.05317533859065023,-0.032153908986807256,0.2628074153438568,-0.018726946944543656,1.921875
-0.6826598312878128,1.7892620060648035,0.23798433424447682,-0.6579406420515409,-0.25438139774005003,-0.04298192320188979,-0.19197121908992315,0.21762685930562678,0.3425962396746308,-0.5854748101648682,-0.9257125144097386,0.517650298351083,2.1762213983391994,-1.9405634698556697,1.9296875
0.03352190370432791,0.1710569107094352,-0.05291136309995474,-7.130866696580174e-05,-0.09226049374989877,0.08032631663674157,-0.07308633054416318,-0.26293748246602483,0.10560370748157408,0.24170051190252193,-0.4316864947001133,0.06722506075702361,0.9505451535859043,-0.7351240777506416,1.9375
1.0918443859296636,-1.996350209010816,-0.4264575576831684,0.8921640902703507,0.14378040709102125,0.2195272100227456,0.09113520507751338,-1.7113999459601263,-0.23900165040193494,1.1761299428927439,0.41786293715576756,-0.6461502190428263,-1.051424390094274,2.039906129303684,1.9453125
0.7237591443212359,-1.325060444035471,-0.27337283747479474,0.594135672080162,0.04142717899899358,0.06495233778918107,0.0003112847848851881,-0.7588188666628498,-0.03573277620001942,0.10677849590795865,0.07390486571189309,-0.2952565722528561,-0.28557535870051,1.3692902189064642,1.953125
-0.559829597859325,0.8534035115633347,0.19237816343495845,-0.39412772744977276,-0.15119290450405112,-0.20399611624261454,-0.12793204415862253,1.98776116165762,0.3022030052278309,-1.4131328940750312,-0.6022308198625727,0.5657051964900286,1.2869343735356695,-1.734691158019608,1.9609375
-0.7790563229671621,0.8897098566467374,0.2830145279629406,-0.508392564403272,0.009935721152218484,-0.19197904352486356,0.03357289997159114,2.361954415704346,0.0392121245444855,-0.7515451185584404,0.05737254791067212,0.42311250258765915,-0.12420224645871555,-1.7411664381676262,1.96875
0.07788186230711534,-0.7828307358730566,0.0022757036304696457,0.17023102140898705,0.31612134022209004,0.030069603783868245,0.28477067516154725,0.13647798884308948,-0.48278714855003524,1.0393222464560827,1.2672636908109187,-0.4407733215756279,-2.7898019490632597,1.1721000341146848,1.9765625
0.3241733014655091,-0.9641259951304633,-0.08808990218926951,0.31551835968837777,0.23878035370770795,0.04991554504399598,0.20140089728839514,-0.47089749591484076,-0.3628207475813677,0.8041473174949535,0.9561673359363393,-0.4484062945193543,-2.1235581506703873,1.5668419287057673,1.984375
-0.16308599975168192,0.21279334391347685,0.042314656723642714,-0.08876461504354122,-0.13608437743700236,-0.14419391498069173,-0.13152544933601845,1.318905587242174,0.27874860418129027,-1.2180795078163846,-0.5821619604844512,0.3834849350933218,1.1972401167914326,-0.9704927911432794,1.9921875
0.08314276926101007,-0.15269280273468522,-0.07069599761849428,0.1143840338835396,-0.22635833919666853,-0.15962430916578674,-0.2303825919629702,1.4555422891187546,0.4495600699640138,-1.7151682743868988,-1.0136953411132466,0.4719771372156234,2.0580961991670614,-1.064579236655054,2.0
1.0221974209491296,-1.8367622860982358,-0.3530446811372144,0.8160643422537803,0.066318434882043,0.03711166121438309,-0.0013319255123442517,-1.1937526674173056,-0.043532733104873524,-0.1674724614292889,0.19999733996537708,-0.4204160423827072,-0.5995735986786943,2.4729953889930294,2.0078125
0.9713839153001536,-1.446369122090396,-0.24702923115299932,0.6498250729824803,0.16999180038017186,0.0704248883557901,0.0967851671018686,-2.851220130077717,-0.2577457692855461,0.3784147312329489,0.8299852211453486,-0.7102305366315091,-1.8085690292113312,4.151692098557929,2.015625
-0.2774740186896124,1.509934008449932,0.195012243918735,-0.49022821138793193,-0.20976809088041803,-0.05116781306768954,-0.1831159766375731,-1.9030180663789134,0.26866597046663104,-0.7377586981807802,-0.5358851139586787,0.18553018654071368,1.4118514570475151,0.8144840824137701,2.0234375
-1.0583656939365926,3.384643626676439,0.34528891444383686,-1.143340521398929,-0.5371521525704902,0.06888833782957578,-0.4078546069425614,-0.925662836946833,0.6656229601143885,-0.43557963093314644,-1.9908431513260536,0.8369772305457056,4.691383611061641,-3.49467789195187,2.03125
-0.7380019965196869,2.100621379355654,0.13583465789921878,-0.704072262937289,-0.23860542474867769,0.3347317703476107,-0.1178055431974045,-0.7567526906158637,0.14052738107132834,1.9145675819655334,-1.056674624947491,0.2953622254765318,2.551146631356686,-3.8579495495433194,2.0390625
-0.3131747832378866,-0.22816055818845812,0.05570147945822053,-0.08019734035244837,0.37516096970203494,0.23674270869211075,0.3951831104043265,0.4510309427586988,-0.6857048430398842,2.751436496877409,1.3686961140845582,-0.47973610383325677,-2.9411343603511453,-0.9011137989611098,2.046875
-0.13566234422615722,-1.3068736458691974,0.1046354769885642,0.18108967538926438,0.5475484141920438,-0.12492010442780813,0.4864204993551335,2.006563694712769,-0.7511891031965278,0.8040420014476758,2.177107235786502,-0.4896285693953691,-4.874191226664421,1.378230475878462,2.0546875
0.2743332689992942,-1.2884381816782715,-0.07748170157278592,0.3883893031245598,0.18014400622303076,-0.1597459270317191,0.12339201571682877,1.4613797216538267,-0.1504507426525379,-0.6873659456214898,0.655226116231633,-0.11575815625397869,-1.6232374638660718,1.0198247298574712,2.0625
0.47304151640728076,-0.6916095382636966,-0.2547525600005191,0.40154527084896435,-0.15117263137184211,0.08427251235500843,-0.15252824165761905,0.027193981087377174,0.24330403499650366,-0.15944307400341093,-0.8059744911511966,0.08089586230109767,1.6226417816830019,-0.7189178947905697,2.0703125
-0.21889864817885835,0.5210874923567563,0.017484681829635158,-0.16556310171220057,-0.13207268238019482,0.04227892066181524,-0.09713774534668264,0.542934891291267,0.17516234155121627,0.03180967225788361,-0.6204132949086566,0.2580865471497439,1.3578035739629162,-1.714452391561758,2.078125
-0.9348041253582617,1.3945460579668454,0.39789468269286044,-0.7156061476257124,0.001680017711909434,-0.24691096053399447,0.02614960242333254,1.778696177172522,0.04506365776886457,-1.0321833260664914,0.17754678440999838,0.4317590103862152,-0.28902928110031184,-1.0368661651629951,2.0859375
-0.5004981153252085,0.7202150163285587,0.2788400443022323,-0.4072697253767907,0.014671365045615278,-0.2761688165684093,0.0042990252060439976,1.023032098811964,0.06202125220602741,-1.4375906684020725,0.27141417320939104,0.2661880157776687,-0.5394994724909775,0.518763711185304,2.09375
0.5826768439342929,-0.8820344645411825,-0.1799786745420851,0.42642955306439967,-0.058654471769114834,-0.06860149002215887,-0.10122748393823984,-0.5980285800931798,0.15962899749148918,-0.9446650619457974,-0.22175504932434112,-0.07249437512648814,0.3842618130831951,1.5746946666658863,2.1015625
1.1705124512559997,-1.8518385279881655,-0.4363925650392628,0.9081960627118435,-0.10955712863189827,0.010101678322775486,-0.17279896515489646,-1.049314929548134,0.2528021863882811,-0.9278925221233509,-0.5613620009626863,-0.19128580082536087,1.0046167954635585,1.9560157727657674,2.109375
1.0654903328913714,-1.6044762809846378,-0.37340045189011933,0.792108621938766,-0.06371422150478673,0.026921396556390455,-0.1232278016435108,-1.467626995500408,0.156398092309543,-0.6258756930978796,-0.30929213854408644,-0.2747209547554279,0.5213803387581593,2.2810206704255425,2.1171875
0.500862070855981,-0.42450181058666386,-0.14305717978323618,0.26766747829784054,0.05102629764910167,0.15686187194886472,0.03367982042242418,-2.393177866734713,-0.14637417082532544,0.8700813647117421,0.2866110940565568,-0.4397980631522665,-0.5458904039237874,1.9249865298290352,2.125
-0.2529676276458864,0.7926040645929741,0.101539680414752,-0.29820914985756747,0.049294983314198106,0.16279486120763628,0.08277924330285713,-1.3495892365492603,-0.19573415711175773,1.3440692232535592,0.2856426027244187,-0.19019531946052895,-0.43790068780762736,-0.09526775117174707,2.1328125
-0.5233349767368402,0.7827539881641352,0.13467410255994702,-0.34967861430941305,-0.09944202305729175,-0.04817813967282217,-0.060299485209218386,1.5814932370444734,0.15549454575995014,-0.2834989044108955,-0.4778676243725606,0.4002077939112274,1.0382352367013579,-2.249728908618319,2.140625
-0.20046093924884134,-0.08772009610549489,-0.011385544810595335,-0.006592320514479206,-0.07398627627270138,-0.06575959331644073,-0.05913146595527698,2.1736226409236057,0.1688521926402942,-0.5214794358788148,-0.4940538886199098,0.35854431959009236,0.9358427841801186,-2.114403504354127,2.1484375
-0.2895172127833066,0.24190388426017242,0.06356860984555011,-0.17555464828389586,0.22160758528407606,0.22908012363615604,0.2525749802223079,-0.3454617340438346,-0.46481766743459063,2.2622323582204533,0.8290904035273199,-0.34670013417373,-1.7015694857322055,-0.7758722200436395,2.15625
-0.9572720172312152,1.6717328979366444,0.3476011912672062,-0.8038538280945309,0.3087563702933508,0.31625611487742394,0.3845143133242465,-1.2193051282237883,-0.7172437564814831,3.464421454990448,1.3603739558144978,-0.4344079611296003,-2.604876886236964,-1.1177670738500185,2.1640625
-0.8596235726320265,1.5063672844135483,0.29576677625503767,-0.6758616381393316,-0.05139144281517526,-0.03993668231758666,0.004197512215694367,1.1167622926724725,0.03582673663848943,0.10236276389525183,-0.15755608945262042,0.3600087709733606,0.4723301249702652,-2.110267758450106,2.171875
0.26374514858001996,-0.4441843890325401,-0.09693977852467367,0.24756766349753392,-0.32475641873985295,-0.3424551455813207,-0.35751243225545426,1.9130229261755394,0.7000386632910464,-3.268419971050473,-1.3592112328442942,0.6694350146995569,2.7263404762910257,-0.32690799924293984,2.1796875
0.8947050428836821,-1.2352848142262363,-0.22589740524530239,0.6093056292609345,-0.13328421773928895,-0.21911460571134128,-0.21207985074130317,-0.9935867124359996,0.35430154828818056,-2.2969452341265826,-0.4121038804158457,-0.021841703392922254,0.7551618759030045,3.136352326639224,2.1875
0.5239952582217475,-0.3654380823352591,-0.06581089915620322,0.22100528887095913,0.07650008264800798,0.0326606116071962,0.03495029192635826,-2.853027981501654,-0.14391411492431974,0.13166626239677698,0.5579911423694444,-0.4795350917586124,-1.0987184450395993,3.4271969245746203,2.1953125
0.17715686121968863,-0.15600141971801498,-0.08649406389871597,0.12024516423040713,-0.05118731806298572,0.058456282436616776,-0.04880693830972985,-0.3882447441411427,0.06301525123749459,0.12876093782336795,-0.25153147963478917,-0.02198119067388274,0.5324947655868892,-0.07532943029485763,2.203125
-0.003214837979002158,-0.4796088227269966,-0.1283936320724138,0.18863520842558335,-0.12355835290259778,-0.03421140713983746,-0.11076948816146429,2.457482775094603,0.25764046575866295,-0.5750156070711339,-0.805383938462518,0.4000521907696728,1.5342215722398758,-2.576331956720919,2.2109375
-0.572568843792855,0.4876047661576432,0.182297438256287,-0.3365716864964121,0.1279080132089435,-0.01670874349553041,0.1518883540600252,1.4785644617901998,-0.21028756791399547,0.5855201665122228,0.47226041497212035,0.0837111004581632,-1.0056691442775552,-1.4274311162260678,2.21875
-0.8133530225763019,1.3629766316957994,0.3911367855740837,-0.7146799994443679,0.2951130165054264,0.06615025290894795,0.32504882147048747,-0.9497555714823316,-0.5770055968667186,1.7391366396107648,1.4612715857952177,-0.33880876753965794,-2.8780466681644863,0.6295101057421061,2.2265625
0.01983478600242727,-0.07098512693362465,0.027809648054505476,-0.005795215990697438,0.12854239522150057,0.049718501355431224,0.12072378597829837,-0.7319500490932582,-0.23055829451468873,0.6725849354995129,0.5860867221978536,-0.2604725615201077,-1.2147126475182906,0.908217297499737,2.234375
0.8107658873521134,-1.8556918062537255,-0.34737730474342177,0.7847589854408962,-0.029643297142130792,-0.0635091720459442,-0.0851609140845341,0.9728462746019463,0.17159439844601063,-0.9707606122230023,-0.35196406271053177,-0.018670356930298157,0.46624880060050716,0.5177184493103956,2.2421875
0.5325829536930151,-1.252640379935596,-0.19719738876365733,0.5095708388778518,-0.010772119067967236,-0.11476783699050062,-0.0591491245630273,0.737387838618738,0.13076276933918296,-1.080137353899907,-0.14282401370140096,0.00891441037737162,0.10720605907100722,0.8326507006013567,2.25
0.10294325922063356,0.18434425482014877,-0.011321113636244239,-0.0068758410318230136,-0.09043142783264643,-0.012820090229555854,-0.091320470179808,-0.7620253503564687,0.1352447282837924,-0.3915413522363013,-0.29013527231212594,0.036191715180737806,0.6726165843222417,0.524824464110711,2.2578125
0.2662857318417093,0.14713094417380387,-0.1754337623633998,0.13079196796619674,-0.2738487161914749,0.12167906790921479,-0.24562952908528635,-0.6721189395467154,0.37899190402392263,-0.14283368364943583,-1.222453082191918,0.21393566390240756,2.6454848233504875,-1.1733886827182378,2.265625
0.1513616070659973,-0.043953185784347676,-0.16116065565622192,0.13863457791810746,-0.2051657418556225,0.10286323982115762,-0.17726669158752095,0.34935547046035775,0.2940977779917138,-0.006245062106711678,-1.0269784561330921,0.2431313488138041,2.159933055708328,-1.8191925949164556,2.2734375
-0.5525116753812288,1.0138695656616312,0.26347617370012083,-0.49301704800353824,0.09189405128683859,-0.035499049656321655,0.11167220928485955,-0.21960394923948579,-0.18484733591497152,0.36108899582145104,0.5528593591865507,-0.01871457826630298,-1.0351388038813847,0.14412164463763222,2.28125
-0.7103317554589933,1.503311220008956,0.42122962809162956,-0.7288378881873998,0.19892605597471555,-0.06413271139894881,0.21075801945877973,-1.4644797246644212,-0.3803408669965696,0.5769527721820538,1.2188168536796449,-0.23356191355237219,-2.329685312084897,1.780063845930419,2.2890625
-0.04326277603308784,0.20154719986486838,0.030312787173556073,-0.07853066711001902,0.0594916479887962,0.08111682619570783,0.06722296838606241,-0.8006181998940248,-0.14550673985615417,0.7178828429715511,0.2894606929968757,-0.17068484664596176,-0.5486403592036782,0.3395918436946331,2.296875
0.30530040376794354,-0.8786788174630698,-0.24324018275136905,0.3871572763783443,0.009502174819040282,0.18251905532371335,0.019394106721302214,0.7577287975230919,-0.03999723140669895,1.013277797596932,-0.27889358471587977,-0.06778715000395054,0.45262944382333953,-1.616847857048779,2.3046875
0.0061724516866141525,-0.3306602689867833,-0.05447738944823434,0.09603614929671277,0.08769231370631461,0.09092865223513269,0.09389271772219755,0.49307830725805757,-0.15800591706854858,0.8243921681853693,0.2227890651297042,-0.10533185068248163,-0.5328758272050934,-0.7308099860721162,2.3125
-0.1022871698404878,0.33594582857555616,0.10617709386732616,-0.1551301405036271,0.030938091756452405,-0.06168154227406693,0.0237209444296965,-0.6142318014383376,-0.0471133594358652,-0.24170294649821944,0.2831344919036439,-0.0559512482001465,-0.531075806079925,1.0295400026828965,2.3203125
0.057829966381559565,0.051438204046781844,0.011804686271488958,0.007578616837028026,-0.10945227473641009,-0.13350556034324182,-0.12209344246451027,0.17339075512957322,0.22884339600778109,-1.1934977590063318,-0.3759803168151889,0.19515797789615993,0.7924329931016517,0.41436465420923013,2.328125
-0.14814136814137618,-0.09198107443324965,0.037990394061260986,-0.018204986352950304,-0.05427290236365033,-0.1652401152653384,-0.0610892364986383,1.7561881038461213,0.17393756018863452,-1.1295505520815492,-0.28028794289171166,0.3161358568600782,0.49790513363196787,-0.8341138527424395,2.3359375
-0.3540236227776723,0.28178585345541945,0.17865532082677357,-0.2320689146948929,0.08164099995242925,-0.1632901471493248,0.0728250265279451,1.0416359218035853,-0.0700015631660811,-0.6124134178498732,0.4214830945103321,0.10998109147646112,-0.9106893566955254,0.15489300870110528,2.34375
0.21207218160135788,-0.025631202068229456,-0.016856694147937525,0.062760057277609,-0.0345536320194573,-0.03337645900977114,-0.0519301819299348,-1.1426410966322247,0.06029122611769444,-0.4290968368972394,-0.009199499428918435,-0.08938038575242735,0.0676486766603862,1.4294467125138153,2.3515625
0.8203493580132425,-0.8612289389114027,-0.36081289002134254,0.5731470322598271,-0.2396263052583945,0.12161692204279115,-0.25093956338726403,-1.2599106753989116,0.36739625139029325,-0.36838330873159125,-1.1106915028282165,0.0006506449605321548,2.3083637486865904,0.25887377089848324,2.359375
0.21974678713477935,-0.5494063957854534,-0.16973644218213993,0.26752003748709513,-0.0862938882195385,0.04813567804256273,-0.08194890022123133,0.8883234417269354,0.1539680672291938,-0.06537734946619395,-0.5625669439018447,0.1352223552329815,1.084937976516567,-1.2825649963427563,2.3671875
-0.860402940060824,0.6364120503833043,0.36464138471322877,-0.5334956243072337,0.2938803083765415,-0.15373523314185916,0.29915557248809066,1.9811340842093603,-0.42469864573262966,0.33774206562451886,1.281345214194334,0.009371739449728859,-2.7315966074460833,-0.4984342681626508,2.375
-0.6211763699857458,0.515117687313129,0.3123246284640857,-0.4341305849559969,0.3240364756959439,-0.07550219560297013,0.3202066030482045,0.5138256764304397,-0.5120823709080567,0.7880236821150786,1.481854518161775,-0.23875978950492008,-3.1019576783627256,0.7295447700648892,2.3828125
0.6491797241066904,-0.8329282449625725,-0.31787012341129345,0.4886446905070901,-0.05087107805573557,0.2645400376603552,-0.04858248122325888,-1.4349711721018599,0.00256610238905358,1.1756280150947072,-0.38852918732386504,-0.28197410303056425,0.7939853322821816,-0.018100322246083635,2.390625
0.934957819946572,-0.8869943045200763,-0.48995978756879144,0.6672769442921088,-0.28931749411393964,0.3357748566300177,-0.2707592096059332,-1.7449877652287555,0.35796220430775866,0.7990395720898694,-1.468507746569923,-0.0702114093211744,3.092655038437652,-0.967137400956245,2.3984375
-0.08679783112427206,0.6862226861421644,0.0582253033891821,-0.1944436664145043,-0.14619358011084405,-0.015593259332252061,-0.13007334736738885,-0.8126091982105147,0.2014113762384524,-0.44922648234936813,-0.47866885016379,0.14697102245786065,1.1377991289940004,0.08102907700167167,2.40625
-0.6979944740175322,1.383401468222747,0.4148664879647403,-0.6761662318470386,0.04698707806553321,-0.2665109360355696,0.04497585291887029,-0.08828759707040947,-0.036063358528232566,-1.1576017206595623,0.5797573019890214,0.1600103673725846,-1.0587729933396983,1.3484275612139038,2.4140625
-0.2632503381929694,0.4223230154488148,0.15019340013618743,-0.23012814541228477,0.035467979505952714,-0.10507654341946324,0.03289388018189985,0.19072873274331842,-0.033904006207853554,-0.4161949826544351,0.26812699254654954,0.057804374960427736,-0.525812103692456,0.4156033087261459,2.421875
0.04847005528146103,-0.2900338322105434,-0.09979691550047794,0.12746590800093238,-0.012729497117075172,0.09330813367152078,0.001675058114701049,0.6908392257804947,0.0026477904825561644,0.5312230027006816,-0.2350140588101206,0.03826520556286647,0.43423806045809593,-1.3288887178504047,2.4296875
-0.19301471846793783,-0.08972649443492776,0.02692850484509256,-0.04021479251176458,0.08518208076524089,0.020473951611653635,0.09452244101919353,1.0931520083351438,-0.13168759690837406,0.48077506698652345,0.23534651693333572,0.01617854124675104,-0.5593170985873532,-1.0363199431889192,2.4375
-0.09523123120602268,-0.229858916656641,0.08603049493017893,-0.0252621974077974,0.19682266796492734,-0.05543496408046925,0.17522816561962073,0.22789803526934108,-0.28188520153325564,0.25611371608651773,0.8639336504041024,-0.20750578809048703,-1.8723994484244098,0.9623408669615067,2.4453125
0.4531080598101783,-0.7102532197839591,-0.1330505697366895,0.3148944738282426,0.11189155011462522,0.09660620360663849,0.08425392466452156,-1.4502830423701725,-0.19813209571097018,0.6762064216380124,0.48301550154611816,-0.40715536173791195,-1.043422626071318,1.7225248811848655,2.453125
0.5402595792997974,-0.4731157523501747,-0.2562384288513348,0.3552995314362847,-0.10089350084491384,0.22275460852360776,-0.09348577719817651,-1.5781092304225788,0.08134537857643334,0.833674643665492,-0.5222495476427174,-0.19104987269518067,1.1272438038114772,0.05576775484797639,2.4609375
0.12380559265016264,-0.08114591551944232,-0.14463229914546805,0.13134293052459048,-0.17385904979980157,0.08961312895018343,-0.1491902117204213,0.47857946690102454,0.25210337445475967,0.008769339035723552,-0.8950688617327567,0.22241196138047942,1.8687318992602302,-1.7297157118926028,2.46875
-0.004193025049436518,-0.4363967330960728,-0.03507742556843443,0.12935985752954976,-0.05513756796080798,-0.15144783302226697,-0.06848825224458234,1.9400023904032306,0.18826340641249317,-1.1344697182180845,-0.3468908104896806,0.29968439089922844,0.5878236815005523,-0.9123903197389778,2.4765625
0.055415260150645795,-0.3002690782415413,0.08669735988492219,0.047886231660017715,0.002064103218209702,-0.3166963363083932,-0.048809080770690086,0.7822928578422829,0.14602392480339949,-2.059916554288641,0.1771209764131186,0.16039717682033594,-0.45897608566862946,1.7254249891712492,2.484375
-0.39639093619669546,1.2994866021627856,0.352563588739234,-0.5435252264321755,-0.11681076242857759,-0.37270595224318515,-0.1394045962273276,-0.7900710593212071,0.26905516931729445,-2.4749530003646942,0.01790004744761019,0.2908259989882291,0.14851883216238398,2.452708260196587,2.4921875
-0.9890535110289128,2.322623609191207,0.4748091493065657,-0.9686055313495631,-0.1616771584393879,-0.23289181173242746,-0.11912066691944287,0.016650458605924165,0.24245113071680593,-1.3568062167222994,-0.2832018754456067,0.5001561377074223,0.8837553683200413,-0.3317178386427438,2.5
-0.7184927014979298,0.8658907764026377,0.14780292786068036,-0.43261216487461573,0.028516690442874436,0.11505409831406836,0.09264840518361847,1.7602737967336044,-0.11910320087167608,1.239337849584684,-0.06982715470004977,0.22999177428958986,0.1824032186955304,-3.3229610319228526,2.5078125
0.3003662071059412,-1.3789188919728488,-0.3268455889128619,0.5224553805877111,0.19923873053471236,0.3840452318436852,0.22263936926434688,1.1991371502065553,-0.3994817576430388,2.842647400500441,0.28356444515491286,-0.34980656603492316,-0.8134531824314294,-2.685472966824637,2.515625
0.9640456680181834,-1.8380088238128824,-0.4604087960206025,0.844984106927812,0.11223015563613421,0.33696192692191973,0.0900291504491473,-1.2339979480584669,-0.23926216463762853,1.9140409541379597,0.14481228730641724,-0.5729057525353449,-0.4691644756355496,0.40683503872331095,2.5234375
0.7440355670279022,-0.7393439159115219,-0.2512651965290283,0.4568945500951585,-0.0542776921019393,0.13620599428776453,-0.07944451187151265,-2.3214284771407425,0.04780443972286324,0.2924766943762712,-0.19369455414873263,-0.33453028639664145,0.42751084231118697,1.869565309165132,2.53125
0.0865571015677371,0.21171319543952122,0.016879183939016235,-0.03785809372747237,-0.02317583960438658,0.011403441249631966,-0.026925382851438254,-1.1773389691280658,0.012165072666936482,-0.03863909759448131,0.027521512139114655,-0.09671624349340528,0.02166807753302192,1.0143705448492581,2.5390625
-0.41052660202638835,0.4453352963803364,0.20782137702641484,-0.3084347365044797,0.16841506202921472,-0.060491508683402556,0.1688506142431985,0.2679665576460474,-0.26642155607206414,0.3245370843115819,0.8057391024604782,-0.09905211678095018,-1.6658452725353958,0.42406433338507843,2.546875
-0.48002072340580165,0.23546133323348234,0.24257454451654487,-0.2992768508349524,0.26904876691116886,-0.10214308211085497,0.2586399089709451,0.8445073775668318,-0.39666312983122937,0.3779835785994518,1.204112023055583,-0.1550456000023254,-2.563813532856617,0.5656729964861992,2.5546875
-0.12505971977454258,-0.22178399736342932,0.0362768495452075,-0.0031258327523183364,0.12765572531798436,-0.01246049332819508,0.12283424545014969,0.8174031694977312,-0.18299077582332912,0.34786776356470844,0.46536340056817943,-0.06927245591632065,-1.0514402306389878,-0.25058183166830833,2.5625
0.4237311143689202,-0.654924143126888,-0.26218342054873334,0.3842282346318328,-0.14372714405417386,0.1290875944305442,-0.1354780775753038,0.17066017373902456,0.2125264459009968,0.17629246147076294,-0.822619265218326,0.07937157279741379,1.6581600112332673,-1.2138254724803927,2.5703125
0.7870390267203398,-0.8528358851534645,-0.3516840562399117,0.5634605050540494,-0.26573236654563315,0.07819892863394137,-0.278228689766821,-0.8636347872223359,0.4300527992399071,-0.6992954715717122,-1.2268327586609986,0.09300257736049244,2.535709917677464,0.05146995104869535,2.578125
0.6299218074678219,-0.6162415954260362,-0.14917992739741728,0.37051227312184454,-0.16730082409069594,-0.1591532771533134,-0.21697032781418815,-1.1055309763349728,0.3536909412881874,-1.8514708554226178,-0.5416785521098686,0.04878782817616495,1.116415774472417,2.2863961411484905,2.5859375
-0.14882235372827265,0.690713701894808,0.20588189768410603,-0.2771579750099458,-0.12001513082799453,-0.3108410169547918,-0.1474660304207856,-0.43094634328765175,0.28167374596016126,-2.2351900323916105,-0.14481907116434378,0.25597200308772505,0.40342270364743665,1.9740337315888943,2.59375
-1.1583802779937296,2.811210520053369,0.5478407169856443,-1.1502603673974565,-0.2164949328649147,-0.24943061368280042,-0.16071093819437587,-0.13179433012211464,0.31255872281700053,-1.515041863954605,-0.4468372663778421,0.6010097298364908,1.2983243240271818,-0.5445804771935985,2.6015625
-1.494081964574914,3.272979467895782,0.6184450736420343,-1.3765970258218936,-0.12780471968968624,-0.09313177840285358,-0.03539531547050576,-0.028221439148212152,0.08495124691807068,-0.06514561895187469,-0.16067536530678678,0.5084149189742203,0.750662511279812,-1.8546487707853916,2.609375
-0.6081004660152015,0.4961299189045306,0.18616345292464628,-0.35560532684636625,0.19593268554463636,0.0579553847939535,0.22636280024197505,1.2328299465478834,-0.3525257283348652,1.2780961159104387,0.7304446200509915,-0.04744685654218245,-1.5390602800659785,-1.5000185817610157,2.6171875
0.6920948203608539,-2.6314858309925024,-0.44758939626200045,0.9595902633709609,0.2601194740114563,0.19335754652245785,0.22602336691826946,2.484500554191276,-0.3482803991373036,1.5457652409533664,0.46629432098253254,-0.33401579771289513,-1.4245989719481067,-1.640473027115215,2.625
1.0055921341354084,-2.4030301840411874,-0.5867737915068968,1.065981673417339,-0.030036022325603647,0.2411076071425692,-0.04990858350426565,1.3508638178498256,0.0791013624070841,0.8559104371509573,-0.7086360969591263,-0.12475001253881583,1.1477785066935073,-1.8421881282377566,2.6328125
0.29904014867559714,-0.27475845150166406,-0.1458182020181333,0.20318378353963062,-0.06701942459545876,0.11543802083107296,-0.06276546700111364,-0.7598291338315614,0.06780478410795852,0.3764478873563714,-0.34306273289213307,-0.07795434891651841,0.7324898878684438,-0.06272650308404625,2.640625
-0.06502808935473046,-0.2640523707861998,0.13035594955918167,-0.04196701296287464,0.2951982442154987,-0.062437246364988076,0.2592346539707194,-0.4883404476202067,-0.44237634678973053,0.4687259836833331,1.3703056319578173,-0.4090367961650039,-2.9164056614194336,2.165585634019833,2.6484375
0.4091911444134099,-1.8707691312194978,-0.13581910421276236,0.5605794317784091,0.3812056139734113,-0.04781480433853016,0.312763703476183,1.189230983260109,-0.49431533083349616,0.5161839495949635,1.4090392424532883,-0.47673603880512133,-3.277238401671699,1.5242724237360605,2.65625
0.6025879173412013,-1.3118162648694893,-0.3316564550026794,0.6004467371530375,-0.03156917244591405,0.1338823749357761,-0.04432003164269976,0.47065450720261337,0.0643483145438794,0.4122192289817578,-0.42989698008464317,-0.08392160968472147,0.7289217332424117,-0.7791970138229593,2.6640625
-0.03417686468056145,1.2927465823210336,0.006774254923537707,-0.29239069036076637,-0.2925951574717666,0.17050442315830652,-0.23977961505944195,-2.411486523702258,0.31888279529906344,0.30593665819938476,-1.062180648863208,0.12810952822348118,2.5288076913489164,-0.4181529554672244,2.671875
-0.41165170778972016,2.074183449086689,0.3397523037934637,-0.7353270110520558,-0.09463985965400047,-0.013668714078223452,-0.06904428206118811,-3.6460830494264527,0.025435400202674735,-0.08833244536406754,0.16481514255275634,-0.11172532974661849,0.07635030841519624,2.4900626645516537,2.6796875
-0.015508416178413833,0.4591949370479713,0.17527756707014625,-0.20396578004319554,0.08710281717507837,-0.11657974644904762,0.05734958644260659,-1.9572000046089357,-0.13302654659572838,-0.47922762422264187,0.7239155386177576,-0.2524545231498464,-1.391771879951304,3.0466819168052663,2.6875
-0.08747481371585739,0.05296472824547914,0.02330319848715573,-0.03819191544023961,-0.02600614165279993,-0.05035238357293305,-0.024170033222374494,0.6107884122595707,0.06477958442042897,-0.3426245919199655,-0.12679676876038107,0.12478335480272991,0.24663103877751644,-0.42708263803495183,2.6953125
-1.05548322167837,1.8125890041620527,0.3324554439184628,-0.7928979576520817,-0.17702155949930823,-0.12064841325668993,-0.10660060156475835,2.257077262846293,0.26605957391965696,-0.6536856028491101,-0.722606773229582,0.6996687761413817,1.6542978780627697,-3.393095294923273,2.703125
-1.0947258238765352,2.022659471638326,0.441431534373114,-0.8958757507368188,-0.21866141539405246,-0.3268321677175501,-0.17369386721307242,2.169885969580579,0.4056009289201186,-2.0670960851754936,-0.6962518430409557,0.8240023018416806,1.621746985920765,-2.01435727211394,2.7109375
0.6551329089203519,-0.9841498656949558,-0.20974034949654793,0.4981021670486755,-0.20722503630345648,-0.21500204137864828,-0.26020002008818377,0.2576300107741905,0.4704561913152995,-2.340562010691202,-0.8408857852289184,0.238707595670499,1.6407551593914398,1.2939322210669193,2.71875
1.8381074075947454,-3.180918173812813,-0.766158651107438,1.5151773006267344,-0.059864450577097245,0.2133766056252245,-0.13953376678938165,-1.5226065612332913,0.15031883967458276,0.1274876920213464,-0.601266692710489,-0.5057985037736012,0.9525253095166349,1.9781942156859422,2.7265625
0.4967945069324071,-1.2329854482066833,-0.279150123238096,0.5053358208210031,0.21580287787530908,0.3306673367248315,0.212684212598201,-0.7282978246439515,-0.42843253962237887,2.4362904444920455,0.611024098271386,-0.5688765478318785,-1.4041692862657487,-0.16552386285619958,2.734375
-1.4104775093991846,1.782765849643673,0.5369553093689948,-1.0119814847711541,0.32869125537546706,0.006430730874606431,0.388948644859156,1.5525359757348656,-0.6048614464650626,1.7852698272480791,1.448361635330758,-0.01591484576432163,-2.915488152451972,-1.869885273512187,2.7421875
-1.1447853305974522,1.4325957370760496,0.4385915695146723,-0.8078981430164207,0.17155943327743747,-0.11032293387749074,0.2137412806605919,1.9595177449269805,-0.28393568733018865,0.435979249609383,0.7876156537254622,0.21679865041566318,-1.5822483425544676,-1.7257513050840354,2.75
0.40659518585294313,-0.9568302471502523,-0.2622086085539494,0.43543234875180553,0.008167860319969047,0.18413451717109736,0.01125465441056709,0.3202536115914475,-0.03867771426904251,0.9590749699426455,-0.24898760367821185,-0.1269373820384689,0.39928376488092243,-1.0882812016119239,2.7578125
0.7616124122528802,-1.3993128863106659,-0.403679038082011,0.6857893793697223,-0.020878997774498823,0.2578933469322717,-0.02751588672433572,-0.4600662163355546,-0.007089209605499535,1.1470067906251786,-0.4046773172245613,-0.25556654116397587,0.7116661618148049,-0.583517678521559,2.765625
0.1254690963520053,-0.17886682899797957,-0.001974103567229119,0.07985295509878501,-0.05879267530709387,-0.14374141921912537,-0.08246258128093555,0.1925018867244827,0.16331377584197654,-1.16056160587239,-0.1694868825934116,0.11782537418177197,0.3224905570938752,0.7937745686122245,2.7734375
0.19207720124989466,-0.05886078564731628,0.10146901519671868,0.02762506258573631,-0.13468669139089565,-0.42206186427752845,-0.19859348821378417,-0.06547150058617211,0.39001967364363005,-3.1947287819867993,-0.22178470318366847,0.27514923828523663,0.4504214666608119,2.8573928439866068,2.78125
0.6788412974106766,-0.6807424682003181,-0.11719023499846407,0.37529415460581855,-0.10657823805729645,-0.19496264098473512,-0.171995443765934,-1.5853189777790133,0.2693305549975905,-1.9375674465889414,-0.2029981601176427,-0.07480039447457305,0.4100843323013271,3.33713856794065,2.7890625
0.34580627205981795,-0.204325992592065,-0.12064403025306139,0.17473910448832788,0.014949035402655927,0.17015181864971674,0.014248417321650303,-1.8582050967873178,-0.09965903756294708,0.9437807837157679,0.08444995414941243,-0.3152656643331272,-0.11354523002816976,0.962932495958512,2.796875
-0.37673202442388537,0.6301275055034027,0.037851196986058495,-0.2600865770286888,0.08085981159970002,0.2915732605104598,0.1413444657146755,-0.20141449539764664,-0.28063033773159496,2.324489048346235,0.18051207213423062,-0.14628918818322606,-0.28293678457461974,-2.1389007897581407,2.8046875
-0.5272806589608913,0.646328753910688,0.09124852512706087,-0.3184589433066408,0.07098214931954254,0.18340865776070683,0.12753223882311968,0.8904817049507858,-0.21218748209417682,1.6846563817707716,0.12306702281984488,0.032082822944469284,-0.21220549879190373,-2.5795649203550566,2.8125
-0.476699224506242,0.7778484734781276,0.21894842852738994,-0.39712854622181926,0.0690822137525336,-0.06016232361048539,0.08349508998456652,0.21406224280624644,-0.12308966379688048,0.09009763564374748,0.4080543731964282,0.04377474817405157,-0.7776972767410665,-0.07025674607725314,2.8203125
-0.6109693658541245,1.22073158308553,0.39223652415103655,-0.6099654089261353,0.061982137267082967,-0.2701862438828513,0.05207180739713012,-0.22996061210131966,-0.052011800391292974,-1.195732742985662,0.64772208814104,0.11046867686946078,-1.2176910402761676,1.7015544927035786,2.828125
-0.3268647761185576,0.5231844739870771,0.1568267340591202,-0.26457340455669776,-0.017077878364150836,-0.13124590749017004,-0.013585755680639461,0.6298851947548754,0.06055714376322764,-0.6987156752989072,0.027046879196083343,0.19036737106038829,-0.023423118787541296,-0.11212996184177339,2.8359375
0.2869069599640444,-0.6301557186412472,-0.30643292872011285,0.3643562505546836,-0.11389325134562422,0.28627391580821765,-0.0743662182955915,0.75292876312213,0.10441134577131053,1.3471949898461317,-0.8841817592174311,0.06796640838333996,1.7732793592281513,-2.973932613288846,2.84375
0.241451683584422,-0.05508647324347768,-0.24855713951877526,0.18858241351600752,-0.1227293684330071,0.3751150101908285,-0.06920152915025475,-0.8810484575776001,0.04048436782006943,1.9313970505455096,-0.781028386089403,-0.08729795822491586,1.703514209561438,-2.235528565072981,2.8515625
-0.17271863772698878,1.048220428465494,0.18177092415651,-0.36235641007629704,-0.09438799820928367,-0.08589883618484169,-0.09096619566982637,-1.7453798973159607,0.1207359035756857,-0.6979307756424736,-0.06260919692209956,0.03389288442028321,0.3398388183121698,1.5873710714861162,2.859375
0.270268622693859,-0.18336195102111796,0.0922688331510317,0.08059036217637676,-0.14313303159173923,-0.467082221519904,-0.2182604998068094,-0.09664312721003414,0.4279746500336605,-3.5558612019734315,-0.22830529262715277,0.28262707150435346,0.44693599415658103,3.291521124610357,2.8671875
1.0985414877768191,-2.4187068466797523,-0.4250109915795492,1.0339503644073067,-0.15314011364563068,-0.2767701191842025,-0.24578848536383316,1.7964971893560413,0.491755973587618,-2.866438657400967,-0.8432133273321722,0.23319506790645486,1.3917724057461986,1.1833750389687718,2.875
0.7465866698208579,-2.118121600605604,-0.3999899989898074,0.8462231368385291,0.07162186849189076,0.07182240671186631,0.032285829252533225,1.601600017723625,-0.02807814641718246,0.20992042855787507,-0.11456059701762694,-0.13040154369416143,-0.09275385101527676,-0.6954066342789091,2.8828125
-0.4867585475249293,0.18193723277858478,0.20511266638863515,-0.2791124710925376,0.34194073436117256,0.04229279152130152,0.3463365868977955,0.5546481428476315,-0.5721879404988467,1.5152265294814367,1.420624343466633,-0.3259410763528537,-3.0125844121001206,0.06966382955968746,2.890625
-0.8946700199270928,1.1820790999573714,0.4498892475507532,-0.7100828662392434,0.2763836948079815,-0.14612143285185436,0.2835584394801778,0.45855332411084754,-0.43932327706850577,0.36511720071676984,1.4037034183231978,-0.09986078581543845,-2.854034231988919,0.7253405688232525,2.8984375
-0.24084195413823134,0.36879375682300697,0.07855513324231729,-0.17397975312443162,-0.009841155441063091,-0.016666773452521103,0.004886060715178465,0.4697690047231686,0.008869089474303237,0.005757463818981113,-0.040338942184550274,0.11030045684977924,0.11074456898449028,-0.6769419840524917,2.90625
0.2432386721686556,-0.25157221682842446,-0.2264852765997596,0.21943045833208266,-0.05669545176318279,0.3225360904324095,-0.017541125264554924,-0.6236447839344919,-0.03279314232810548,1.7686636884456652,-0.48960605021436066,-0.13653381354786512,1.0487747806205814,-1.7690180754852511,2.9140625
0.033222159026905486,0.22094638467507524,-0.09678531774654325,-0.018285245605021476,0.10474232776009954,0.4167794237238726,0.152908910221707,-1.851956090417978,-0.3648021851218259,2.9570651501640737,0.303754129686846,-0.4529420157846152,-0.5151375426374659,-0.8892776735810541,2.921875
-0.31052114598323804,1.0468469974892851,0.12713494851683035,-0.38408917397311554,0.04121149045932963,0.20240668812799645,0.08430055362074472,-1.790083374779255,-0.21498605000048987,1.6108519071568053,0.2846361622158975,-0.21985734718965969,-0.3829380927449929,-0.09367848641539127,2.9296875
-0.2067049124109488,0.9914798038188674,0.08063676781136804,-0.2972740572212628,-0.20978699330558973,-0.0041350759683444985,-0.177552145569768,-0.6331085927247565,0.28584660836993614,-0.481312884118995,-0.7562452141120811,0.27017252120430174,1.7567570594286934,-0.6186274972195844,2.9375
0.39711284104666045,-0.5468147031013015,-0.18818713399859133,0.32706676179540045,-0.21428478901395498,-0.07087833237941044,-0.22739212059541328,0.5112361083652199,0.40444277292831493,-1.2860835727550222,-0.9806131381479333,0.27677994227029834,1.985860082786821,-0.38968874399618814,2.9453125
0.7898875002005248,-1.86584586968843,-0.2863082458025292,0.7505490640446457,0.010836189752954258,-0.15870550850355225,-0.06222070704697295,0.9302904103918537,0.14481611395064092,-1.4557732409421178,-0.08770944947095767,-0.04167738441973508,-0.09498090284078654,1.4251686959094125,2.953125
0.08994759669160737,-0.471025106845985,0.08123762679366571,0.09193188025498805,0.06779999143271685,-0.30186102880202287,0.010321189640523904,0.7086580272028317,0.04180877738250379,-1.7992948533053714,0.4425534611906461,0.0529080934815318,-1.039972267176216,2.0240643191245042,2.9609375
-1.0494187778542652,2.142288985756095,0.520696738198637,-0.9688632172060011,-0.06281558055356215,-0.29070653823443676,-0.03446759893584436,0.4591405036565496,0.11931603051883118,-1.418435575971738,0.13770643564196317,0.438169792821478,-0.05408748283284423,0.061538708545357465,2.96875
-0.8426524829373855,1.7587854160581273,0.3480449239277339,-0.7544475811808953,-0.07267161086758073,-0.08482800916048427,-0.024814721499308117,0.30543740952358706,0.06910662163936994,-0.2503940181298178,-0.10587996699128227,0.3272122079356061,0.4284464196011033,-1.0999892451575393,2.9765625
0.46538038347511834,-0.948527480511046,-0.17652728170487403,0.40189770458952045,0.06322919876770972,0.047171861818197464,0.034216379714538524,-0.38358605265545215,-0.07836767685626779,0.20347188547073652,0.1828754686370817,-0.23168767119157854,-0.48840525839174126,0.9111160921626937,2.984375
0.5479255589590022,-0.9242087217011212,-0.13021067303095712,0.3875247539885189,0.11319378509888882,-0.000749426447613393,0.06459313830407841,-1.3285074436196156,-0.14900847032852152,-0.007160064700636734,0.5406696727287894,-0.3857502753468074,-1.202776812993744,2.4760775994566484,2.9921875
-0.6639416562910677,1.590357807392328,0.30929021641147214,-0.6692844733954493,0.02148017069283419,0.022620411194479384,0.06263942126192537,-1.0060357892188878,-0.1296997751257365,0.6035043109639309,0.32859911341577935,0.009205145867443018,-0.44960688805685944,-0.029056342060387458,3.0
-0.4241049509463976,0.7899085900953415,0.026414922100093583,-0.2858788865733151,-0.08077593670984921,0.20669206140816374,-0.01241887198878445,0.62483929945581,0.013427509895509202,1.3487156069551605,-0.5203758570885025,0.18435205497005255,1.1834487221474024,-3.054896666442471,3.0078125
1.5052164462454996,-3.3239099980597553,-0.8132144815713808,1.5051461699861666,-0.10147076588546508,0.25568896121886886,-0.14292775285903664,1.4929680203945348,0.2336252605049578,0.46038259087602496,-1.1373544145380257,-0.12308511799407686,1.9361015402361503,-1.7476566202871298,3.015625
1.7297787147648858,-3.700200421199557,-0.7672752774585248,1.6172047897495436,-0.030746524501310244,0.0586145964759638,-0.12526222242872342,0.8887159093540231,0.21249382945263343,-0.7340158907844022,-0.6319788666960191,-0.25447855881837356,0.8367129692309099,0.8997148147298072,3.0234375
-0.6089597621077817,0.956503132936013,0.26846952682742237,-0.4913518716155282,0.083299918658364,-0.07267727334177744,0.10314011609242676,0.4410236850878899,-0.14736753146188292,0.12912174151933753,0.47498937210443315,0.07618324259175809,-0.9083138811009941,-0.30559843779659296,3.03125
-1.8486486334906111,3.2590937421687847,0.7276058918690239,-1.5312350095671379,0.15660842337742473,0.009576650900124217,0.2602116955572003,0.6090501107241363,-0.4089192856291335,1.5944080587394784,0.9292650012078713,0.22067199287371364,-1.5853457166307052,-2.393991505728455,3.0390625
-0.2587437165529011,0.269324856864743,0.1004211996722497,-0.18232418351678942,0.13909849733493126,0.06113747498227038,0.15106909964881493,-0.04565186130440121,-0.26270656219392297,0.9395475468491813,0.5856992779264274,-0.15908713189584106,-1.2023751118767365,-0.13566393628098156,3.046875
1.0453231036821582,-1.7690191586728348,-0.32607088470582735,0.7952178920301312,0.038686476609128384,-0.02721283884832073,-0.037921424385253956,-1.3825606959541965,0.02206740399448768,-0.6746510177604422,0.1613201223153163,-0.38341651938705507,-0.5039246500598064,3.0436134739470666,3.0546875
0.04872442449018295,0.49377156808050604,0.08114028838159061,-0.13589715154653687,-0.07902939100161534,-0.0807052538399327,-0.08974542020428652,-1.4753456326961096,0.123403990677015,-0.7615120687629937,-0.07986924389923347,-0.009903169465056356,0.2938090187364365,1.6726451073490882,3.0625
-0.8743871187844666,2.0012481266431377,0.37669210258420766,-0.8313209341356964,-0.08474419097131869,-0.06368686654353392,-0.03153611242423506,-0.2454838278228946,0.0634127573046811,-0.12890600675614342,-0.09806417123075799,0.2931035828463099,0.4686670778039065,-0.8449004467282567,3.0703125
-0.05540476214091737,-0.0749922841117862,0.050351713562819096,-0.02084503405525217,0.04781801049980324,-0.08412154512829344,0.034504617644311404,0.37196773668867,-0.03642277348312595,-0.3719855202451645,0.2378016762092609,0.007703987164010149,-0.5319990555321463,0.4253706270282139,3.078125
0.5294592733295834,-1.17207304557712,-0.14521580543207213,0.45278629220985855,0.0936551068220771,-0.08508360275447642,0.037615140604797405,-0.19710635420485195,-0.0618457468891013,-0.5919417258157735,0.39096900674431484,-0.2255838457445351,-0.9694429675673679,1.944643187398404,3.0859375
-0.29762741445996455,0.9428714092519165,0.1406848723219782,-0.345118905653799,-0.09508401861247807,-0.019709412423542835,-0.07094433652928625,-0.5646623671830467,0.11047080405515891,-0.21475747168073495,-0.25090699749054113,0.14508597317559072,0.676049480248694,-0.15567099675721438,3.09375
-0.681766159374063,1.7848641862456789,0.23651712725308283,-0.6570046192565947,-0.2498178878311537,-0.035920731232853255,-0.1869190639646212,0.18553484611975102,0.33215895691765196,-0.5296918452695807,-0.9084436849713362,0.5061493672942968,2.1420084100219112,-1.9386332819875158,3.1015625
0.1672208086760523,-0.4902290759637828,-0.10221480458531473,0.2141754454205387,-0.11131144838608421,-0.1028256305034574,-0.12360804596718969,1.2691088160619257,0.25538931582459445,-1.0723156131726592,-0.5730799237857339,0.2639597607529906,1.0934001726893345,-0.6883577561903325,3.109375
0.4797480359779183,-1.4608150520770542,-0.2587391484364506,0.565120582171598,0.07874162259950133,0.045942983845761065,0.05058679204693726,1.1703230974315102,-0.0649399953064801,0.23402821331154025,0.04492672103009674,-0.11494787976789848,-0.32984159142041175,-0.43865028285360835,3.1171875
-0.146741933310395,0.2929291770484299,-0.06439741079957513,-0.07781987358889192,0.02992647129911391,0.3078738293321307,0.08327173009024488,-0.31886730060865437,-0.18989117369849096,2.151682249745508,-0.07749671205231023,-0.14062110751606485,0.22722013024272975,-2.0761955274288058,3.125
0.03353110981441652,0.3310334970935885,-0.07498020545345074,-0.03314139585673311,-0.06137999313963413,0.22571088154276064,-0.024670636525292198,-1.0805774223532902,-0.017862770080268077,1.261322637263299,-0.324479987485619,-0.09630286204732871,0.7878431954141072,-0.9286454262908163,3.1328125
1.0504870239172803,-2.266426112875125,-0.361643533069671,0.9365430604942534,0.02445745020448505,-0.15918723713679778,-0.06763983162798562,0.4278091897715353,0.13845735286172298,-1.5755651254949161,-0.016005081565431997,-0.15898948671261187,-0.2758057243494779,2.3007124431133437,3.140625
1.029600648145454,-2.6801275377751037,-0.36729238084990334,1.0301681864835694,0.0752624404499066,-0.24839629039664307,-0.03155934960486154,1.7123917302110867,0.12396515962386044,-1.9968568410482945,0.11413009349286225,-0.0778619429495782,-0.666888385839823,1.984823298807542,3.1484375
-0.07274643486903862,0.25597861142542366,-0.004691748862948478,-0.07318530145533411,-0.021852887810209807,0.09540640955898104,-0.0006973225325125671,-0.27437507754878343,-0.018192573273165098,0.5983981553243026,-0.12716650588370154,-0.01185573088800704,0.3164494314454435,-0.6583261255863714,3.15625
-0.7048935320395425,2.22227327647742,0.307626980057466,-0.8346310843145055,0.030162682360406638,0.2863179607655934,0.10940357352411603,-3.0645283615705954,-0.2990952313769446,2.3547704396143616,0.4054700480077456,-0.26650507239940907,-0.43006647436660955,-0.11625010634405743,3.1640625
-0.9097245756526634,1.9313485602195368,0.5066731651595027,-0.9229179924891715,0.2685948512417052,0.011034188081118184,0.2965209616530408,-2.0394315726734025,-0.549071181505659,1.3719388603739329,1.5576705950214793,-0.36335936589498946,-2.964437743880815,1.8029664989367695,3.171875
-1.374756100511609,1.9195808876243827,0.6607064624130976,-1.0853795237798494,0.26510351209948213,-0.2926614031119332,0.2829836051659038,1.3751115852050502,-0.39001243565799604,-0.32721400417302215,1.461441124918092,0.14525307349906255,-2.928034662197577,0.2872077675762277,3.1796875
-1.0217491485755763,1.5688593742165409,0.3966884187703032,-0.7694945464581909,-0.05233900620168796,-0.2258256804010572,-0.013069269999125365,2.1205679589934574,0.11818208099527241,-0.9989919181991699,-0.09505122581259244,0.5466703034327519,0.29574985130156406,-1.869649196992578,3.1875
0.7064089171956307,-1.1673867745467934,-0.33356022633237115,0.6088879146651637,-0.20460010293677316,-0.009043529147101085,-0.22899749311079506,0.4217480378337393,0.3934799644999875,-1.0493814563212003,-1.0424245370752774,0.17156261058655553,2.044863683049812,-0.3121504124814791,3.1953125
1.7183370613739586,-3.480354107087886,-0.7299850932451529,1.5477551622614318,-0.05272018586882759,0.03809722423410213,-0.14873546334411097,0.36631743778156894,0.24117851109260446,-0.9226535006717699,-0.6359427955055846,-0.26282860717689555,0.8959578568631398,1.4247423236210512,3.203125
0.8411869485183794,-2.162532185748698,-0.4332457694065683,0.9023841116409681,-0.013145685380278271,0.025342832106980323,-0.05702870500921205,1.6605462865533507,0.1301634676477481,-0.38129573027222396,-0.4554542920116615,-0.014617927243542885,0.618936454322538,-0.6601511101526287,3.2109375
0.07510189735071357,-0.0489904297740711,-0.17166214326724683,0.1270318363600801,-0.19544378064061355,0.14298207098798243,-0.15648157411817534,0.8150083992018059,0.26655056638190605,0.3246982727982357,-1.0674865535251563,0.27469481351110836,2.2242577653102518,-2.6079659993613276,3.21875
0.4274428297621492,-0.0448798913227758,-0.23230960638773795,0.22816060254044598,-0.20336086877982992,0.23281531879924247,-0.17712897889303914,-1.616044011016172,0.2213443428184467,0.6850789582428376,-0.935235037888157,-0.035954031257644924,2.0580279390514398,-0.6064084580097941,3.2265625
-0.047305634648071915,0.6131292684973754,0.09361948212488903,-0.20838786636250226,0.05484998244946612,0.09469042656404604,0.06254275531641054,-2.1587437506936316,-0.17549157309765326,0.8023491195942284,0.43355534999117257,-0.2904908846102493,-0.7406862344661689,1.4670615250486763,3.234375
-1.59533067996918,3.100272778881346,0.7447793665233398,-1.448225668574458,0.1723315223135829,-0.09961128527267286,0.23884876850903164,-0.6435581541227577,-0.39336000794140435,0.7909627305184694,1.2042998285657875,0.07038123567081479,-2.136484423727839,-0.0047758589243755475,3.2421875
