AF3,AF4,F3,F4,F7,F8,FC5,FC6,O1,O2,P7,P8,T7,T8,time
0.6224192709696447,-0.7146845525439333,-0.2976806624114742,0.45385830549130435,-0.12274345239600751,0.1864168428954974,-0.12307487171484689,-1.1505857201907534,0.1467850207296334,0.49521665799062436,-0.6534427550619188,-0.12774257609578746,1.3535872089736054,-0.06641471495631492,0.0
0.31617995526240933,0.6554678530819189,-0.1255289720980874,0.00019350510113197024,-0.32120154511125615,0.1488115217021844,-0.29108458466285675,-2.457935429786766,0.4041458882797334,-0.11974123897077533,-1.2247619706825603,0.09775552280876193,2.7953443517465426,0.12254515985519761,0.0078125
-0.05683740138429988,0.1817818218909969,0.02502935524964126,-0.07100350718852422,0.027466697192056872,0.051917460762490486,0.03555309402403628,-0.4325887903955809,-0.0780206530720767,0.44357604857547234,0.13632269905399233,-0.08195703700373247,-0.2433561797757812,0.06146892953282795,0.015625
-0.6250392335284738,0.2766003581990185,0.3443194772870021,-0.40298323772552597,0.4242761403590409,-0.12958624417974623,0.40285464478559985,0.7415471501142116,-0.6385954170279409,0.7255949558239153,1.921683884411983,-0.3350717385816304,-4.074818566380351,1.3676436291869716,0.0234375
-0.9606184599592469,1.5831967359901955,0.5931065827406794,-0.8814924039447457,0.23448556470468956,-0.3533097025315246,0.21676158694699665,-0.10079538156006349,-0.31293693627369307,-1.0328123542100962,1.4962243656172034,-0.011611340350826237,-2.978862793874929,2.5059383537451136,0.03125
-0.4858027103949512,1.664818154422854,0.3285791335575446,-0.6259067867872683,-0.2511715316529167,-0.3143660703999252,-0.24513826305942762,-0.604627891635843,0.4456804513716172,-2.421158234308548,-0.6048421453916585,0.48820490159657565,1.508326262893117,1.1151358583898179,0.0390625
0.17064090054654021,0.4452123724247881,-0.11837700324980169,0.022016957641072497,-0.3553939382973178,0.02893356959677309,-0.32677910637409013,-0.46789642421116456,0.5351285376487325,-0.9023265577038151,-1.4913122851799046,0.3927041534080134,3.2396469528407787,-1.173010769012612,0.046875
0.054710739378518045,0.23211338376400642,-0.09541241680740578,0.004594709824815588,-0.0639380142805494,0.22803594543160488,-0.027368309575668718,-0.8721566644256658,-0.008212539285793949,1.260975664423057,-0.3688456165795278,-0.07913073587583465,0.8591885889439843,-1.125192082224153,0.0546875
-0.2006641151979643,0.47219966212135217,0.09885854200550746,-0.21691616624654636,0.12710342510954056,0.12331754083625159,0.14384670600784105,-1.0864832934349973,-0.28711761814309483,1.27479132413606,0.603501525454095,-0.2691802766479782,-1.165796522282483,0.3819424748878995,0.0625
0.38391132975698194,-0.8007374992080106,-0.17415958873951112,0.3502575550452268,0.041053018335705974,0.08416880418776126,0.025491777373026006,-0.20833139496309103,-0.06317030814404627,0.4252449076426626,0.050374865253108955,-0.18132894886340667,-0.19539663755016826,0.26433709316588294,0.0703125
0.8832961101913478,-1.985673189877537,-0.4702619173057971,0.8860271464934637,-0.028361231269742066,0.15948044125671612,-0.05453420759762996,0.7965390960595149,0.08453476705769847,0.40548092143067577,-0.5340575624526643,-0.12485266165814343,0.8508612767833524,-0.8641528808323964,0.078125
0.10738914518782926,-0.7919822655751549,-0.07981367773928263,0.23734213183265798,0.13336175907755318,0.009691938597334818,0.11727004198813347,1.1182254905631992,-0.170469922740273,0.35672688048451984,0.3866547630115884,-0.10500185069885738,-0.970181770353042,-0.3454587272749772,0.0859375
-0.8435234580571285,0.906960104122062,0.43746326464709656,-0.6297392417670511,0.30270082763452977,-0.20364375230927143,0.2959888902097342,0.9041665818331978,-0.44150665819392737,0.037704812414320436,1.4983099635174537,-0.08653271249599596,-3.1094954576857257,0.9321214796289973,0.09375
-0.4641094192047722,0.7134486116428114,0.23338077293040305,-0.39266448542906013,0.1356211987464541,-0.04828102886084472,0.1438376142608947,-0.06937891544077265,-0.23468896429509598,0.3559492287505301,0.710770168840811,-0.07795156009578422,-1.413745579262698,0.40693571691862945,0.1015625
0.37856800148531317,0.0393964190470765,-0.22444867149568434,0.19918975614346748,-0.2521784663484081,0.19890451720038907,-0.2223245634467812,-1.2473571138860258,0.3124529870257216,0.36222850563422554,-1.148067904117222,0.08434392624237481,2.5039713498788583,-0.9861362618909125,0.109375
0.22006402126081412,0.35325493596867474,-0.1349208985103296,0.05933662914210911,-0.33309445149743705,0.04920967160954104,-0.30708041497507776,-0.6464896934165719,0.4936915625437501,-0.7386427534103746,-1.4019397625291343,0.32964790839356417,3.0486121670230313,-0.993382835309861,0.1171875
-0.3450956978687914,0.20602471890422638,0.14279750022957916,-0.19011644727013502,0.034926406734420885,-0.16448484201790542,0.03118077315468591,1.530678138723589,0.01348538091464526,-0.7576465094451381,0.16147018404556665,0.21570808242794698,-0.3903058629774741,-0.4900378555027927,0.125
-0.12973707877139765,-0.8495733657731749,-0.007205461672145009,0.1515466314421579,0.2780235908922807,0.006057560271556569,0.263862141604053,2.037403580005428,-0.39164228536744394,0.8861137317055467,0.924059710930886,-0.16757167912303467,-2.1566060982087762,-0.845407209058855,0.1328125
0.4706822880088744,-0.9421345180150134,-0.2561076217450193,0.4470257483647806,-0.022933332981080454,0.13214756697756302,-0.029480491842124482,0.05698997523108003,0.02955041032930061,0.5050190064005334,-0.3124843926809035,-0.10488210431939836,0.546256084573118,-0.5203428004091519,0.140625
0.5831245212075308,-0.09497885093359501,-0.15264839878928,0.261759277601578,-0.39182832164632997,-0.18984023065655162,-0.42093558387808866,-1.1283426319906469,0.7029609853991675,-2.654622264008918,-1.4454017766654583,0.36960577361781366,3.0957909473401233,1.464030099956116,0.1484375
0.2739571209510007,-0.09266550795926498,0.06420230064884547,0.07646491972218536,-0.1939500712074732,-0.4248471989012172,-0.25769739528328167,-0.14566688848869583,0.487554513951288,-3.4288376406211185,-0.47298832422946646,0.3321338660327931,0.9826762015483651,2.798298170506682,0.15625
-0.17650754294193796,-0.2690919112063012,0.16621723249162826,-0.07949331754604938,0.2918233897790801,-0.13725209086276194,0.25339681947396175,0.35223625719662316,-0.3988910032731133,0.04060833079025759,1.3356252873190453,-0.281249770314307,-2.8843074005347886,1.7861955905374372,0.1640625
-0.6141581646477705,0.8176944787144685,0.2506347614315702,-0.47961101680628965,0.3165197568225277,0.17288473214977412,0.349062462760808,-0.6477207258544958,-0.6255415377154007,2.362821099282344,1.378490855634951,-0.41688513197289323,-2.782542920268654,-0.0814024986348825,0.171875
-0.4870434692628908,1.353904124205083,0.17057090663022026,-0.4997953958831583,-0.09006258388652504,0.0998409071536009,-0.0362792683434714,-0.746350597971471,0.03250383315686675,0.6829474227319394,-0.27647987912346705,0.12152419389430259,0.7931057459810433,-1.116928506725312,0.1796875
0.2618443159380562,-0.28891018490466447,-0.18238747022297444,0.23250947721015772,-0.208817265675361,0.039633756679381155,-0.19691601503608713,0.4893090893261784,0.3385781592674305,-0.4823007982809414,-1.026497020513279,0.25920341896983873,2.1177864466365706,-1.3505524577051702,0.1875
0.49160613164854666,-1.3576522084219595,-0.32286664948696187,0.5659445955342012,0.11878270188143189,0.2750357980319172,0.11954414731101046,0.37604491298625936,-0.233921872305398,1.808676314034235,0.11145593933293299,-0.3183495311016235,-0.4138701478001558,-1.2179072484216227,0.1953125
-0.2514014672666314,0.40143382762164387,0.016494466255373517,-0.19011131764169326,0.25940894313257384,0.43430058736747884,0.31337865961176137,-1.4793775144340975,-0.6262833640962858,3.6685863421520186,0.9451450300916353,-0.575169506811991,-1.869191178522149,-1.0454421147943374,0.203125
-0.6454957566938927,2.0445453150734005,0.24767272415936242,-0.7383438510816674,-0.07558868770773831,0.2275640559242228,0.003190117513631185,-2.164221856059315,-0.0881117343687987,1.6392588576040779,-0.1138043919243547,-0.0353516720865418,0.6052956043786697,-0.9058528427683616,0.2109375
-0.01802465470934665,0.8535095511645953,0.04104752803604473,-0.19059525276382241,-0.3323912257539422,-0.1258795338379719,-0.3187400236114832,-0.6299174567360881,0.5398322787491893,-1.7227761968944155,-1.1996940814428674,0.4369252169402639,2.6746896550225894,-0.008417806710103882,0.21875
0.3501803174485016,-0.8052738335203136,-0.05203456305371973,0.30403976100659247,-0.06962409327662653,-0.31356467101619767,-0.1310656627036675,0.9293094197995003,0.28605100963325214,-2.4140338402587735,-0.20337143080193568,0.20863093743534425,0.2770327842672994,1.6326420267276405,0.2265625
-0.0998884507750783,-0.6824378406646936,0.14806838976720216,0.04354613810134328,0.31631030776993174,-0.23827935091265962,0.2567030455003761,1.1366837320935574,-0.37061445443060287,-0.5878613513907228,1.4112224367436146,-0.22602169096959082,-3.1364481149346557,2.0283792856335556,0.234375
0.02468743147352422,-0.7699329256510049,0.007663989214281838,0.15982339210535318,0.2608642999949684,-0.030459083989963928,0.23050119412738637,0.8240359622412787,-0.36379059078370146,0.5143833455307515,1.0109587616998779,-0.2736801018836046,-2.2772623182840066,0.681603718229012,0.2421875
1.0713524467874105,-2.1748709117685707,-0.4985413557568052,0.993990601396567,-0.10775735151836302,0.03667014801947109,-0.15692454965525646,0.7032678871889756,0.27007697030187794,-0.703585448278967,-0.7839308880786197,-0.02458473347310062,1.358826822690534,0.013937588102455342,0.25
1.1338530887621676,-2.0573529729821036,-0.4904563518936786,0.9928847444035344,-0.2587917777797415,-0.11105482727536672,-0.31922271345210634,0.8964171084598899,0.569145446656746,-2.106574118217245,-1.3247265575356764,0.2328826735982203,2.505918794542827,0.3342605383263197,0.2578125
-0.5380820447559725,0.7747970632990425,0.21229721215080313,-0.3883049883096039,-0.0780209280913646,-0.20311851873184397,-0.0639792340553364,1.6471571460784382,0.1844568911910771,-1.2041669573268157,-0.2564088039389925,0.43155729270897997,0.560134833618684,-1.0795021350696299,0.265625
-1.8413275457095497,2.965009511074836,0.689388073001302,-1.4317213068148136,0.08251399483877843,-0.0998031214037423,0.1794168766226054,2.081885231832404,-0.21826937980545238,0.6740825344011098,0.5235357159374531,0.48838396127121764,-0.8334258727476579,-3.2593857140694085,0.2734375
-1.1339016099926371,2.0972867865503604,0.43900304782520405,-0.951687663535994,0.026382670262701014,-0.01460911398505551,0.09410099998068847,0.4858417936076259,-0.13417636046476442,0.6510598711556047,0.2810883859871787,0.24632954416330047,-0.3533624024714961,-1.7335584346165551,0.28125
0.3141143289081089,0.15693551952083087,-0.012087507664368558,0.040856041444350774,-0.06252183613190587,-0.014529602521002695,-0.08306376468319525,-2.2971507568564946,0.07878359411550626,-0.4407546947680573,-0.014606615160762315,-0.18280724486070388,0.15416333085199274,2.3626689135030556,0.2890625
0.6781161953624966,-0.425965559404801,-0.1704302540102533,0.3272037921759434,-0.03151927331342267,0.10927336409187055,-0.060585412258277564,-3.065976519845974,0.00039384841242464703,0.22599871603778185,0.034549369588642936,-0.40974124417612495,0.014778219942758903,2.776066109499757,0.296875
0.2934503371684978,-0.19818585989424153,-0.18998465014141924,0.19590497708426508,-0.0074336477911498165,0.31169971264043067,0.02013266598882307,-1.445076825547695,-0.11713993063738418,1.8089060492151772,-0.17758906733203567,-0.28375361408704475,0.42769697752090885,-0.6355642350228633,0.3046875
0.4799233998614178,-0.6969734069681636,-0.3156081998223505,0.42253198349487897,-0.08300019077820503,0.29492453825101034,-0.06026322611289204,-0.5420845026348012,0.043334163036961616,1.3765870826090998,-0.6326956115337816,-0.13320247815518554,1.2894173069327095,-1.4413393408691768,0.3125
1.044114380775109,-1.611938479870442,-0.4054807598533385,0.8064825540065089,-0.08653632797001573,0.07323794993112864,-0.1346419445814168,-1.17134441399611,0.17744941191286095,-0.3826483385176426,-0.4800078481025672,-0.22808341011285777,0.8707551270244112,1.5294658082166468,0.3203125
0.6690698137474864,-1.299340222081924,-0.18226878662818002,0.5297844281992324,0.09693674994275722,-0.06320078850278676,0.0338785817712094,-0.7456414908085561,-0.07433209289122722,-0.523165393747256,0.4288053132217889,-0.3151991776159028,-1.0415465711873608,2.487575288472394,0.328125
-0.6574604581815979,0.5246968129647518,0.27492409530238504,-0.4204562551649817,0.2667828099323023,-0.047482623264828806,0.27660945472525683,1.0810017139233123,-0.4266966035422455,0.8305794042915607,1.1499244053523583,-0.1121399061522275,-2.422002184919644,-0.31844951433368246,0.3359375
-1.3335143750248315,1.7984240248449845,0.49484098697025036,-0.9673058736355313,0.2199233972380033,-0.02446497824988792,0.2818396111281683,1.671257499396064,-0.41715199109569784,1.2479365597729646,0.9878327666319732,0.13577157241998758,-1.94235222393609,-2.1562537084822897,0.34375
-0.6287020247576198,0.9249800863728197,0.23095972042910304,-0.46665117747892987,0.04497576494978523,-0.04223808567339103,0.07566984516710382,0.911318410756859,-0.09250915299378279,0.23089106142180613,0.23017990091442764,0.16429769526763352,-0.4122830559309107,-1.1742230857943838,0.3515625
0.22369368922451696,-0.5856325348740831,-0.13553579360864768,0.263388476916635,-0.10240810833598717,-0.060826544585466685,-0.11298532003919855,1.1317992607428096,0.227684617551595,-0.8138950915030635,-0.5657633060723501,0.21394684022980492,1.073127037407035,-0.7570352910332694,0.359375
0.2509089899117915,-0.6342950921144553,-0.19053077476735097,0.3169323152897117,-0.20003581417700295,-0.06466632291611343,-0.20186351300185812,1.720672524414155,0.3941810757138146,-1.1374035092910317,-1.053059531183164,0.39458736235800695,2.0728088163387426,-1.6672028434842672,0.3671875
0.13908432027444953,-0.04127688838409124,-0.07671376093099698,0.09655072535698987,-0.19171773473732992,-0.06864887547999815,-0.19076843063191584,0.41639303545269696,0.34213461481993657,-1.0637387587701221,-0.8247431463799695,0.29014441369240884,1.7227925895363116,-0.5493883877420767,0.375
0.31274202976677595,-0.2238963975645337,-0.0042131083259167885,0.12483736051773678,-0.015362800719046632,-0.12927644386851728,-0.05594118893709734,-1.2319839470054899,0.07669482390908292,-1.0462301496266853,0.14770718556677656,-0.11234162864081809,-0.28917377055150256,2.446220079607871,0.3828125
-0.06581390079735706,0.048746656302471665,0.18187259242016537,-0.12287025963488811,0.1383176847511851,-0.2304125122940244,0.09211774041071867,-0.4750187783353049,-0.13651134192460992,-1.0452048518898323,0.8581022479127169,-0.140331066498931,-1.799271195227743,2.697016759045138,0.390625
-0.9196826385273779,1.5326576344376512,0.4196302273040432,-0.7626217249194924,0.05556419126393853,-0.18259582444785258,0.08153901310242748,0.8336304731352662,-0.08257879869999533,-0.47837653896651045,0.46575735143693014,0.2494808885223813,-0.8386591132689254,-0.3728236481695511,0.3984375
-0.6896317520654094,1.5849789164179318,0.2424824215560802,-0.6330030623131783,-0.0727017141590464,0.06973087678070611,-0.011635634146411356,-0.239654746086366,0.010152016304866614,0.6500955116028783,-0.20205032477606735,0.1954320758760241,0.6413998312039585,-1.5454531156020568,0.40625
0.8047257606540751,-1.1853887860350776,-0.3391309741061057,0.6084191972386874,0.024256715790605232,0.23878850917023237,0.004556557716269065,-1.7550394428739717,-0.09390826276636886,1.1383806652441193,-0.03983898308132378,-0.4356033502539494,0.023629937604825603,1.0060840605550587,0.4140625
1.6242843487884422,-3.276630175172338,-0.6568698941577776,1.4216477286722884,0.1415852539247406,0.17611370379382338,0.05064334791917475,-0.963238566650373,-0.14953878067724963,0.5814448440292891,0.24630061391003066,-0.6709564955631553,-0.8845763451137467,2.360034458614018,0.421875
0.823277899800062,-1.6590654291754137,-0.40809974095508594,0.7657099774109818,-0.0263815815220612,0.15078284864435162,-0.05177108919605549,0.09609762048216976,0.06261897023030576,0.4115521513069207,-0.4172276309184915,-0.17550780767692398,0.6765864124381897,-0.24863973618645613,0.4296875
-0.29861454285907957,1.2909464840345033,0.0014038226370488764,-0.3493325032001132,-0.25692210127174486,0.25041333270034705,-0.17533408408324974,-0.8541214424180966,0.24282850435754122,1.0657741209116087,-1.131785659765902,0.24839330518937447,2.6099890152603304,-2.6445077471616822,0.4375
-0.6059981815166299,1.984913277065457,0.2067159408457499,-0.6830916423085992,-0.1979716777877978,0.15831075580869364,-0.11846460104473254,-1.438637983091666,0.14616577492076882,0.824516493204968,-0.6672517754741202,0.209984266656725,1.7365842322353442,-1.556896555250866,0.4453125
-0.43065747219354467,0.81287674496638,0.2129017106432529,-0.38422564351519717,-0.003081887772777458,-0.11714169703247652,0.006951274267987027,0.2624907691042354,0.015070279193114768,-0.5060580061047489,0.140588477108361,0.1549610064524277,-0.21083922933948412,0.0457769221750682,0.453125
-0.3507963918104841,0.14714123081757685,0.14353569063287766,-0.1809081827029152,0.06633960024040973,-0.15240128302778566,0.061757068230097176,1.569386788389386,-0.038677261517480056,-0.5928878776462819,0.2785142141433664,0.1740472892632133,-0.6485356778376293,-0.47561450970756836,0.4609375
-0.4747660947113652,0.4307240948522473,0.178412030493862,-0.30416548452592873,0.16631050412902793,0.003988757681721884,0.18193707534154807,0.7480455072127734,-0.283983913549388,0.766064159552443,0.690038981191626,-0.06119840098458401,-1.4419702149462343,-0.5977823796439647,0.46875
-0.6493201005129067,0.4758545580184364,0.3577507950230877,-0.4586517757158608,0.38932984191235237,-0.11771438682206306,0.37415907905470525,0.44432000375487696,-0.5993537166379844,0.7187443783702779,1.8073836562499104,-0.31360778400208045,-3.794045309007111,1.3661998463311114,0.4765625
-0.389460091589853,-0.37724821219108634,0.2959718733876462,-0.1636166698336585,0.36212086045608954,-0.37139882907599203,0.2971796741628107,1.8631668309131095,-0.3992802720101679,-1.1403682901069536,1.6837216579272294,-0.1186233289221433,-3.712816307595502,2.170682110838857,0.484375
0.542045650841607,-1.5008033628724249,-0.2444979313883558,0.6009981050000229,-0.07694234669662017,-0.18045262030611883,-0.12678455414670906,1.9681436813261188,0.28668004372435774,-1.6974342125406157,-0.5233757220944265,0.22911647855691314,0.8248252140820485,-0.1012424277574538,0.4921875
1.194274414561653,-1.5200435292384786,-0.649403532801019,0.9645519861422902,-0.42966118630700806,0.26279834253925294,-0.4219421439823342,-0.4448946643395032,0.6558251750607869,-0.21938103726860347,-2.2112935804747313,0.20747133253908115,4.525350923209075,-1.9127589196985384,0.5
0.504253498507465,0.09371861681135332,-0.25863738075371295,0.23335449566865624,-0.2950979590211613,0.2369253066609933,-0.26494468293992396,-2.0435675135612406,0.3571740583853564,0.40812279986311245,-1.2826625605465118,0.03215860239604064,2.8328975601931083,-0.5543817169096908,0.5078125
-0.741020032237997,1.675492999009892,0.4249429784228941,-0.7604755667136881,0.043370741892185344,-0.1747008719215138,0.05701511994588049,-0.8077689537678917,-0.08763721867755195,-0.550765978727139,0.5846259569865317,0.0784133898826955,-0.9964440532406482,1.251514740550123,0.515625
-0.7307463878232232,0.9914000209095492,0.39512532264046774,-0.591646641339324,0.16626172772047387,-0.23941991391315545,0.16030956536369106,0.7149461553529555,-0.21291879152535495,-0.6358280604482158,0.9588713492429861,0.06880628800846186,-1.9483358439736596,0.9001614520845274,0.5234375
0.6351458775174336,-1.3760016675708189,-0.2837690309498337,0.5902355213705736,0.06227163548757143,0.10168181122148025,0.0317873781201524,-0.115234391096504,-0.07589591196553275,0.45322349620633373,0.06254102439996571,-0.25922546180964856,-0.2974790976063987,0.47153687839675745,0.53125
1.4481238889711658,-2.1202528945145835,-0.5983498132051437,1.102667993509042,-0.09720473849901996,0.25485570735452195,-0.14379399796893677,-2.241010739091815,0.13645143580026559,0.5166892309621951,-0.6258437842595234,-0.45324164398485456,1.1699546315606397,1.65379713572727,0.5390625
0.4536048135515968,0.26157470615405326,-0.12430027928091615,0.1112246467630873,-0.20283220944700966,0.1093347701492231,-0.19996718631634802,-2.7904248040423347,0.2453129503033574,-0.12119524975052468,-0.6767225689588138,-0.1073604891328008,1.5979472451076107,1.4447467294455194,0.546875
-1.183537415467579,2.8402272263613475,0.44783277552265965,-1.1261759832157736,-0.16003143411166418,0.054297513230144916,-0.06214129624244637,-0.5709283688301333,0.0931605299070185,0.6015955459544502,-0.4165811382881299,0.39011649074194377,1.2697181182981208,-2.1782676897511903,0.5546875
-1.4198194869073122,2.1163686974771436,0.3951218977702629,-0.9954559687064677,0.0030083347111072678,0.09674301853225092,0.1125625788122175,2.471515078717057,-0.12508824213960354,1.451829209768635,-0.11554077072389911,0.4788252815890559,0.40532707241641663,-4.87521470096359,0.5625
-0.09508437792391136,-0.8578101323885396,-0.07471303347499628,0.2112157752404397,0.10163576702938168,-0.04291020472942473,0.09736006011799032,2.9540598020425377,-0.07922181447971641,0.047147088793087696,0.1024363830341385,0.1622587177540209,-0.4585709986017972,-2.0672480914155975,0.5703125
0.8997974034712695,-2.096498734893313,-0.2621261831183729,0.8093710858212844,0.10907442144466936,-0.20640115899677863,0.010594573466593885,0.3818409957625305,0.012587325775346896,-1.5495027181234424,0.415768257354982,-0.23069115129848317,-1.1703537371855086,2.875848942743458,0.578125
0.4033616957188495,-0.7031765932148596,-0.027365185249301677,0.2504130391815859,0.17961357030133934,-0.05902416630650754,0.12413189149799692,-1.4633904543716734,-0.2442999683720684,-0.09846592004828074,0.9156676583467753,-0.4383384403429994,-1.966732915531089,3.1272570656272047,0.5859375
-0.4665295676619693,0.417206100816764,0.13763612087951865,-0.29249909303471605,0.2581662803996371,0.18999930550872904,0.2914205307742903,0.07544865589168967,-0.5126734209117874,2.2237164556743294,0.9965723326214587,-0.3082758014927992,-2.0561925393584497,-0.9523849167927683,0.59375
-0.38332447400456326,-0.14212274085799126,0.007364864140921685,-0.06643829435794135,0.13770094136263988,0.12314693203571697,0.172044508824684,2.191054873144448,-0.24608754215551779,1.3938694756567371,0.26126085354813455,0.04989816270187745,-0.6645796306299826,-2.8324927201378163,0.6015625
0.14296493086148232,-0.48413539577953163,-0.08158625307999764,0.19671760924357043,-0.09442313364748955,-0.12533089898212668,-0.11025002362623072,1.3208446400626772,0.23759534636214108,-1.156213045983847,-0.48427769278391875,0.2580380776812491,0.9022032843029486,-0.5230603498111353,0.609375
0.05876065877305947,0.5236049515280565,0.0792447032333329,-0.12933216327575103,-0.17486207155428987,-0.1741212255689065,-0.18994663788849298,-1.000875240869522,0.31807556828818684,-1.631570258688106,-0.4632919735573903,0.19079487484200536,1.0864144103101978,1.5062866079566515,0.6171875
-0.34479850936473977,1.3453969197300812,0.24473044170556973,-0.49757840292803535,-0.11093351608797773,-0.10979432574699122,-0.0981562764445959,-1.4644653879002907,0.14518996129329956,-0.8021745179286776,-0.11280721862499553,0.12489485715378092,0.4705701809162521,1.2107686430458147,0.625
-0.2074684931299205,0.7326351370797715,0.1941807380633116,-0.30262876992138094,-0.05532292890396005,-0.18842280432016795,-0.0671492220438488,-0.6385659170973916,0.12416266479787401,-1.239098705729518,0.05732913643504247,0.12184157054534478,-0.006293421722117561,1.4746484722007673,0.6328125
0.392948764020479,-0.5707718611886352,-0.02471399487468488,0.234852192564801,-0.0016203529481799025,-0.21284126022401403,-0.06035030678810068,-0.6483127543741092,0.11047500432528823,-1.5970166595291815,0.18833360635955934,-0.06754823645801535,-0.4483050098107002,2.702351056464892,0.640625
0.7957956127025514,-1.4575481005582651,-0.30154228244479214,0.6540476971407209,0.04714448179317699,0.07247442998572329,0.0019578051045187916,-0.8322320547731149,-0.04222501817495625,0.13644224615396502,0.08586768920358195,-0.32709864435287017,-0.3242281060814841,1.4895244455156056,0.6484375
0.7168837301579818,-1.4554878657825996,-0.4587311005447957,0.7133269177940113,-0.01521480733275674,0.3683209274110498,-0.0017223873330021236,-0.04411364322465583,-0.05466183779825815,1.8996382901954572,-0.523426073716866,-0.2528639372486382,0.9428933968609805,-1.8333266950337601,0.65625
0.24681999583361186,-0.40222415105957876,-0.279080551647671,0.289805032135728,-0.1304397486961538,0.3013995707665913,-0.08531250662717257,0.3510593098848901,0.11059010672927165,1.4189616241545924,-0.9074430098238249,0.0573465796044361,1.868965198801866,-2.8383010864599765,0.6640625
-0.3740656508662519,1.1473222238377905,0.11774660983830071,-0.396842296411067,-0.13113982400890942,0.0800954299666491,-0.08304283633556123,-0.5543981765710051,0.11840837337798635,0.370153338387453,-0.4776055082190772,0.17741018658520974,1.1850166422824495,-1.179004928221499,0.671875
-0.7405809776321394,1.859522060118757,0.3141025633370266,-0.7442995178388183,-0.06089096953004193,0.032411273754399804,-0.004872432636199249,-0.8809422326782557,-0.012834727116346976,0.4837407014197855,-0.027187080341843087,0.14436837921307188,0.33309962959232053,-0.6971192734214844,0.6796875
-0.591339572373398,1.078226286897913,0.2018273847598256,-0.47568649269049934,-0.02402518317195431,0.004647837523462105,0.017649610919110978,0.5384025148970291,-0.01087145692192646,0.31408735335094573,-0.05950363825697009,0.20110079817549492,0.2390173675826083,-1.4350344968259208,0.6875
-0.1528085158976812,-0.3359842382093972,0.06602588725712252,0.013382663517087078,0.06887065773026671,-0.18528375083421428,0.04713192647810269,1.850433804364639,-0.003775849426240572,-0.9135257909904323,0.24406640271422742,0.16613658167288514,-0.6491362830460475,-0.21632022884014696,0.6953125
0.13194546463027707,-1.065176947907491,0.03970992545079122,0.24613871227419779,0.22079588782589402,-0.2728775949104105,0.15158426361758537,1.4648001521080194,-0.18103625909790597,-1.2193235241062974,0.9533928778169969,-0.10379835447270953,-2.2320502993285616,1.8666257661728478,0.703125
0.0693553093888662,-0.6627362071484019,0.020690692697931893,0.142695637666036,0.2174739846062268,-0.07060510742059313,0.18158240693036715,0.44931064248551217,-0.2857661461499187,0.1110172030190504,0.9036538589835124,-0.24463977298530284,-2.0231496934411246,1.1936470844849447,0.7109375
-0.15359937309044722,0.13853773933487612,0.0026336879835455003,-0.07454437550563307,0.060895174387502554,0.13276918506108606,0.08541380645223505,0.14049052699167047,-0.1573669651260289,1.1123294509725508,0.14990423165669975,-0.08192123340479254,-0.30158002090786734,-1.0510096803524793,0.71875
-0.12773544262340777,0.2287142224899784,-0.0051168085260754805,-0.08013227807562702,-0.0029853786616615306,0.11159551171551517,0.022869003804093464,0.06609439025584404,-0.05109491134885332,0.7838245413561767,-0.09488216672338369,-0.0006613427052474355,0.23254086544116145,-1.0814863480632322,0.7265625
0.278696851039237,-0.4111620721277853,-0.0932523219409944,0.20116204342803595,0.0012546053888802026,0.02072979983865646,-0.014150024342367791,-0.5348071391212681,0.004503527761320583,-0.025051520677173346,0.001590251068008745,-0.11454627949158165,-0.028821174582775354,0.7132919257957431,0.734375
0.499063172554874,-0.4613128651528027,-0.14312328821217135,0.29598162992767924,-0.11597179846770554,-0.04061497213799715,-0.14420078331260197,-1.1146725256732353,0.21561546795410222,-0.8735021160785139,-0.4045851357193583,-0.033788192888533845,0.8494748443381946,1.469555309316616,0.7421875
-0.028206998745067522,0.6528707727927894,0.0818550480122105,-0.18133804530448736,-0.17398174850346662,-0.11959232432138324,-0.1749783601428106,-0.8806968808803821,0.2891177337721419,-1.2270724618027455,-0.5061989077446063,0.20051643401511451,1.1917057469497851,0.8740285101733285,0.75
-0.6516262200180606,1.3135957132908678,0.315336982506372,-0.605609307295787,0.054016935463456296,-0.06760717066488975,0.07869315211318839,-0.2995583050315925,-0.1262544753429258,0.11573754297498971,0.4511047534775836,0.056504010278468964,-0.7790370734716472,0.14421980171073756,0.7578125
-0.1528934916703301,-0.050674314411020736,0.03052418063277506,-0.06071619872993336,0.23221851431704224,0.18356767391436446,0.2465293645895584,-0.31856925129140934,-0.44905833488282976,1.9302280496301125,0.8827921619873,-0.37151571772873326,-1.8562654869553041,-0.24607586641853912,0.765625
1.0339704149555633,-1.9310171414503192,-0.49110685714002783,0.9112087292392311,-0.008033203757975161,0.2286600385267891,-0.037926864265688594,-0.583188352725066,0.008702311481515767,0.8407122688865013,-0.36193870911572357,-0.3304854920221014,0.5592979158572222,0.1598110905002951,0.7734375
0.9454366262286755,-1.2912845918564244,-0.35139234133883795,0.7108465927385457,-0.3159765004366223,-0.16642585081415054,-0.36946934655767033,-0.030487959861827167,0.6386851439610116,-2.5096374375702064,-1.3593475099038017,0.2837528109931411,2.7149818118768967,1.0979759749098674,0.78125
-0.687839311137328,1.5896107122112275,0.40826582023493385,-0.6898784268486446,-0.2126615907948067,-0.4580581252151549,-0.21699704168025755,0.8688589948312657,0.4585741690817886,-3.130047305111671,-0.4663557661686796,0.6580649624932706,1.1333436329594044,0.7439499898861964,0.7890625
-1.4699309637287055,2.694602891354379,0.6370387484807765,-1.259471475740574,0.04935328143512647,-0.16544970954144264,0.11286103368377046,0.6886882377080976,-0.1370449063109659,-0.05859659975398442,0.5502545984314876,0.3524776681192466,-0.8637251244815012,-1.1306938486459996,0.796875
-0.1103468003209791,0.18638777890611682,-0.07552649808430796,-0.03752509017841069,0.015836414060903976,0.27446216922031197,0.06354948082763164,-0.11244850371078001,-0.14647863877554854,1.8638150242731357,-0.14006785743120334,-0.09992225549409216,0.33605889787911253,-2.016642388028331,0.8046875
1.2460718012550347,-2.396664539856054,-0.6587209445446185,1.15616820116998,-0.10848825945978784,0.29398350255852496,-0.13001539422266198,0.1389632175305032,0.1731992587819934,0.8350317143810577,-0.975277892097572,-0.19522718378741827,1.7700715806706813,-1.146305822602726,0.8125
0.5773320549353895,-1.5787953207120637,-0.31553239958413654,0.6402232680952015,0.07300252706970851,0.11487900804080192,0.04937866535722713,0.8928989872754051,-0.08009717616425215,0.5907680751320701,-0.022539117334047024,-0.17516905863022034,-0.1874317351905923,-0.5744030704244216,0.8203125
-0.7048280709926533,0.7134582836955912,0.2702777533726019,-0.4840714706119755,0.33083265791484495,0.11472733705762395,0.3607114016046823,0.2710740619186618,-0.6122810704399743,2.0810845390326893,1.3891682801479148,-0.3149830638724546,-2.862154588626206,-0.5501191721974371,0.828125
-0.5551255068062787,0.9554986083511938,0.26467784094715563,-0.49672009190121824,0.22876693221292307,0.08987843155292852,0.25293142214715114,-0.924937494577019,-0.45989232827836446,1.5575340681081027,1.1078154181040716,-0.3077481927959147,-2.181175795721154,0.46735660410984076,0.8359375
0.22961589942465693,-0.1934310092354807,-0.018342513125675215,0.1142433616738799,-0.07430171579904972,-0.14345300380029927,-0.10418270217938391,-0.37327756715449795,0.18378355406182773,-1.2556684940503071,-0.18193187547710202,0.06630975809820805,0.3736929387149983,1.37439581130574,0.84375
0.040900059759909325,-0.14124483776742303,0.02038934328140892,0.052801647974755804,-0.13691246749478783,-0.2577661186930957,-0.1629451088090715,1.2018825950831384,0.34246841439855386,-2.0615801051224354,-0.5104931416028375,0.3694113543302442,0.999848098344048,0.2423301002822628,0.8515625
-0.5358473906933487,0.769361926464143,0.19896702945933023,-0.3895114191548346,0.005924631753797964,-0.08279095514586401,0.028733824498435253,1.0732301508877558,-0.003889125013555493,-0.19550264378666388,0.0629161716713214,0.22614321880000662,-0.0884260614009692,-1.0701681932355238,0.859375
-0.26155369356664426,0.6953752599162188,0.11205080032782083,-0.2776019833938924,0.018135355318253832,0.06647690380982244,0.04169714514743393,-0.7203692772497932,-0.09635665833563273,0.6439651926709596,0.1604656646049125,-0.05771646905821988,-0.21641040415937293,-0.11108612775656714,0.8671875
0.4353217700234999,-0.19243956380053698,-0.1298174471668675,0.20775341947283937,-0.0955006288898262,0.06231784952965035,-0.10735322517886765,-1.7719617875095055,0.12216919152039389,-0.11156393065422834,-0.3122070950923597,-0.14125588372509154,0.7217353911016644,1.310215167553886,0.875
0.5833954324842008,-0.6688104933932626,-0.23315754491915092,0.4000860701439035,-0.08145471518075788,0.11007612432589671,-0.09554052061528825,-1.2756484317524635,0.10766706480051354,0.13890179069078698,-0.38802505353487865,-0.16175126716193644,0.8011308230160722,0.7639920385643955,0.8828125
0.2202241561702086,-0.5237373363811881,-0.12174565631969712,0.22131695396368573,0.06522210824776024,0.11959608439357494,0.06315568757714114,-0.1990370439284935,-0.13011059735364333,0.8186722033853162,0.15082541046521464,-0.19116147361397431,-0.3719154324602926,-0.11858868959485482,0.890625
-0.1706663051076434,-0.14473008731734463,0.1260503732933537,-0.07358944094095601,0.15283259814640088,-0.15045357336252735,0.12688027764160556,0.7768098860110252,-0.17172849691647085,-0.44064964207061186,0.707313011402958,-0.0520314813943643,-1.5580961499452537,0.8730738395095317,0.8984375
-0.23004594729709596,-0.016811248378088672,0.24083169622105224,-0.16457994324095557,0.12344506098921126,-0.385670273089556,0.06828765089803786,1.0466433973202869,-0.03297726669880618,-1.99793291887163,0.7689738527714751,0.10173865465717266,-1.6930532913096157,2.1701765786468363,0.90625
0.2116520845872635,-0.43477912565328186,-0.030042716878349196,0.16529172721714924,-0.003880602015185832,-0.12867242712378985,-0.03631854198871793,0.10621874108765976,0.08005931585581014,-0.9638225637771639,0.043152151691075995,0.013250366395608967,-0.15411906799194036,1.1310895552125049,0.9140625
0.5397973168836997,-0.44208606583523063,-0.3404230217958169,0.4007950949528275,-0.23787295450643203,0.27254625000662236,-0.20743132591797137,-0.8493773987390951,0.2866504479933964,0.7655876690106084,-1.234624951160479,0.043329012705874706,2.611777368220945,-1.6088203631469298,0.921875
-0.09853582026532717,0.9746559934603704,-0.08769119354734135,-0.17271194676670837,-0.40582248754665323,0.14069302009308518,-0.3373306977646166,-0.16132420252926252,0.5482443020249647,-0.17268719164196422,-1.7886810424610446,0.5072516109913063,3.927367922753232,-2.873345592350365,0.9296875
-1.0140632833794987,2.1818802539725386,0.45097897787082936,-0.920695481695885,-0.22859937300634178,-0.30533657004285253,-0.186544333138541,1.130267816444567,0.3961658596129444,-1.9973184522822496,-0.6395567944744432,0.7200954863801702,1.5672773262271291,-1.1542092402037603,0.9375
-0.6962328847602669,0.8855100740546256,0.3844280709969439,-0.5549745667728405,0.17900417085305614,-0.24669005512119163,0.16854995285061014,0.7726121271254062,-0.22485103421653668,-0.6644151458411737,1.0044044228907973,0.052558193917015175,-2.062331059552671,1.0033679652081648,0.9453125
0.4268304290294303,-1.426421757473789,-0.2468354213589187,0.5072151352247133,0.3515146478789753,0.339721575313084,0.3412629271910211,-0.4425553069804683,-0.6388555209054169,2.9171798978349512,1.1490879261544225,-0.7148369609505735,-2.5828641852906014,0.020998361646655483,0.953125
0.567777144079925,-1.5488600582993182,-0.4878337248393633,0.694723874099023,0.17427623903992714,0.6240566836227509,0.21777416207019598,-0.016854462155825353,-0.4583891151467736,4.153003290175609,0.07126405088393725,-0.5601047027863815,-0.32246407330805105,-3.1066484892386685,0.9609375
-0.12773985894289588,-0.158841079895919,-0.13871431674083376,0.07316775811351063,0.005066119070676096,0.27030588394300387,0.05725665034430742,1.2657964466800233,-0.09853666868004836,1.8144897475287367,-0.35678514275039885,0.04390120061849858,0.6885703410195395,-3.3363538670433264,0.96875
0.09063530723045447,-0.28896773336595166,0.008385652181804435,0.08610266146004346,0.008827826096668118,-0.13174775804111696,-0.017188342481821862,0.37459614528540436,0.056266178112444484,-0.8746756510149706,0.08735757483140334,0.046218723890262665,-0.24300446924985972,0.7976787340881396,0.9765625
1.1269926763029823,-1.6063335395054472,-0.27972676017402837,0.7576398540390706,-0.006582425965668133,-0.12796264664487605,-0.10111186618500115,-2.1750645545502314,0.12067929225609815,-1.4918682360888622,0.1473815384512798,-0.37740074780489313,-0.41932182862364137,4.431446887570265,0.984375
1.0605445230097896,-1.2988821558550159,-0.29491942287953066,0.6808767475415689,-0.056892828396081827,-0.02151915156940295,-0.12642473758771852,-2.5066108765950768,0.1408443665265885,-0.9096792722297637,-0.10214706010224263,-0.36082109649134164,0.1679155224069246,3.625350639100334,0.9921875
-0.4341896328158084,0.7725232583568098,0.24495442628365618,-0.39331749477166783,0.03393908427982494,-0.16375903411493034,0.03323559158124794,0.20706885963682545,-0.024471684151298117,-0.6965763567910161,0.34503940017855145,0.11579141434344938,-0.6472371971132038,0.604471297830053,1.0
-1.5532665851964578,2.2456676224691035,0.69682354558165,-1.2047693643327568,0.14180992707906692,-0.36368185881833615,0.17433472635004282,2.2983449548545485,-0.17044073091478112,-1.0247379994808654,0.9221203883550217,0.4551325053145522,-1.7875095592853278,-0.8319152354607079,1.0078125
-1.3064866724270514,2.2096824032265348,0.60618408967983,-1.089313116487455,0.021334157586410517,-0.3330865840006904,0.0533064751600849,1.4699728433573227,0.005973887566689862,-1.3096859790939734,0.4481695764622406,0.48250216488720793,-0.7499684750585596,-0.5095439377334403,1.015625
-0.5715302748926487,1.530854861938932,0.28399823466934754,-0.6043159082400043,-0.14373183455275498,-0.13615351300154396,-0.11496580600098907,-0.3177417089316094,0.20983094939985023,-0.9355032914208657,-0.33121730786538345,0.3280792893869796,0.9034985051104889,-0.10054321739420155,1.0234375
-0.110272311593307,0.5766223352420528,0.0501646936836453,-0.1792826550257512,-0.05602811957917975,0.061486961097643275,-0.03574845028749683,-0.8747540135597058,0.02995683231183683,0.3116918931492853,-0.15582938116929246,-0.0008875969592539468,0.4439223550290955,-0.0598812204273941,1.03125
0.4069456731561294,-0.7856786932860707,-0.21591632051623552,0.36662848169632906,0.06815616461120363,0.2070003631514049,0.06650711167080026,-0.6371420986075182,-0.16121111799738091,1.2892877734487542,0.10540944086053848,-0.3018572100882086,-0.2857807067212362,-0.12162659713678063,1.0390625
1.0987398558948689,-1.932996889154437,-0.5334820387894451,0.9536074873586607,-0.09244276152710351,0.22190038885066937,-0.1188709138702826,-0.48444015731721174,0.14829534361097862,0.5216511630996186,-0.7361253706887314,-0.21862891985468874,1.3478070737471655,-0.1741180724578008,1.046875
1.2854513145902153,-2.0155409835687386,-0.5942749778883599,1.063087308143968,-0.28092473699517667,0.10064501716582933,-0.3184793054256858,-0.2474559278913208,0.5072677309061017,-0.9026242025189621,-1.4866892124175086,0.05878124512769827,2.91292054950521,-0.08036875932319275,1.0546875
0.7017278980602694,-1.1699249368492517,-0.3313887889693153,0.5994307570604539,-0.14062814187521075,0.05849681441019497,-0.16146496154716936,0.019054172821182543,0.2597709241954171,-0.43819857470523177,-0.7809498315735177,0.02734361787839059,1.5097374119097116,-0.15164960085099413,1.0625
-0.026416724415602996,-0.14418481117423948,-0.05389522844781977,0.04499088017311204,0.07534797173154917,0.15112703429643726,0.0932575092933051,0.12563424875449197,-0.17449289147016564,1.1945125529232345,0.1717068107782093,-0.13531665119040012,-0.3813800005430595,-0.9412672077496379,1.0703125
-0.4895641884873606,0.7303494382264044,0.12600452153710281,-0.3416551021451099,0.02899684982786147,0.08705145581289103,0.07193939962901087,0.6525117873256122,-0.1116974887751408,0.9277134058362011,0.05560472023861767,0.09146687824469123,-0.05130023840430132,-1.7781605083171155,1.078125
-0.8099667050777735,1.2424560287407234,0.31592585676814305,-0.6137009264443233,-0.014330282426478103,-0.15141705026504076,0.018106146360080087,1.4959697330112045,0.037109026337730555,-0.5388160489502919,0.037919002152349626,0.3707304311190319,0.003250572994377455,-1.39283080460497,1.0859375
-0.7363068582989647,0.7392746167152895,0.3283003213567702,-0.5083617317203154,0.21949897119234435,-0.12489575540668021,0.2274646782605943,1.2155920192868888,-0.32864872571844234,0.2434372014746808,1.0181086717063865,0.005577591313117672,-2.123946659071214,-0.17484896654218304,1.09375
0.03309847609383288,-0.6737509076296877,-0.021712384222334177,0.13837121921801104,0.362118773258187,0.18298047076604435,0.3517648630331797,-0.30538876046285457,-0.6280449744224668,2.1730858281521677,1.3912845092745343,-0.5842668924901215,-3.012097035090552,0.5914012675700872,1.1015625
0.6503303448652694,-1.192273620187885,-0.26835090470375195,0.5367672860655146,0.1027643350358009,0.1806884823549772,0.07732077956327107,-1.1402583352135478,-0.19126293752849818,1.0746671478454317,0.29187230487869475,-0.43540921683096684,-0.7100455146149687,1.0225512734311109,1.109375
0.07281110020866331,0.34473202964337774,0.07584036601352191,-0.08286320816726801,-0.15491582299805615,-0.21464485510420225,-0.17830934305734214,-0.5862749797355071,0.31466042965645447,-1.8444708895648587,-0.3997950417821596,0.21216591808233448,0.9082606958646493,1.5343124545219045,1.1171875
-0.9261795973674574,2.039752320611682,0.5288874251125574,-0.9232628400676546,-0.048592403927023756,-0.3459712649177488,-0.03915354804698557,-0.10301972835031313,0.118747982762372,-1.8046196119001094,0.2948901681797145,0.36115166361379003,-0.3772469337625208,1.2259497993702873,1.125
-0.7015928615046674,1.4082719780506057,0.3278138707786797,-0.647810858119183,0.07453487805103731,-0.030396737151304105,0.10561581584417759,-0.43303397252842507,-0.17988327362981205,0.43102716867348473,0.5321908744460928,0.014482291637755986,-0.9306299371607956,0.027921353084364345,1.1328125
0.5911384117162326,-0.7810334348988708,-0.292945047779939,0.45839785054710924,-0.10569721573414724,0.17070879624027596,-0.10754836757108473,-0.8263262851026666,0.13145735455165533,0.4553992264038198,-0.6029310343031589,-0.11023732534698036,1.2263150460145071,-0.20941988420116842,1.140625
1.2571771784031198,-1.865055955588924,-0.5272113288429049,0.9863850325172218,-0.24757037255152223,0.04688889853448524,-0.29601248869371927,-0.7529144467503553,0.46327266705330167,-1.1286444238156335,-1.2284842114543661,-0.00821605622105936,2.4064534419045795,0.8930360382889312,1.1484375
0.6519361327611448,-1.1963987450356535,-0.23012132532254134,0.539648388382517,-0.04961331829551718,-0.07401052709495376,-0.09696989168718728,-0.0550623644385907,0.16705891862326328,-0.9964562868689804,-0.2628871768382469,-0.04809301263846547,0.40656620987537423,1.2450563005676312,1.15625
-0.26395874312685685,-0.04848299860171458,0.13687060311500965,-0.12244191489969115,0.1545767871584016,-0.1259436824316816,0.13874789792205355,1.0656765781534745,-0.1866873425199973,-0.2229530708104649,0.6741797861657094,-0.017176694511700126,-1.4871470555031645,0.3047575642241176,1.1640625
-0.6255136677179645,0.8909776091433408,0.28689752226869686,-0.4808831855928409,0.030934804016860957,-0.19411494552667066,0.039877856394700775,1.1572041485607003,-0.004572513537604495,-0.7922986185732109,0.27388771727977895,0.2550136766179537,-0.5265166929242558,-0.3116699828770887,1.171875
-0.5615294469708787,1.5895865369866535,0.23190560716640285,-0.5892115394115175,-0.18192147466164119,-0.03930123053718168,-0.1350653575095539,-0.39875313496795295,0.22841117040700382,-0.42585079006806387,-0.568774263286838,0.33809019220123016,1.4228535600805647,-0.9107870600322774,1.1796875
-0.5645964964938924,1.6452646807779656,0.10327700574818544,-0.5512025714546046,-0.14915334406789413,0.30852928909891897,-0.05275167849202887,-0.9406193711543026,0.027604605357642524,1.8983495060473778,-0.668399983073111,0.13086307284618826,1.6777826900708528,-2.8647758860671693,1.1875
-0.646507623916337,0.7982485102493353,0.07014395692815006,-0.369268379889992,0.04693551256500874,0.2769971009958442,0.12872823278473988,1.2960885418832542,-0.2148606969033041,2.2818924966595064,-0.08974225802510938,0.09483095127943578,0.2422291191508322,-3.9151996030405813,1.1953125
-0.23195640535466222,-0.5999672444272384,0.04910043419197429,0.058717727027138115,0.15837503936023262,-0.144755820942098,0.1407016341785537,2.725573948064009,-0.14351944374044176,-0.35902076246796677,0.48585388410777214,0.12696906509765857,-1.2349924694552747,-1.0292569956151583,1.203125
0.8303353566358324,-1.8991903699640929,-0.2325546314460492,0.7310292295667329,0.12460051951248705,-0.17176665808835256,0.03360289914530084,0.08099377465010064,-0.03852557652145591,-1.2388958356897182,0.5023091750909006,-0.2755899359279038,-1.3156954280868396,2.8726345137141305,1.2109375
1.494324369957249,-2.2111698417857406,-0.5822671382646544,1.1139616162303263,0.01910444734172879,0.3045463077367141,-0.03600924658155948,-2.9968936600415,-0.07332206683558647,1.1405120855368274,-0.09346471862509731,-0.7044840646223276,0.06598214639666142,2.561801411327227,1.21875
0.9063979158335879,-1.2534363592751816,-0.4709935523563579,0.7130524667210761,-0.0499195921124805,0.41614693735404296,-0.04136651950043342,-1.84963211865543,-0.04375972215598611,2.0025564742059743,-0.5150889415768779,-0.4236323096014209,1.0347492697495553,-0.4249107524739342,1.2265625
0.046553452848581756,-0.483255476893063,-0.04553543998599222,0.14598121273908352,0.0263037226343371,-0.06245950934187409,0.013852024961186224,1.189278101282252,0.016293506146735654,-0.3571367401091909,0.003289314325884183,0.0823981058679815,-0.12164587692444342,-0.4553793072750343,1.234375
0.17720898449323227,-1.0977655379594924,0.04307070996684313,0.26672776507756957,0.18473401477162538,-0.34084742668299506,0.10588630837796302,1.5241996113568546,-0.09378207554379034,-1.7754364615624063,0.8459088312968233,-0.036448072463020974,-2.0108600997987383,2.2057838842812445,1.2421875
0.459618938000227,-1.1834647452357392,-0.08054539340192646,0.40328632555060495,0.16568083829370425,-0.14747740915806154,0.09737660959703286,-0.10787035195848735,-0.15152361293432734,-0.7512737548102489,0.750866660599885,-0.2798990082161905,-1.7387551757723112,2.5622090871573615,1.25
-0.5353087676456948,1.5485383225455065,0.27040513755353446,-0.5998430520675342,-0.11485129221266355,-0.0713071899015574,-0.08235146445159035,-0.8565045371814511,0.13107190641222138,-0.4595147782746021,-0.20425356058586724,0.21135803239547726,0.6662488787017151,0.09421887062831873,1.2578125
-1.9623349584807182,4.907751526937798,0.8856078758012241,-1.9693335768012157,-0.3472147663948787,-0.24528355026122012,-0.22881642128296326,-0.9401532676333928,0.41286037137552295,-1.3777196038434263,-0.7384452334993773,0.8692294878117491,2.2169885146153825,-1.4848704746506929,1.265625
-1.951471873542469,4.689239616824329,0.8672570727054704,-1.9170796601504492,-0.24228682665618415,-0.17543114782446276,-0.12428905575710116,-0.9539351684298968,0.22607661182207556,-0.6374356189337242,-0.3605501081153046,0.7010176524814388,1.3906372863924765,-1.5129279474467094,1.2734375
-0.6370465651428014,1.1624721902991446,0.19497036738080592,-0.5099000952467221,0.03666330509643135,0.1248225271247034,0.09287148905474121,0.13180920160365467,-0.16476955428085407,1.2846736616325838,0.14962194000479712,0.05202715511012494,-0.17197681508198484,-1.7471721300902316,1.28125
0.4512706925538363,-1.6542491961884422,-0.2979721608082673,0.6152480964695396,0.15638412196439497,0.14834443662674643,0.13869644187729938,1.4893767318442923,-0.21891296596744306,1.1165319971931005,0.24482522066181742,-0.21938836878203086,-0.7890722042217106,-1.181023614643542,1.2890625
0.8321518413803753,-2.116952212081231,-0.3214474711993708,0.8258788687945574,0.10920832877324692,-0.07292056839543053,0.036639881096775385,0.8574246677468121,-0.03635187539431784,-0.6560687194254033,0.24976426731348245,-0.2179109242390388,-0.8389092732813482,1.3511922937589307,1.296875
0.9516679036627995,-1.8637649970403285,-0.3054354110718923,0.7842089929228665,0.08593597697171088,-0.04911602710421708,0.008497828119767214,-0.700113466025248,-0.03449851044139556,-0.6310414676108927,0.30918327519586347,-0.35927407378338266,-0.8610531867184864,2.6666618222320175,1.3046875
0.9009615494043157,-1.910213105643603,-0.44454270003983176,0.8461052883300741,0.07745245123585402,0.2423815751054323,0.050082988326491065,-0.2976484228851304,-0.13331552981019362,1.2377976992775162,-0.025355682660469926,-0.39745665361622834,-0.1624160474148899,0.01695420768434721,1.3125
0.6721915607661056,-1.765276463408788,-0.5123544452485825,0.802438956640051,-0.010905954963480076,0.38011207177006073,0.009705508969811231,1.2687082924055073,-0.040028913344694494,1.9973375189202127,-0.6756318215962863,-0.1352331370669808,1.169024464243712,-3.158560882740731,1.3203125
0.4883715656721692,-1.2123536801215806,-0.3682034807542968,0.5719575121017733,-0.06893695251758004,0.2277742482559199,-0.05489978798769864,1.1003431107512136,0.08706699649763616,0.971015620771897,-0.7278877035022194,0.016410084879287936,1.3490885872207146,-2.3761382407543614,1.328125
0.24206917321028998,-0.33160778799122,-0.07514678432496291,0.16674379563638222,-0.0032506809707138077,0.010313273736570119,-0.01746660099974763,-0.5122774738079274,0.012492836308301265,-0.0802447122975705,-0.004290747976173877,-0.09513384816640856,-0.009721747477065903,0.7001051170645453,1.3359375
-0.2478249575945341,0.8345107473277041,0.22351730346218054,-0.3580122274929336,0.01866297827681386,-0.129962627829783,0.009878892637762711,-1.199003457319058,-0.028672201788641275,-0.6244633654520018,0.39585888999514923,-0.03979718465390931,-0.6834221495011492,1.8270150435378232,1.34375
-0.5631431993366232,1.4995569224285579,0.34659318117301835,-0.629836220477321,-0.08501241832856336,-0.22721801837172126,-0.07732624718866062,-0.6019696919354431,0.1507601288469109,-1.3565613282501008,0.03101485134419937,0.2509339182789198,0.14380415164861365,1.1147278467848818,1.3515625
-0.4136976776994588,0.9907669779057878,0.2806752206618994,-0.44269688602694784,-0.09182385074999805,-0.30082734100560077,-0.10256747086105174,0.19199858839770548,0.22327912018157486,-1.9396336935742577,-0.06409799198983801,0.32549569806422235,0.2413149903331617,1.1004579762985776,1.359375
-0.32652641240791824,0.40244000044506306,0.2491092472194826,-0.2832189252883943,0.05566749441078986,-0.30650303230310305,0.02477334287429031,0.6769012617648241,0.020758977174567123,-1.6155784523049035,0.48067124257440325,0.1540986364964018,-1.0103110474420796,1.4779769763840502,1.3671875
-0.5277172336981352,0.8919083359940004,0.28948899816000057,-0.4642607450586126,0.05539274640020318,-0.18584665375000078,0.05509251178340517,0.3299937582202095,-0.05438336266093561,-0.7207456073538274,0.45667173012384715,0.12466963443677748,-0.8767936131534803,0.6249025473890746,1.375
-0.315946034851643,1.2038486160659103,0.12405612903194933,-0.39965173825890854,-0.1459774746677276,0.062152365107720736,-0.10396206493358465,-1.0433809210559304,0.14254982422499732,0.18861982503268135,-0.47241197182129535,0.14736207946288166,1.2032723143623485,-0.5934267313132884,1.3828125
0.4039990667586,-0.052519401474661595,-0.23115231866149827,0.21909414606746336,-0.1575990964027306,0.28099840366343715,-0.12728486859562727,-1.737433754529136,0.1274242780704398,1.1360262481576344,-0.7653388458668773,-0.11977942501632148,1.704439211787179,-0.6812328912317281,1.390625
0.4873498870805118,-1.1848714584903302,-0.28768160459147407,0.5068872613357621,0.11941924774482747,0.26541683836768215,0.11770242968110647,-0.18477072243299902,-0.24426140333345336,1.749551517599897,0.19532321891241713,-0.36599387727464505,-0.5454442815834742,-0.6260590013982479,1.3984375
-0.44244829644180733,-0.14416847549380502,0.0908451216404911,-0.12869322370013364,0.2572354257795744,0.0743211193005794,0.2751034880761841,1.8781878812136483,-0.4213836421956451,1.4461957373815366,0.8578712139415552,-0.11195386826848228,-1.9179344063725967,-1.7112670195895976,1.40625
-0.9982210618448174,1.3738237843609542,0.3277347376497123,-0.7031027228073409,0.08327859899902945,0.0006944420556919775,0.1416819743469481,1.6480337784627546,-0.1869255159514987,0.820540504050845,0.33022924258289404,0.24084669578111423,-0.5995371627417038,-2.4797403796645425,1.4140625
-0.24029975468245168,0.6722490532290578,0.05793133749364248,-0.23643439256861484,-0.045408910807506746,0.1076226575431066,-0.009677891421293583,-0.4130605169865022,-0.0070608823501273725,0.7133929131213834,-0.18621162676369774,0.037717591482392794,0.5039945901366802,-0.9561550296751115,1.421875
0.7193036419464475,-1.060249707967404,-0.25558912890686647,0.5210905532706213,0.03447552133522378,0.12098479355925329,0.001273995420669143,-1.6100998394528525,-0.0677531816826359,0.46015908293852587,0.10549747448040749,-0.37988824465920107,-0.27859083138038065,1.6892599347269384,1.4296875
0.6086296558648493,-1.0174411750527708,-0.1529902106392835,0.4408958535501145,0.048437122017405326,-0.06444283164314708,-0.006648144315148074,-0.9910518561936923,-0.011572741727755808,-0.633377768574725,0.2700323620088235,-0.2590478880884333,-0.6576666411663183,2.427160328662896,1.4375
0.008767383451563917,0.0647997367348392,0.05010738540354982,-0.025229410825009457,-0.08434637796909539,-0.18029455562910904,-0.10351815355342665,0.33706485499749483,0.20884310501286657,-1.4036486129811332,-0.2398453917255884,0.2015279361294833,0.49434472098020354,0.6724223561450628,1.4453125
0.13953749604151516,-0.45252854424455113,-0.10557935132431033,0.20130711153658243,-0.11067484760898508,-0.0759359069279737,-0.11716999227311135,1.3204023449917883,0.24284264766406524,-0.8897766688266695,-0.5952579047287612,0.26421710994585834,1.1415474874043017,-0.962020564009607,1.453125
0.869323710821157,-2.1606978882470957,-0.43692736383643094,0.9091666583148039,-0.007226689956440254,0.0373545335859041,-0.05221538299155294,1.4237938713444465,0.11383699413499403,-0.3030361773608201,-0.41635998552042947,-0.05378759795179853,0.5467652257655117,-0.4690558351381987,1.4609375
1.1848485163535076,-2.527025082021645,-0.5131275663355732,1.099809183353664,-0.009579604092490843,0.028560144577814185,-0.07747059972044788,0.5211583350182153,0.13083910873074936,-0.5454564132351205,-0.36307562644645264,-0.1938544738697886,0.42867908549239037,0.8364890212777082,1.46875
0.6980352987044471,-1.0679622103950661,-0.28466642054114344,0.5484027241942954,-0.1032310101904429,0.03306656569805434,-0.13265820013570048,-0.5237111862433664,0.1999496552704076,-0.48471510986302857,-0.530655182020392,-0.0626650132457755,1.015872447202456,0.6954779710110123,1.4765625
-0.27722849926769255,0.8674494667007593,0.11656436078315648,-0.31453661423132023,-0.07215162620161829,0.0263411300240116,-0.0445478037092973,-0.6121507738747607,0.057950778049634714,0.1362335221848152,-0.19345315013946401,0.09043852376250282,0.5492546664922489,-0.32991621390959275,1.484375
-1.327248596774499,2.612383389222187,0.6344389610697557,-1.209516795512264,0.059708334278558366,-0.19718757169949297,0.10677400680801817,-0.06311954347797998,-0.1438766603437571,-0.3076641397195971,0.6907758779188019,0.2518772285097863,-1.1382787402544297,0.030642805438522047,1.4921875
-1.949026751703741,3.80014879002427,1.011458166346916,-1.8050017750087926,0.11192441945233778,-0.45631891498847243,0.15282565848932297,-0.03938903464412454,-0.1804749612698063,-1.451649067095619,1.2569154402120053,0.3971945791913198,-2.1997136657267418,1.3500536967382506,1.5
-1.6740108886214544,3.4835891231351552,0.838997361714422,-1.5870068357399705,0.0646568223633598,-0.27405750225531555,0.11989975506115436,-0.6408264521350412,-0.16787855634716906,-0.5745199689301628,0.9214696799807581,0.29004520158517516,-1.4948484252976417,0.6927908396798259,1.5078125
-0.5773820856270072,1.5037010675947713,0.14483030709932987,-0.5502678579660177,-0.03779008408390777,0.28283775469395994,0.04406311072494096,-1.0560537209905254,-0.13584813158786968,2.0594251584830165,-0.16096267941656237,-0.01883267964661172,0.5897622102483422,-2.089496413326674,1.515625
0.7151235989093656,-0.9570647718398034,-0.5263521936003007,0.6384143996238412,-0.16555492647448897,0.5505606070565565,-0.11032122347767885,-0.8819497792508224,0.08221110353933764,2.6516548610280783,-1.208083963669375,-0.18524939187980105,2.501896723133946,-3.107101356346917,1.5234375
1.480284097440165,-2.7285812417044335,-0.7222324162552701,1.3179522524496008,-0.13738576305904712,0.2463047596648493,-0.17857294676994753,-0.1350840881616453,0.25209299721737227,0.32576698341579124,-1.0656315622057992,-0.21313423468651707,1.9319367278895119,-0.37474065892123126,1.53125
1.3045234868564066,-3.1105406473519226,-0.4740129698503799,1.232681403521729,0.13605826539762328,-0.14102728980867155,0.020589054056469002,0.8470290343218873,-0.004494658400335149,-1.2932808156896556,0.3327261607250624,-0.3299416897863283,-1.1397079788990236,2.6191711898598764,1.5390625
0.5301916668161855,-1.8757141290493606,-0.15635336668974242,0.6067509853360481,0.2978088973901867,-0.10962848545771675,0.21974945047685387,0.9336535486329762,-0.336419564092423,-0.18710138098173734,1.123366343070577,-0.39158097440295864,-2.6639870136092765,2.009202089971202,1.546875
0.12338674909826254,-0.3060883577399337,-0.12180240845986874,0.14581672210103444,0.0800411367920976,0.23123730925757696,0.09920248949871929,-0.41917061562819935,-0.21107628930114142,1.6301066353560292,0.16138507857146134,-0.24806603508992814,-0.3538202113954414,-0.8109634453443589,1.5546875
0.41072176804001786,-0.3437000808433957,-0.308147185715483,0.3181404961663967,-0.09273114926965441,0.4148389984957181,-0.04769356223739482,-1.2754675649287641,-0.012764909690400278,2.1553846835986583,-0.6709215954069483,-0.2115648421659725,1.4516510851219675,-1.7859816208659502,1.5625
0.4673927388823377,-1.316641073562109,-0.25398106283647587,0.5188040517799866,0.13313438851974285,0.15625446544476107,0.11551691469860073,0.3619157861259353,-0.21071563171721744,1.0885540080389766,0.28432027948740407,-0.2954100552505927,-0.7792392708438578,-0.26589557400479236,1.5703125
-0.41714716756898856,-0.3031515345801198,0.2449300784257256,-0.14720044807642996,0.22881473775278383,-0.36963824211386564,0.18075722359807575,2.6569104382735507,-0.18098601908367148,-1.5001351784081411,1.026243777585669,0.13792846199768713,-2.3482274043460656,0.7955832799785777,1.578125
-1.484723383547695,2.8111450619616343,0.7386450663684029,-1.3017029334458396,-0.22032568482537082,-0.6459086246778204,-0.19968325866214037,2.3417149081716584,0.5008724912164796,-3.88927741195604,-0.36794488021024946,1.0274163313944635,1.0034196567912943,-0.3108045780601661,1.5859375
-1.5685662758941321,4.147724654198008,0.7020699205666842,-1.596951972210544,-0.5238807751387055,-0.3688991548515632,-0.42936682086013117,0.11843284532264114,0.7932391935405742,-2.896528328784819,-1.5841182038249553,1.1631024705709483,3.862699293907562,-1.819216081195388,1.59375
-0.5702413368484605,1.6312209452558435,0.2058396962354859,-0.5989080108456786,-0.1190071645384739,0.10369717082145453,-0.056900346531546984,-0.9606248646986659,0.06153455751363465,0.6833202921542652,-0.3564047050546912,0.15731139113198087,1.0119974797360765,-1.195761532152815,1.6015625
0.6659447553757913,-1.546722506477998,-0.261000094730874,0.6047769320469476,0.25172220115127747,0.18842088652267752,0.2119676625693759,-0.9978387710146358,-0.41649538960827553,1.5316271599740712,0.8894119813272394,-0.6296623578241921,-2.0247158696760894,1.5284080053836582,1.609375
1.2194460304237387,-1.8029497360953313,-0.36072342478762837,0.867308903281756,-0.06071185239223183,-0.09309895035968871,-0.14944462946739998,-1.8149967063262529,0.20665329568448904,-1.4735461971812942,-0.17636984857403645,-0.3025722840952888,0.22596263307710887,3.711299872376731,1.6171875
0.8152027714508345,-0.4219089186027342,-0.17627532982859825,0.3907597738464288,-0.3024389443459078,-0.192243349300901,-0.3577350608780403,-2.1679247985983143,0.5666597246291375,-2.5468165034178942,-0.9795746443979779,0.10817279587257063,2.1134388095353747,3.1482752901627524,1.625
0.2079998642248033,-0.6741056666925003,-0.07957941427099752,0.22406553331421103,0.17607504944111899,0.0869788080595756,0.15836162405884682,-0.27906850067375016,-0.28880193019630335,0.932269554050857,0.657313879699546,-0.3348687825081615,-1.4620278209715982,0.6743268969946469,1.6328125
0.21297447019101282,-1.9456394831384454,-0.22574173625357785,0.5562757481896079,0.5546260438400599,0.33781550027308804,0.5414688572897742,1.5205366263524749,-0.9231742582896402,3.5891233523354393,1.7916250646278165,-0.7677441046287439,-4.098119588674541,-1.143730732500792,1.640625
0.2829045751403729,-0.9931644375860109,-0.24562224079309386,0.3989611192772055,0.11255125523300998,0.25888927000316997,0.12512143845155274,0.6165020010238257,-0.23276040335095902,1.8080997306526252,0.10803206784077214,-0.24047939598258733,-0.3728950111010678,-1.6243849453226078,1.6484375
-0.4755388344862075,1.8666629945427475,0.12552207523302703,-0.5691847812525821,-0.37365738171892177,0.08623613882660498,-0.29444885989581,-0.7769407957518208,0.4701039020363699,-0.20703685028952773,-1.4531491618893209,0.5038894541713497,3.3524794558399167,-2.252603010881188,1.65625
-1.2838671258617342,2.7960979711513736,0.43668611633795357,-1.1350263126527846,-0.1303916951018791,0.10617003327627458,-0.01980037721782373,0.06429046838275497,0.032210084972368894,1.0746156718320783,-0.3999968006964049,0.411152662012268,1.201678280805858,-3.1523429099302747,1.6640625
-0.8869433136203813,0.9483773075628229,0.25771066642040585,-0.5643272877724843,0.25136730543431896,0.16628383975807304,0.31053178804034215,1.1971401075428472,-0.5081654877007123,2.288937791655233,0.9268296826228977,-0.10392706870899333,-1.8909657530867656,-2.392319295705221,1.671875
0.07229255699847281,-0.4487950436683533,-0.034157316122851666,0.12874670478562303,0.10014476265791095,0.0065805310913464666,0.08762051421318347,0.39379017725541154,-0.13902144041449738,0.2751108235295945,0.3503181078575586,-0.11709032329621717,-0.8156938334406927,0.14088238444721468,1.6796875
0.393598159719921,-0.33173792106601296,-0.059259232017933886,0.21135410741529784,-0.16477979154028255,-0.2183107543650117,-0.20768051980014382,-0.4360106939924028,0.36641232209960545,-2.1004267536171364,-0.5184846874371226,0.1737351854378593,1.0681090156520356,1.8246841196419483,1.6875
0.5645296621098529,-1.0440956289961543,-0.15606220258298112,0.4532065229622651,-0.06222633463298546,-0.1850669355317911,-0.11974984290183173,0.15750367842556529,0.22735044048383304,-1.7027440485646133,-0.22709624467228778,0.042459228216044344,0.3358211162982071,1.7169251128287724,1.6953125
1.093292928019073,-2.4214387494788596,-0.42518814007839184,1.0030568618599531,0.09360486264200893,-0.0056662357272629985,0.015049107515407207,0.1517861621664074,-0.03026161193611308,-0.4171830982462591,0.16604031513956552,-0.3364170594722135,-0.6622707391366552,1.7753470415709507,1.703125
0.8280319287243145,-1.4772985122651339,-0.2636633799404682,0.65359225101267,0.008295216675267164,-0.06762166454793142,-0.05632361105356415,-0.6731696288559749,0.07904202400086816,-0.8833978190269943,0.019909702986526723,-0.22020249560447194,-0.19856130181843865,2.2503202733509715,1.7109375
-0.5626999028604309,1.1589544977811788,0.33767108665929974,-0.5438074048547716,-0.07010886409692853,-0.32517329421992003,-0.07666868150814272,0.522641431410054,0.19268849410697084,-1.9412856805446237,0.034129747395675855,0.3648804922660199,0.03834579835966983,0.8689604972680962,1.71875
-1.2014665212557085,1.661439834603444,0.48581890510392994,-0.8746329262707755,-0.008837212453709428,-0.3230039332644669,0.023918782038536254,2.8155876841650183,0.08913364431806246,-1.3966970686892268,0.11792151713755841,0.6194099740981088,-0.18015091730650923,-1.8295954046326197,1.7265625
-0.23312360905177612,0.06725838713429462,-0.00393230620751523,-0.0605026377351267,-0.024812879931336726,0.033341983105993775,0.0009884403316388944,1.5179561881909276,0.03645084286074237,0.2773566373703606,-0.2848032397609081,0.20692381390665232,0.5450291819867803,-2.07811389599749,1.734375
0.5972877193678668,-0.20531984065683392,-0.26643722566798017,0.3095613464373275,-0.12871078451648962,0.31149663717437764,-0.11089690408752653,-2.7483854953853992,0.06695312510170333,1.3030165410657455,-0.5778260399739736,-0.2999895370395708,1.335324322728209,0.41472382710482664,1.7421875
0.14775106746570388,0.9545533984425251,-0.0021022894957888854,-0.1915267105532547,-0.09423905163940265,0.2577202616311875,-0.062208544883068685,-3.807966770072124,-0.03231561094792376,1.3227382773820415,-0.16136625177680228,-0.33172198952813053,0.6446906325120194,1.3561021064050225,1.75
-0.45091795907760795,0.9652279505059332,0.1667576650832059,-0.41215940444476934,0.049959681731956786,0.10835000516595877,0.08912237922652351,-0.565605594176446,-0.17631392633464,1.10174514200673,0.27430373442807754,-0.061805547868611,-0.42911471649618627,-0.6606987904348768,1.7578125
-0.26640396790554427,-0.025987819617578428,0.021249649400258235,-0.06916213171001076,0.0845424854786896,0.06650451622983061,0.10632229294340406,1.3492457427932356,-0.15036248171455477,0.8133573025577131,0.17366660029320324,0.039875683556760716,-0.42843648968287784,-1.715956031485595,1.765625
0.11381456600140534,-0.2783904792394756,-0.03940603879208426,0.10617289878686317,0.03455426854271646,0.005623964945641605,0.024922719291053014,-0.05562542192425441,-0.045239269603877384,0.0701913764761775,0.12492507842295546,-0.07724767254190663,-0.2961604022284576,0.31091020998728086,1.7734375
0.10469399017035196,-0.18416795771217595,0.06802889042190555,0.027001446175320788,0.09256654872084727,-0.13513490233078343,0.05463244956670149,-0.6046371534740144,-0.09097042378474109,-0.6615888767988102,0.5654127585727237,-0.1566410544564619,-1.1993682727363153,2.120407226320223,1.78125
-0.14221009592905925,-0.39894965968856644,0.10818583257152187,-0.004758091937209541,0.2155245282792413,-0.14555032377405086,0.1827401554818692,1.05996822586949,-0.25975123293228125,-0.24991930817645117,0.9240699713793095,-0.11846454967243096,-2.062780183253755,0.8936071907690479,1.7890625
-0.3032928664952754,-0.06843751798114739,0.05609514927305337,-0.08992082368444637,0.15175175556838774,0.048818486455178785,0.1662037638953465,1.3437262408168245,-0.24915617462189987,0.9093493315355868,0.4795220016094699,-0.03776507721498423,-1.084094402111432,-1.3203265098026933,1.796875
-0.02999903342617962,0.42564691058880033,-0.07460999268545913,-0.06129881281579603,-0.1416087311564752,0.1821681886103769,-0.09816379246965287,-0.4460150621884846,0.12994400406261092,0.788645232850087,-0.6917466888824059,0.09690180569972101,1.5473052365082482,-1.6254419590038203,1.8046875
0.6633272935026854,-0.4307412272479759,-0.3253045455663597,0.4331656568806571,-0.3626493055276694,0.09221345263785088,-0.3554786422985236,-0.859590836393918,0.5603610451928063,-0.8159570486942899,-1.6216770799313516,0.2450238060184952,3.426070123135844,-0.6483786210359135,1.8125
0.9428658901407155,-1.6482957344458544,-0.44461585639164836,0.8296976805675285,-0.23643626295623443,-0.006353721386769295,-0.2714849789632156,0.6300271648648557,0.4687647254358754,-1.2626911640360459,-1.2518929271016919,0.1836517737443438,2.4178806246624536,-0.3514961700808354,1.8203125
0.3018766242300323,-1.1777694755901313,-0.179945946996202,0.4196655335873572,0.11391934609543902,0.03695732891811523,0.09211707393939947,1.2113004198548771,-0.13129022793267373,0.3805786763798015,0.22979167786383242,-0.11943979618252214,-0.6876038994733488,-0.49095189072453504,1.828125
-0.40507806483231995,0.02927574581180749,0.17515256112489339,-0.2069388610343454,0.30852365562298584,0.0004300562973872335,0.30502995275308686,0.746270218717367,-0.49273523462597735,1.1127076773163347,1.2768773638742403,-0.26643525380453026,-2.7347387784197905,0.15051859962687503,1.8359375
-0.38484751241089193,0.22466722363373906,0.2392377726058813,-0.2616496857444552,0.16736702908378884,-0.22399252821592877,0.1423230995246497,0.9352828420735256,-0.1819615559600522,-0.7429379551760552,0.8549897717925742,0.011126501316726685,-1.8333743233002426,1.0528859577536143,1.84375
-0.1445874810701201,0.3971535822928446,0.15202440015946303,-0.18040571577148193,-0.11277062859484532,-0.29439214426871546,-0.13676437289253893,0.4948680085407296,0.2861156643176446,-2.123892981714683,-0.24888312516189148,0.32338596416308407,0.5440183825305411,1.0438054456679418,1.8515625
-0.20634411595661833,1.3532767614378396,0.15648849217155847,-0.4187732367233313,-0.21247230832992992,-0.03510883812783041,-0.18743636294655602,-1.837694417241855,0.27507353145907276,-0.6876822728936481,-0.5844551203310528,0.17490674037712628,1.4903201668162853,0.7194672682047789,1.859375
-0.24140005945245727,1.4067954576421504,0.17397701830028575,-0.46811499424954967,-0.0453291982872362,0.1339856368074847,-0.010904431369058751,-2.9175903859261294,-0.07509597077498467,0.8955387617926649,0.11365593941631731,-0.19660842646433116,0.0731633890176699,1.1571400825353289,1.8671875
-0.19294575796327454,0.3012316061734627,0.15576825416533233,-0.20092102108644264,0.14301495805991127,-0.053323956303679046,0.13157220231064193,-0.5796966990629532,-0.2289343284596638,0.17942630091107248,0.7593491804164881,-0.18825919360011154,-1.5466303742032093,1.3199269488726004,1.875
-0.4251557505491655,0.3153740267535771,0.18693445151526747,-0.26071701293905425,0.0919587082465598,-0.14882397929814795,0.08952377748257902,1.3373548195155531,-0.09179923676004649,-0.45028667119135135,0.42757288931308063,0.13288440670619572,-0.9315024549692856,-0.27309999813368724,1.8828125
-0.5617444047580507,1.335629363698916,0.1388208725969811,-0.497876180139732,-0.08699193224359343,0.17383627626402642,-0.016369490770214025,-0.23013182699009876,0.002910747797030411,1.2084440287193738,-0.3802677575906448,0.15492661957546142,0.9923373014094294,-2.2328576495478765,1.890625
0.02084074462737864,0.5454812556782044,-0.13840272959082597,-0.059114013662289855,-0.0834881784659456,0.4296841070321217,-0.01336684837624265,-1.6869611691617008,-0.08077116664510656,2.521136424791362,-0.5171035911220505,-0.185579835858046,1.25775728160024,-2.0085155088175575,1.8984375
0.8040083790230599,-1.8547992229989152,-0.40329201585802815,0.7951394581438578,0.07104526874173249,0.17591894075813155,0.04136534489711786,0.2640117747233138,-0.09364252082287795,0.8482808575742832,-0.04775079369885568,-0.2961187092630031,-0.13801941498957512,-0.16370632257131576,1.90625
0.8061563226063693,-2.4279591952980906,-0.34069163449903045,0.9108966250500778,0.06169363757730933,-0.19921581260036897,-0.020578982181161963,2.445039157185905,0.12018953051694425,-1.597166888782365,-0.03702559704519652,0.03629161564137891,-0.34524963292905525,0.5886179091502446,1.9140625
0.144308240593417,-0.5248530408163176,-0.050792987843211845,0.19515955617524972,-0.10176542040053856,-0.21958614766358778,-0.13114356036812658,1.5428041184400811,0.29159137154148235,-1.7844299754912611,-0.4601870053357961,0.31870687004943643,0.833311597931044,-0.055675806382464756,1.921875
-0.2029231954932565,0.6658698960342319,0.10564070889500078,-0.2410415514547806,-0.09588613497725196,-0.06341116879600965,-0.08366311393278977,-0.2455184388141744,0.14538443499259351,-0.549339211512974,-0.2753149814689904,0.16961357259744317,0.679125006750124,-0.013056367132320201,1.9296875
0.2362608669258043,-0.5051932247759283,-0.05607867855846437,0.18913013330484144,0.08442920242808928,-0.003151232539948967,0.05990718584485377,-0.433470154960687,-0.11438558696149823,0.08010312110092253,0.36724215856987313,-0.20107059695699614,-0.8212644916916526,1.1152358776625189,1.9375
0.7831234225938493,-1.7150981891301584,-0.3068569077823397,0.7090852405836862,0.11570923157122194,0.06554138034178389,0.06457678270483445,-0.28975444617537716,-0.13246012091843593,0.28256145789160847,0.31264787593102034,-0.36545298759358585,-0.8644918794625823,1.3430670116505041,1.9453125
0.34263597565920056,-0.4617927342467279,-0.1804024994117869,0.27166174260611475,-0.04597745075203558,0.1387469788369575,-0.04246359357429867,-0.5465957437819189,0.03562606275712051,0.564292311023867,-0.31246958984221335,-0.10346923286764642,0.6319072231889554,-0.2871162379231253,1.953125
-0.9423599525051467,2.0341177531371453,0.3419819205023063,-0.8352500807355104,-0.11678374931907556,-0.0019753796364422225,-0.04534505897694676,0.28838814702979665,0.09305503865265992,0.22102306465010088,-0.3432363838308621,0.3783979113745876,0.9698691152440075,-2.039260055175728,1.9609375
-1.3961995734505592,2.361185220209229,0.5729295902824265,-1.1287652228258895,0.00985601298462366,-0.20475110980572553,0.06859066662594653,1.5847222698687522,-0.033575967422085344,-0.4651511504292399,0.28899701835705416,0.4841582737926759,-0.3933532881529365,-1.7495774232923254,1.96875
-0.2589030597580674,0.0036862948692283617,0.137695358954825,-0.1356593638071539,0.1604228788142972,-0.10280580081320803,0.14668386125174032,0.7993808862056436,-0.21039483576167473,-0.059858301422247906,0.7114966226665904,-0.05806809639265841,-1.5458075161561322,0.4106137182596509,1.9765625
0.8204149938523035,-1.5498362460821637,-0.29583182118916385,0.6643841563362408,0.1653938891174397,0.1547441607212386,0.11824280292459248,-1.4799576604282834,-0.26750698229527564,0.979376543108974,0.5890043462635576,-0.5772324322876758,-1.369769997543884,2.0491791491801905,1.984375
0.4214005210541387,-0.2073974341231253,-0.12648348578879207,0.1962942912013075,-0.005482607342148105,0.15304038538336734,-0.012368737268252135,-2.2333954630787667,-0.06289950743941032,0.728859501339442,0.04780416231014424,-0.3313557212068646,-0.020265032276535682,1.4529819918924247,1.9921875
-0.3693355420996896,1.4223117329479886,0.17875615809490492,-0.4828799105434431,-0.19098313240779122,-0.01683968711889841,-0.15348354186597982,-1.1007923201598442,0.23603303258017302,-0.4186286585287841,-0.5733881024780438,0.24005164244793065,1.4443093170837447,-0.21698294040221286,2.0
-0.2690653889018888,0.8323592771781002,0.10230489975715024,-0.28954407759572776,-0.13468220507973053,-0.02552642776088489,-0.10837261905287653,-0.1266160609943385,0.18586748741282272,-0.377362848815364,-0.47460840649106917,0.23392648631640678,1.1168576505721444,-0.6680772319455978,2.0078125
0.013003543618990183,-0.23938613136881648,-0.004126909928800835,0.052398656317572234,0.09458923289228607,0.017248238276821166,0.0874092270802084,0.12645283297634768,-0.14702127401402787,0.3744409702931167,0.36277138143952187,-0.12491808077072042,-0.8028395890705238,0.1895844753390855,2.015625
-0.20018547722626726,0.13512606909472272,0.12233496235072125,-0.1388237287956218,0.08010578976133462,-0.11284903995562241,0.06840518634209442,0.4685841094063641,-0.086139795607057,-0.3784842353097611,0.41440968080001966,0.01238230120648791,-0.8858827734199798,0.5011724289110209,2.0234375
-0.11117590093079883,0.41316265558937904,0.0608008811650554,-0.12489567213030142,-0.2176266418822632,-0.20317429904357195,-0.21830701781700237,0.8244797736617099,0.4200933823436412,-1.8504137248499317,-0.8191178596462305,0.4577498881733579,1.7437934081860338,-0.37681288821257874,2.03125
0.41479032773547797,-0.5403524226854427,-0.23619721125663337,0.3588842186585862,-0.2767157351148593,-0.02961797411866896,-0.27780778041380105,0.749241119439198,0.4906385223644529,-1.2126634458609866,-1.3135792685518166,0.365078434293751,2.681016244860314,-1.1735361327728786,2.0390625
0.23587219680222518,-0.8091557581236348,-0.17960438022682132,0.31903471859218097,0.07734543532362392,0.14849912960782818,0.07928695475704521,0.5836826395902918,-0.14060880760991207,1.0313646775083105,0.07138870881607326,-0.14960479165565047,-0.2747603582423451,-0.9908775068703216,2.046875
-0.5017919857086371,0.19832344206778293,0.19683762980803957,-0.28188553440314706,0.3338297873265196,0.05886390446172581,0.3426928104895729,0.6445175263677185,-0.5660323691394454,1.6092497145935165,1.363407398262305,-0.30882203420328663,-2.8917987252006943,-0.19549050660026843,2.0546875
-0.19317687047648024,-0.15808579005783524,0.12427322880910194,-0.08157421317726471,0.20545247625466606,-0.09219673122969743,0.18426107297614028,0.6099749806490772,-0.281109456279108,0.0932027556462104,0.9032177356464796,-0.1526006061951142,-1.963655489787128,0.8016614403475351,2.0625
1.1816538552177493,-2.483732026148572,-0.464691378366104,1.062787039788901,0.020489382831077197,-0.029481478288687878,-0.059771455825968864,0.21937781422091482,0.10074640727913317,-0.8355003860181103,-0.14527622347044575,-0.2422118107069108,-0.013635078127299957,1.6891014714916497,2.0703125
1.6091854813243116,-3.180923809916533,-0.6801215238009287,1.4224820885774738,-0.0038938073373432566,0.10946795692391255,-0.0880963077014131,-0.2483210021995602,0.11358726714935152,-0.2603032851142686,-0.3937656131643131,-0.3852077293432301,0.44993799797238415,1.5385339800453768,2.078125
0.18177189531123805,-0.24396479973850674,-0.09403123241982354,0.14305901670058213,-0.02380841125023544,0.07184368901586038,-0.022207874964557263,-0.29619416123450926,0.018530731282564418,0.28940397481000296,-0.16120828635867848,-0.055793527149160665,0.3257058778187005,-0.1295481543164981,2.0859375
-1.4416929570044101,3.07470421203013,0.5812352493379618,-1.306625740782163,-0.0784978130702305,-0.03497598946319735,0.014640658563867317,-0.05274985510810686,-0.008549859991569674,0.41027825518504335,-0.012232529853921103,0.40981061153373155,0.4130103163552174,-1.9666427960980104,2.09375
-1.3659817033517467,3.0672078317676257,0.5225518076162994,-1.261887191496965,-0.08760437860154587,0.07415618903106724,0.01749993399434978,-0.5486344266791715,-0.042143426242741235,1.042666190389089,-0.09708983127216382,0.32548649068799135,0.6204503409613015,-2.2677997783870243,2.1015625
-0.027929190846164693,0.8177228412252814,-0.06563779326067498,-0.16165509248789905,-0.133831416095695,0.3202781210235702,-0.07311392684194996,-1.9126118405354666,0.02959734943217804,1.7074583656387508,-0.5925157220357903,-0.09233588533046647,1.459887945801546,-1.278991545104154,2.109375
0.5035642937814597,-0.09689031285834844,-0.24920920712529945,0.26266011098574615,-0.18513542969024147,0.26159586733288276,-0.16219575788005766,-2.09741712349898,0.1786913026595068,0.8735515949348936,-0.8356360132669105,-0.12985640089587244,1.8660757387439297,-0.19416297841139085,2.1171875
-0.3979464447024494,0.8653719048069688,0.26285850898843904,-0.40999525899325256,-0.015481912664224438,-0.2276235742130819,-0.023977689339296386,-0.004220334340789445,0.0749887182489992,-1.264441063565968,0.21392456335323276,0.17736910653565924,-0.3520876196984466,1.0994316585980621,2.125
-0.9315457813172178,0.9883383511449714,0.6054981181778885,-0.7350701348916836,0.2443562178855986,-0.6048190882335825,0.18900892053092966,1.7990153534887379,-0.18136552539234504,-2.6439182846302964,1.5086598114868628,0.22381728494425748,-3.178456878993064,2.7178456717244432,2.1328125
0.11708423148362798,-0.8800724603931664,0.09845284549030205,0.17475087812562062,0.19557686284329215,-0.3623428442400374,0.11533067831032857,1.1470274564332157,-0.11618861856125898,-1.8394451400432685,0.9690891198762428,-0.0653192082208776,-2.23171091174359,2.6789864087000375,2.140625
1.1891349217822749,-2.3395506253497853,-0.5729408197469401,1.0861725300980625,-0.06018418329612653,0.178981908653332,-0.10077490228379839,0.09082002647762144,0.13828849691579032,0.28230547131883726,-0.6549966174542315,-0.215072224033418,1.0970591677303576,-0.12057452161981726,2.1484375
0.6592380227980543,-1.371248730062514,-0.44990183816297696,0.6838058576289769,-0.07768150367142922,0.3193775094680628,-0.06070768397917081,0.4687233017506816,0.06600613640331156,1.4379120856130063,-0.7969440950739222,-0.09459194617718367,1.5103352507888668,-2.2962253269666903,2.15625
-0.36155993626983607,0.41337449614495997,0.13863703567088118,-0.251931268031546,0.10698939450858713,0.008039785015169967,0.12129374568670939,0.39312939952267983,-0.19263606066569972,0.5611983876845845,0.4623243753840515,-0.037418387561696256,-0.943102566979044,-0.4177067442044013,2.1640625
-0.31553830596299925,0.6030516516780815,0.2844042153515729,-0.3556154909880505,0.13252260472323724,-0.22133677951295117,0.103716970833334,-0.6138832423178208,-0.15866578795229114,-0.8581807779711388,0.8922632713291739,-0.09629768665123069,-1.7969237526998867,2.403747653372732,2.171875
0.027615829170005626,-0.08866464868947307,0.04212081525937161,0.011657598547082725,-0.015807407350524837,-0.14629724859549648,-0.03776170008025181,0.28438990144403997,0.09158214622034687,-1.0010983007854157,0.019957700865235555,0.08929831047556153,-0.07401638158108843,0.8001477824273359,2.1796875
-0.3673712714520348,0.3774300338787911,-0.004314574998180614,-0.1489151220925092,-0.16197424057668122,0.020237760221266842,-0.11445866721246152,2.247794462922816,0.25418196122796755,-0.12166714868487918,-0.916470803534098,0.4898681083474504,1.8901046600452076,-3.444089889871355,2.1875
-0.46478202786513545,1.1809313812458875,0.008555338515224012,-0.36150368812803124,-0.258315409312823,0.20556975671805533,-0.16977308431503033,0.6937121139595472,0.2816604544331936,0.8641630828714613,-1.2644073863443517,0.4389255812261696,2.8086751850889065,-3.965198785720564,2.1953125
0.6077355715065482,-0.11369452602396453,-0.32345109623861423,0.31872172446301666,-0.16318455588047492,0.43438946634184494,-0.12416549440776839,-2.9720225854021765,0.06647576936999691,1.9859387655771459,-0.8033800159934376,-0.316232673664084,1.8409810108855207,-0.43851621285101006,2.203125
1.4476531339489276,-2.6589843097361214,-0.6171428201157664,1.2085286677758371,0.19810933164958525,0.41173607394035244,0.14605256489700635,-2.3279368919227648,-0.37738879071879455,2.352577310085709,0.4863040764868499,-0.9117959428801472,-1.246197347895819,1.890769321238813,2.2109375
0.7111619756587232,-2.6741017611944167,-0.26829164455357574,0.8793219222290775,0.39418698830697735,-0.08088175657723193,0.30152253463749507,1.7908317488198675,-0.4572372751826631,0.15663397014968222,1.356881703048345,-0.49134977482212017,-3.2977989320635945,1.6806847805026712,2.21875
-0.6221917261169949,0.5874409274992004,0.4079222401978588,-0.46172070798033954,0.05560598465165403,-0.5595392764299677,0.00749401261660135,2.197766166857516,0.1274775256567106,-3.071938379881111,0.5653981659640088,0.43527927397065524,-1.2438514984767564,1.5731574338295942,2.2265625
-1.0033869102163322,3.1146104714029335,0.5894277278262862,-1.1939698531737852,-0.3566939395476312,-0.3956388450810071,-0.32171281869761065,-1.2847838027089729,0.5726609108553776,-2.9312139837177265,-0.7875594329342146,0.7029665294987913,2.1056326020653375,1.1873241490400428,2.234375
-0.5080728366452846,2.0977879569359907,0.19295935823643676,-0.6781217182705918,-0.2466297522207255,0.169549870397742,-0.16825997184749142,-2.1939931547010567,0.20792313824062772,0.7092682031677874,-0.8043926626301049,0.18388967859602898,2.074632227769681,-1.0367765490046912,2.2421875
-0.11054853454343216,-0.1172577287418975,-0.10532056101481412,0.0350067437733146,0.1387081398072741,0.35923335721760513,0.18786914296708088,0.1047878700351905,-0.36253512428638707,2.7561858563355135,0.27211670267351457,-0.27402797342248875,-0.5822596498632227,-2.3017692627566064,2.25
-0.1926262785606675,-0.35111612910920686,0.066150146019625,-0.016128091567540845,0.2702002691352465,0.03421158948810143,0.262531649089766,0.8004726744464931,-0.42561484134660055,1.090040274052745,1.0377259632644702,-0.26474357164564466,-2.2776112774508284,-0.03461359829681865,2.2578125
-0.4707920393199808,0.7180166627192847,0.3584687686072286,-0.4563618485334482,0.1919137681045956,-0.2637985510641702,0.16104627729008464,-0.28699684201584336,-0.24003160049252487,-0.8654355966115871,1.1666416708701688,-0.10111669935529352,-2.3792792653041195,2.4666405275479324,2.265625
-0.4884285547350713,0.8715364444172603,0.34233390270028974,-0.4798473773018853,0.10488019527993507,-0.2620140985393322,0.0844234983607765,-0.140068489713308,-0.10659634753426912,-1.087640277592796,0.784448194357004,0.03277677728196884,-1.5563418638072941,1.8996638581401535,2.2734375
-0.003030993532810396,0.11123558300376515,0.039337051165476485,-0.03299698082950086,-0.09610415462888702,-0.15371963904090835,-0.10916889037376493,0.3255735231047616,0.2140790226188074,-1.244589858073936,-0.30890826393496734,0.21027061004250963,0.6506980796080325,0.3950323917762257,2.28125
0.6299848491700708,-0.5333092790942281,-0.2839799801706393,0.42981563424635416,-0.33236159092979495,-0.009251156495969104,-0.34082743794480497,-0.4085844691520104,0.5610285443724816,-1.3504058977766134,-1.4567953151681887,0.2850815035587971,3.041766099841004,-0.23374077547920763,2.2890625
0.7934010782728261,-1.1868378293151434,-0.4760115601542837,0.6972200095916691,-0.22987575317961134,0.2662989622578056,-0.21559210516120206,-0.07909826276881206,0.3194074124108793,0.5955903684950983,-1.3446004932934863,0.051850182646517785,2.7142080195723803,-1.9025784203647005,2.296875
0.5927134346232648,-2.036975229126869,-0.5476396205424714,0.851020906411144,0.13451809751630928,0.5252269032962451,0.16897557011201106,1.7699713599487525,-0.31474227969854,3.370859308567592,-0.24294266556399757,-0.31799098984837315,0.19632462260763442,-4.14292553059813,2.3046875
0.6844993260429679,-2.279884828121739,-0.5465333675178343,0.9205095246367833,0.2039902984062306,0.49555808725345946,0.2206802737405063,1.5262738942603982,-0.405352526370334,3.3195604330069677,0.08880192571204795,-0.44330494558557165,-0.5255073997509733,-3.2563319033265192,2.3125
0.8721811217030537,-1.3405338258723924,-0.3880872426440557,0.6969660826291918,-0.1071099661344421,0.13880788945429642,-0.13125411845075324,-0.8400719205868489,0.17348131572261016,0.07431164610541877,-0.6334928488169237,-0.15726349577376741,1.219475331634396,0.4213497810206904,2.3203125
0.17290385374589115,0.3825347858578582,0.11704044668824558,-0.08040353101022026,-0.23447232619889447,-0.3905931989798414,-0.28373872662383504,-0.8353451562403049,0.5094727786594015,-3.252836718075934,-0.5653116797702318,0.3344579190860925,1.2705635683538399,2.855060197864627,2.328125
-1.218866988123955,2.006306693748147,0.7986505303335703,-1.10846013176367,0.06077574364523325,-0.8114524434283882,0.009407505934777936,1.555962977649273,0.14680594275836453,-4.314686325026514,1.0083699410618654,0.5770237230246358,-1.9866972573153814,3.277372248564622,2.3359375
-1.6714276113425541,2.517916334792231,0.9769261665760919,-1.4352179851003135,0.2825692281536837,-0.71946036037018,0.2513466783263874,1.4826468465412006,-0.27289737153043897,-2.8397187172442275,1.9556073303015442,0.33334992193965096,-3.922981623918583,3.058832382813351,2.34375
-0.6800142488521236,1.6520668777077916,0.387891983599434,-0.7291172773668713,0.07451349819828734,-0.0729321297634202,0.09553627070334227,-1.3905399156521308,-0.18259010211682924,0.15285476668923403,0.6881025085135511,-0.06255553577290517,-1.1893235563442548,1.2504503851759077,2.3515625
0.1465885189806936,0.6318452734598727,-0.18366707281008837,-0.02558954919564887,-0.1467993342104129,0.4788874623415959,-0.07246830427641934,-2.467628192085988,-0.009548742932984525,2.5923618981830323,-0.7507249449506876,-0.2128378942294955,1.8019753337134718,-1.7856266792127242,2.359375
-0.14429200916239793,0.39212797223772416,-0.08587531280360036,-0.09530641924950556,0.05624882650389401,0.42204815426218467,0.12323011812089366,-0.8903977913401526,-0.28844826438732146,2.96365274171797,0.00540211719450253,-0.26554894116650646,0.09429590717054105,-2.284715231340868,2.3671875
-0.2063226446352534,-0.11652228116188262,0.06428198068578989,-0.07789837004226369,0.2961110205111945,0.15809003992771986,0.3038285586172155,-0.10428276677498427,-0.5365865570186716,1.9758819615494378,1.1565532135121852,-0.41846907785780113,-2.4566190600325957,-0.03337803225744587,2.375
0.9083041540201123,-1.636756721633086,-0.42278989755255836,0.7802755798184342,0.010053683805067975,0.22322052484216795,-0.015159605813328507,-0.8242276947268378,-0.034605414315572874,0.9329305115371719,-0.22583341137234259,-0.34865453446482403,0.3178421525285877,0.3369924539903842,2.3828125
1.687117372642653,-2.416060784516194,-0.8779271049174353,1.3914814805923756,-0.4498886148483252,0.35069449560211824,-0.45798529098130214,-0.7089702162080096,0.6935912983738994,-0.005381573247725089,-2.4353136384777687,0.079643024931637,4.905231999468431,-1.758510950600412,2.390625
0.7345995852109849,-1.0539071472747943,-0.4310291135454566,0.642091183766117,-0.3204928084822644,0.12496881375287151,-0.31393403870719866,0.4799651553524431,0.5206347664709879,-0.5360002990304065,-1.6601112183740316,0.28270048581300605,3.372584216480148,-1.843749304283388,2.3984375
-0.7325598285495827,0.711095905888466,0.36191705407759456,-0.5198044335450921,0.24968872088858857,-0.17887235935774892,0.24579402757354568,1.1168390588407313,-0.35513103323807754,-0.021174879132925154,1.2051469034488116,-0.026826385673578545,-2.5208320845594674,0.4673951357032439,2.40625
-0.9459687480892127,0.8093754426744778,0.48184884064042877,-0.6627132737818108,0.4266114252214006,-0.19062207763658748,0.41667001821554744,1.1514309079230347,-0.6397491592545247,0.5256829836072582,1.9947256806786953,-0.2145323248631594,-4.1861749210352635,1.0377813076171014,2.4140625
-0.2114715904956816,0.03075044890176571,0.08152727343116192,-0.09354008885441037,0.04447505338606331,-0.09647379883727603,0.041082427903700806,1.1107128913550128,-0.024671932808995073,-0.37717871808052483,0.16974695401187445,0.11503435796482028,-0.40906336157839024,-0.3805855906540957,2.421875
0.2682565340015157,-0.03781957193400364,-0.11784425423125552,0.1538867811008325,-0.2982276939726387,-0.10743538710179339,-0.30118782996974985,0.20162060427277043,0.5273253014252451,-1.6859933970412369,-1.2349227612999538,0.4003250667848092,2.602538121124536,-0.3744619342843421,2.4296875
0.4093306517684572,0.1343599848743046,-0.10075401956094988,0.13443979350350038,-0.2971538116611911,-0.0945739213553826,-0.3105880718291049,-1.3591273795960515,0.4986374530914771,-1.6720395784237245,-1.0683633543801134,0.22516776409630734,2.3406922232826597,1.1568922396106331,2.4375
0.5651669197660496,-0.5150925016346936,-0.15604108314319504,0.33497568085575585,-0.15406827505317858,-0.08269056640924888,-0.18931216303677423,-1.1086053737323711,0.2972620766058818,-1.2865776300046314,-0.5416768833513467,0.018823232719723033,1.1285949972472975,1.6892361533128881,2.4453125
0.3549876949119704,-1.2379729006926916,-0.09910011577752957,0.41951679136340075,0.04055780231635335,-0.254031476765816,-0.021425350960249043,1.6592436290059167,0.11215438298280135,-1.731367479554255,0.11061165286084877,0.10516321585495488,-0.4767354253336484,1.0188234023137148,2.453125
-0.514530145343189,-0.508037387415029,0.25453939453121743,-0.13275851295397495,0.3094672884483878,-0.372096263588523,0.2610504548651919,3.506879955344577,-0.2928995110852815,-1.2304775065523743,1.27511143681795,0.12648901222033654,-2.9394775688103514,0.25641964749008067,2.4609375
-1.3166967780916774,1.4890665903580198,0.5581867213534889,-0.9397215404114915,0.4128019747476319,-0.0741874668453349,0.44604996269957015,1.4191829646599345,-0.6949950216651591,1.4564781272266527,1.870931257171907,-0.13403157686922795,-3.845277928101499,-0.6472011897380052,2.46875
-1.2001687199305002,2.806602880137969,0.4638506884699315,-1.1645340395661228,0.14217853298848201,0.339602536321668,0.25095766193323826,-2.369237018538361,-0.5231603906738054,3.30288050052793,0.8350335727761526,-0.270395213524421,-1.2970558098980682,-1.315404922554823,2.4765625
-0.3566418152280275,2.050756580856144,0.1345423767362333,-0.6101169595095972,-0.23418171128433796,0.27624075572515405,-0.15236632801326658,-3.1973047768135943,0.1381811635595304,1.3469422188284232,-0.745669263067182,0.01015069224014854,1.9949307273599297,-0.6557651179419173,2.484375
0.4308980781614164,-0.11033723662055382,-0.1355765802839586,0.21457623650881438,-0.30232806770203996,-0.12108791116621644,-0.31909031979279845,-0.6250337459323488,0.5356942154711407,-1.8703561217614941,-1.1649334450099011,0.30274106786632987,2.481504008788457,0.6824153578370026,2.4921875
0.8958195715608674,-1.9185325567587126,-0.36055480285334096,0.8303124311849246,-0.08276707992833643,-0.12720804621582388,-0.14825589223621843,0.9684898180928128,0.28595951180803736,-1.5787285104631734,-0.5337143204710733,0.05626179916287986,0.8424310772382061,0.8712773977234035,2.5
1.1815613137096934,-2.2726710570957347,-0.6045850326098622,1.06708699773121,0.069266506851101,0.4226916971946442,0.0513819356092757,-1.0144821873837435,-0.18155881320541953,2.209509759028094,-0.18144154306430335,-0.5680189903973532,0.16024143593931417,-0.33707297174407547,2.5078125
1.0323761539229397,-1.2635852570163013,-0.6237047792238998,0.8011736600003028,0.018576965520402975,0.8207348034148467,0.0718694798352324,-3.3148115316236826,-0.3301114212668502,4.716431758744586,-0.4203956748044546,-0.8076504261718698,0.9135013700784868,-1.6132696628851673,2.515625
0.1995091419892411,0.08300205615794458,-0.21011745669912768,0.11520812424791242,-0.016168722048775307,0.4674409245964285,0.04172560347842753,-1.7949102238920753,-0.1834061917619867,2.8417280347746767,-0.2883177737703131,-0.3356211565703536,0.7221036797967555,-1.6416054084752323,2.5234375
-0.5379056687988124,0.35215456721431143,0.2609957689319,-0.32798560761803935,0.09923690403044702,-0.2808529862395858,0.08434292845185658,1.9995763817662389,-0.04641378385485026,-1.2115599377397575,0.5113039784565235,0.24943140381216025,-1.1387696062627646,-0.013191746751506797,2.53125
-0.2196674243340712,-0.7408576762083021,0.22082867342355292,0.019218817873579597,0.15990031050477568,-0.5857441998158788,0.07444163074325304,3.3083783121427572,0.0438473195250365,-3.1912631690250146,0.8048768069454653,0.32040627017913254,-1.9695781045642495,1.7539734177282793,2.5390625
0.49564415928647804,-1.411222501233908,-0.15327201820166023,0.5201890369394564,-0.0047264972271261795,-0.265994518497927,-0.0730291569766959,1.5583331879096827,0.1970426338026066,-2.0171262519284414,-0.08235108268919016,0.13197221476430168,-0.08231278970609525,1.184022411719994,2.546875
0.1086281070873305,0.042992726034331886,-0.10224479105982368,0.08080877083128048,-0.18979221510572497,0.024785549139462987,-0.1729033449284185,0.2925419807611077,0.29612700339381337,-0.4328484098236544,-0.8785528977901853,0.2517126130161782,1.8557255660138343,-1.1787702627647552,2.5546875
-1.1565799476345395,2.4363339269223734,0.4787754489065219,-1.0352352264140836,-0.14974294444501962,-0.1654995224250557,-0.08591125157810482,0.680685290660022,0.19621534491156228,-0.7923149507235522,-0.346819047007828,0.5562351887383592,1.00404914784042,-1.619870131324109,2.5625
-1.532771695388666,2.9541490375023027,0.7998566411508341,-1.4023802117402786,0.012119516068904755,-0.4656385758858388,0.03673112151528688,0.6277925519997896,0.031507981094165007,-2.044110615464256,0.6784398755319235,0.5093179429362289,-1.113081700493193,0.9085368383205551,2.5703125
-0.5198495916701041,1.0086655768684998,0.4203876481137949,-0.5520860161869205,0.0892620372130674,-0.3963834772871147,0.05124943951006132,-0.22821308525465128,-0.03403930692032316,-1.983705808747043,0.8553234205813225,0.09626655223956902,-1.6912147749484912,2.8839859087942736,2.578125
0.5100339275265745,-1.056298755376622,-0.1298219610699164,0.41846204327409325,0.06137894801724392,-0.10708296614948898,0.006190212002316875,-0.23506367379305879,-0.006383223211458578,-0.8174998370139526,0.2834582659758065,-0.17428215376567485,-0.7275565330941786,1.9747481960413218,2.5859375
0.5900728514480388,-1.1661839509599534,-0.27431615637581286,0.5390760207279743,-0.05317721262106732,0.040570536493458466,-0.0780098255704165,0.23623126263493252,0.12773016966191833,-0.24163040548659642,-0.4042491195067228,-0.042142241887659665,0.7010441527842709,0.026505324129928093,2.59375
0.19718838921679477,0.022769748016531612,-0.14270200426018845,0.12158881214705189,-0.19009406203713347,0.10002675347413227,-0.16846938375198328,-0.28997471967697885,0.26208617092858827,-0.009771595273331032,-0.8870631182737184,0.15671382678966006,1.9009134822030218,-1.0716189339086293,2.6015625
0.016558933356022213,0.31778335353694037,-0.11000120026919614,-0.01758555660014234,-0.07506622119824868,0.28717393550885406,-0.02593251317287201,-0.8692038451612433,-0.01831567156190171,1.6240657427667005,-0.4596772828219911,-0.0753642083796822,1.0655799315938246,-1.6589423172293278,2.609375
0.1551803891191725,-0.9122499581511726,-0.22374949748113523,0.31391907390373736,0.3441360667670092,0.5095137560545119,0.37809137229749756,-0.3668223705477729,-0.7199510603010933,4.145484121629033,1.0115220924079107,-0.6980866225902436,-2.2222601296962567,-1.7142191600984495,2.6171875
0.4877456985363937,-1.8350763911178134,-0.333695548990255,0.6398636394622731,0.508389384229461,0.5409462603562777,0.5095245378135742,-0.5539450133517094,-0.9545815027310202,4.617032355284414,1.6323266941705294,-1.01565374047768,-3.644279047092335,-0.5996949724365621,2.625
0.7571920155121162,-0.9983479458261865,-0.35150260786964066,0.5539215606892379,0.05194667751145483,0.3740230351471832,0.052281234668689995,-2.3143967417711666,-0.20759717544910442,2.1185107857600864,0.038261837837631776,-0.5583582818236248,-0.08600165108291513,0.5670339634261511,2.6328125
0.5661469341695716,0.409010249882989,-0.22696823655745046,0.17066916441405297,-0.42749045314051787,0.13586680668734732,-0.4047439453096373,-2.672255131012436,0.5902085587872308,-0.6410405314650364,-1.6803886817398621,0.17483203361816857,3.7411961743695143,0.2624429393331432,2.640625
-0.1480509220692354,0.8960779052948541,0.0712278950920941,-0.24656893762997176,-0.2977587383652592,-0.12112776743216755,-0.2773541776373308,-0.11019394816639641,0.48426999290897016,-1.5230707256238567,-1.0998711906072745,0.4624696807533948,2.4453606825986745,-0.5348106466811027,2.6484375
-0.920660280518272,1.2209253649789227,0.4433689960918632,-0.6945960977675343,0.043567314153038016,-0.36875203192244665,0.04474231073959499,2.071220716517204,0.03799352945343758,-1.7137258554771277,0.42076509479182794,0.4388518294738324,-0.8459147305037839,-0.17491939482707913,2.65625
-1.1897760343513144,1.9431672723500117,0.621699492503397,-1.0038937800378345,0.01119337178202251,-0.49570927437779433,0.012139519600901023,1.7238421734027125,0.10349077345763741,-2.455826864019288,0.4938422656218273,0.548464378814604,-0.898854224977896,0.5884510844764876,2.6640625
-0.6962494418112761,1.2265430911685615,0.37986628387319565,-0.6049729035738893,-0.08961016266512492,-0.3990368566093299,-0.09540965646206355,1.3598715933058652,0.2581192323529831,-2.402542764420811,-0.06399191173418467,0.5182038712137067,0.21452977036360873,0.39497596439904015,2.671875
0.27534365900409813,-1.4422711376399495,-0.13395958795087667,0.4563855872650186,0.1299478138357726,-0.14888986262525986,0.08176013446256972,2.276942179099315,-0.0597889293057635,-0.7605766967136003,0.329470563104276,0.021612770121650055,-0.9868922871616383,-0.03989873474807028,2.6796875
0.9174116123606761,-2.7656957718556714,-0.43395484637265863,1.0388654475998005,0.22162812233816237,0.04213515142029015,0.15218382504146882,1.708099094551187,-0.22550915249384682,0.3416822440826931,0.49368717412389745,-0.34881291631289385,-1.4700512322633492,0.32753188137728456,2.6875
0.7182391061603491,-0.8545236175917772,-0.28341551679065,0.5054721401970425,-0.14680721122424595,0.06484519307420768,-0.16950658493772475,-1.1258411203753391,0.24208376900973033,-0.4131304990169264,-0.6694238495698795,-0.07295849658675348,1.3626924933824367,0.8419498047089343,2.6953125
0.18819916805480483,1.0551742295048612,-0.018676795162458407,-0.16680623830472624,-0.36043972240387123,0.03462886320514551,-0.3364165202205945,-2.629099492624151,0.4930387366235241,-0.8804385069337648,-1.2422345063352647,0.19949398937390667,2.8841817653350943,0.7792242912119544,2.703125
-0.005868533473632412,0.26519169762813216,0.026277527365913465,-0.07932823795801054,0.015881884992941634,0.059881597795100085,0.02184224895323553,-0.9837641396588045,-0.07129236269153968,0.4432508833769627,0.14214615647984746,-0.1287861559371329,-0.2202964286516658,0.5140981594963399,2.7109375
-0.1843817130356583,-0.5947132753237405,0.05872925651997982,0.03799810157256567,0.35940945335046887,0.050922799700482205,0.34513845754921474,1.010703870259009,-0.5624265291906126,1.4384624386839837,1.3703827428446373,-0.3734373240878583,-3.0205210535211853,0.062403583920763776,2.71875
-0.7830928849848902,1.097521125785537,0.31296510347118156,-0.589685909994282,0.13635445438942959,-0.03870514619698076,0.16781489727958918,0.8001200252800439,-0.2504046428082144,0.5895345720320505,0.656001128406553,0.06171313994824192,-1.2881420989870027,-0.8726816270297497,2.7265625
-1.07349954080587,2.6823315369155214,0.44902098121748085,-1.0642082653344787,-0.1632340974726742,-0.024035056705385992,-0.08446242614665227,-0.7282642032613535,0.1364147962821763,0.02641609897843815,-0.36210268133060797,0.38369725666553395,1.1372868731645367,-1.3146455040093825,2.734375
-0.3094262453851064,1.0799876902188128,0.11886209125860578,-0.3798586081448348,-0.027440861638831558,0.15891334368124896,0.016478917343922088,-1.4623810018589753,-0.08549330707928199,1.137219153970848,-0.007718765100266734,-0.0836456543225303,0.2245212190380261,-0.378621761117437,2.7421875
0.6344371715211815,-1.536613948648628,-0.3004177860909916,0.6200657020826256,0.19858420931410592,0.22681242684683012,0.17315978997018877,-0.48806181834339796,-0.34219210308165104,1.6431263320668976,0.5724771993751145,-0.5180713434358846,-1.375200842432685,0.49299684575400904,2.75
0.5484963049466187,-1.6691071011770386,-0.28755806715766336,0.6408223687038824,0.10116195714471941,0.0487369440888715,0.06706079490057945,1.2546113557764091,-0.09134041998130533,0.26618903139930866,0.11325267222294193,-0.1529561816320022,-0.503684002334308,-0.33520383014402405,2.7578125
0.016604526041715337,-0.31790761318711547,-0.08818319767241181,0.13278312507055337,-0.09699034789394624,-0.033201223675136435,-0.08984329697988876,1.5938283014507713,0.19895178953882073,-0.5035305020666826,-0.5863829779330865,0.28190962472280867,1.1308839090190757,-1.639411170741201,2.765625
0.2777263370795599,-0.34682823326269663,-0.20107951058017728,0.24704600362968424,-0.11525746443364417,0.15899136436625072,-0.09662966254331957,-0.08041860614539392,0.13743545491484246,0.534210716846397,-0.667910005062316,0.038373635530937124,1.3830038443018207,-1.2701718624206526,2.7734375
0.8026395316265055,-1.0888608456107687,-0.3522732116133945,0.6021028572470815,-0.07473612871554626,0.19586080156474356,-0.09036819723483941,-1.4300015006155828,0.08130543120625337,0.5831028292738342,-0.4587221043837118,-0.258368704852568,0.9079238888251773,0.5792629288974678,2.78125
0.2942766194326289,-0.12295117800386508,0.006821021668682439,0.10071750044927705,-0.0846943827243051,-0.18929686127526824,-0.12595561849630882,-0.9719092640977807,0.2105701395485054,-1.616870397418547,-0.1206010742943645,0.02833624945719213,0.27606971448236467,2.3161467504884765,2.7890625
-0.6612690659406254,1.6796278689933795,0.5076878462909153,-0.7682775504076605,-0.05625822720368131,-0.47555503654983244,-0.08373200436215242,-0.5857081155379542,0.1967724404095447,-2.8110466059158288,0.3877024269301196,0.31617459796638975,-0.6034526328231621,2.958792658291646,2.796875
-0.48477755726830407,1.350144627485072,0.34151181032162276,-0.5834577402360877,-0.009505794935987274,-0.19844998954913384,-0.010948719504074268,-1.1133153787584313,0.02037444469345047,-1.0042783629557235,0.3726833156970622,0.07756201828453911,-0.5776497135858535,1.8204674007199182,2.8046875
0.4315619289827563,-0.8732021153677708,-0.2670951506411084,0.4242195132243272,-0.012938170556604137,0.1984648896989487,-0.007769113724956545,-0.013461577781049944,-0.017829047537979766,0.9847961450904847,-0.31267633755899715,-0.1385411242708756,0.5622590249656299,-0.9579725847009894,2.8125
0.35396877786452446,-1.622283169510701,-0.34352815927054586,0.6196105047184947,0.04038310801357618,0.14606998008452013,0.04297520532479977,2.7669437045440888,-0.02199081721004656,0.8294981571469986,-0.3858178437930667,0.0734134689616615,0.49597443702402383,-2.9942698785165147,2.8203125
-0.5825152969677063,0.07155340610541774,0.1529556637547905,-0.22756008776119455,0.16560341472676618,-0.0686690865102062,0.18117928029690794,2.7545740863998756,-0.21874389556186666,0.3567094940007723,0.5138294945270266,0.16707035886043256,-1.2057025704348634,-2.059311311405963,2.828125
-0.6612648929578427,1.3314945674429253,0.3120371194655903,-0.620153481369526,0.13239854023558553,0.036555341187909374,0.1647241811167546,-0.8436662705605145,-0.3002086834384525,1.0036857934494103,0.7610436918237661,-0.13097077040072078,-1.4047233598372715,0.21766384001187533,2.8359375
0.13551458642735434,0.5348563619884357,-0.04079939941833422,-0.0748806097591213,-0.08417546933449802,0.19308760576759848,-0.059186084909397405,-2.3239594021364187,0.011031334614787468,0.9358573253866319,-0.2507625847426222,-0.18780732284468832,0.7122687035325977,0.4964571167660069,2.84375
0.10559315001685753,-0.0967107946143215,-0.09477921954554414,0.1072454093458004,-0.15643491093261672,-0.007541528027499368,-0.14709785404327064,0.5929825643903849,0.2650124063466391,-0.5537719787994191,-0.7474976268104679,0.24503127084298082,1.5451915986509215,-1.057270244092889,2.8515625
-0.8735373664352925,1.033101887288398,0.35348989346899334,-0.5956520025321304,0.024342586837194518,-0.2684702011656633,0.0406678612976708,2.4710188521137932,0.04142464562196899,-1.1532660885439947,0.19036379591367447,0.4579448509841586,-0.39611367124179847,-1.323209893155026,2.859375
-0.9639694468356721,1.638433240736449,0.4942781266305289,-0.8403205468030281,0.1438570594513286,-0.20886710350525914,0.15819976412646305,0.24381996836391986,-0.22408208317979214,-0.36979923174508444,0.9448447519734605,0.09472217553787125,-1.815308473940815,0.7045039382456938,2.8671875
0.3902543909157967,-0.35173372841099027,-0.03392247408141844,0.1804834535177479,0.03061131200684396,-0.07151423108838965,-0.011612472274900578,-1.6458355649239682,-0.01777876393577867,-0.5937128034261542,0.3286705345466277,-0.24689151137368764,-0.6677734388770135,2.7084688677668445,2.875
1.5189552663843648,-2.7380329271964383,-0.5620356251684763,1.2534590028584431,-0.09568420204942799,-0.07673176544708428,-0.19431625911195127,-0.4708536493088535,0.3133215448731004,-1.6502385649256095,-0.5686623905626457,-0.20102710287726805,0.8800762795073488,2.5904062616768115,2.8828125
1.2412148870234028,-2.394175204387234,-0.5303381017686034,1.093197841493438,-0.06734491242637779,0.048698151678477186,-0.1307124306696806,0.0359997513483614,0.2045698338068459,-0.6007777418387401,-0.5729286487244466,-0.1775998052788011,0.9129736431529437,0.9381792763617581,2.890625
0.27519775162934135,-0.054590801219474336,-0.16141090826675095,0.14192095125241316,0.008088359351570235,0.32027532683845217,0.03575129836717999,-1.9081005711424146,-0.15726087997432353,1.9343750025272695,-0.05771132497930911,-0.3452666693368767,0.21415979210247257,-0.24497454076288458,2.8984375
-0.3543810130896899,1.3210930647890067,0.12800841807565927,-0.4599296005176691,0.030288678255710764,0.2995534935004169,0.0909831447293168,-2.410720622620831,-0.25564903308070386,2.233784440895083,0.24191946837815723,-0.28415944184399755,-0.2243558846519868,-0.3577506558813046,2.90625
-0.5000946277918344,0.8938627635986417,0.17967854426776603,-0.4086118295099417,0.033775390060800596,0.038486490307671394,0.0683998537203422,0.1497169118835172,-0.11224987629583102,0.6346602332612049,0.18580290366948515,0.0578383628563003,-0.28535198092811825,-0.9361114691227214,2.9140625
-0.34797684232643217,0.01604422122023296,0.0071609027048250996,-0.08362641431704285,0.02678869830733121,0.06152592904816119,0.0604120685609018,2.1358998805350176,-0.05012058676186919,0.658331678250248,-0.14998380481061427,0.2071992920442682,0.22516960390857896,-2.7640533641917915,2.921875
-0.06002638380439938,-0.36795144394889906,-0.1793917246615154,0.15921163183962483,-0.020949004256420448,0.24626757853590456,0.026921930590119096,1.6796646509971043,-0.033353272787099215,1.542817114352167,-0.5108858685091396,0.11028562536395116,0.9693732199021257,-3.5586618379399604,2.9296875
0.056260468677553875,-0.24034337174670503,-0.0909620478690887,0.11975649741116766,-0.07322538122049028,0.024394588519140722,-0.06356313505731154,0.8803462197266191,0.12732474992573578,-0.08715371953874461,-0.453321696109554,0.15819660076535574,0.8926138773949276,-1.2492118853445178,2.9375
-0.13645190617513556,0.3237255287330738,0.19512448592718828,-0.1853659795732835,-0.07072995573512733,-0.37616811569137815,-0.11214613598031557,0.4601635591725907,0.25439052679779395,-2.5303831053055688,0.0029533540545157977,0.28887021281119646,0.0007400278213870943,1.8845137226442723,2.9453125
-0.3533283204444828,0.9724420985303299,0.315166050133692,-0.45064826214655546,-0.009403078053699861,-0.3013506496004754,-0.034240708736327834,-0.6814364060084401,0.0840152414989426,-1.7445049370894419,0.3833419276530517,0.12312642103582487,-0.6701251772023645,2.3657355192645046,2.953125
-0.28056653706198414,0.8925723376925646,0.189153845806631,-0.3689233789563652,0.06287943007832805,0.022293837401742737,0.07446343999260757,-1.5177598553309162,-0.16682457924628727,0.49546881146299515,0.4943202113524767,-0.17159486177873273,-0.8655507892587738,1.138744695458191,2.9609375
0.08357375153088882,-0.11476486185302384,0.02208807893783681,0.028395496535640254,0.07230889223200414,-0.025509273913754172,0.05459039845557851,-0.6161912313427167,-0.10608096249155857,-0.0013857708513657905,0.38902996645432675,-0.16212858405574238,-0.8116923565879307,1.1865692157429917,2.96875
0.4321261202030213,-0.9986262023325629,-0.09912986076821029,0.3803249089227106,0.012085641727438076,-0.20227530593045326,-0.046451800507149976,0.4699535102868015,0.11467998720875698,-1.512468019144907,0.08415901280329194,0.003740037988254852,-0.33299766647577944,1.6943618821286632,2.9765625
0.330452053196879,-0.7890697237132688,-0.1441990541118062,0.3267578437630756,0.011938680430269232,-0.007204128775654751,-0.010166248539323228,0.3557630211515916,0.024751357222427103,-0.20263713448716003,-0.05465347212612094,-0.04993595040973638,0.0002459765502924216,0.20758758754281878,2.984375
-0.21528192210632055,0.012970458520980842,-0.018118280644596904,-0.05566283098674344,0.12440384036894842,0.20600104734776506,0.1587650302926004,0.5525467797212555,-0.27989582663396334,1.7976044002998184,0.3102424678464572,-0.1423164253232615,-0.6717015966835965,-1.7808679154898706,2.9921875
-0.5168608401203505,0.4342861124578586,0.16268094463572993,-0.3017346108121063,0.11364850048717166,-0.015648907364619224,0.1354695234817527,1.358846772181046,-0.18626593196537095,0.5189832997757787,0.4161770900827871,0.08007230148253482,-0.887037490907995,-1.3143878621521805,3.0
-0.20575963089903002,0.6774795030020326,0.14679503235803748,-0.252681834848253,-0.18716588408944412,-0.24973042800471573,-0.19302000976737455,0.3933254495823442,0.37287228685408186,-2.0041196918750694,-0.5758435168539797,0.4126657939450714,1.280474538326916,0.3840941297651244,3.0078125
0.11374184817803476,1.1140914059699754,-0.0007961681028733339,-0.19831079046418676,-0.429820176770987,-0.04719207139532336,-0.40492116657803034,-1.8678439727433174,0.6410190867846727,-1.566655225490875,-1.5441478107268205,0.4040362051352365,3.496655430153665,0.29121229668471105,3.015625
0.05156634698785975,0.6624182606066688,-0.07295073368472581,-0.09822633728867636,-0.17978590137492087,0.22321633180208048,-0.13364485704131082,-1.6030703740959331,0.153130966622903,0.8974142535756545,-0.755061218905572,0.013622773951256488,1.7649393245257718,-0.9214285668889723,3.0234375
0.1570248442880948,-1.2469570855011924,-0.14684638482107637,0.36696673619140247,0.3186591380345933,0.18176955237010686,0.30749475303157026,1.0771376977189218,-0.517091369549041,1.9522490313428258,1.0082560363380917,-0.4261698223346368,-2.3362826166296835,-0.6935866841172525,3.03125
0.5822494930468954,-2.4416566025526754,-0.2806107200046015,0.7977613759795898,0.419564178570549,0.07886546366588736,0.35679671937778473,1.6532204437065843,-0.575083103218238,1.3278104402923299,1.365355314797247,-0.5639777765172823,-3.2742873292241326,0.5561237446641861,3.0390625
0.5941231459502958,-1.2006439085328469,-0.25679956046423214,0.5269912844398936,0.0657726539841885,0.11583156860292039,0.03886936631045897,-0.4485204495673794,-0.09852867422233191,0.5841313234646187,0.11548372428456476,-0.2899380776358054,-0.37238589476670125,0.6259667457038824,3.046875
0.16989747219202264,0.2474903808097838,-0.09299876783549593,0.03623442718190369,-0.16090774414190528,0.10778639203120341,-0.14092169572202767,-1.0406092384575394,0.19455469604216696,0.15380983306148702,-0.6703705901333998,0.052950691019003064,1.5029965658099769,-0.36094962989715107,3.0546875
0.1382951060774621,-0.36362659187548363,-0.09731222518785228,0.16383419472280353,-0.012428899337000913,0.04663148385237242,-0.011696805470449479,0.35318311506997907,0.021617551897235254,0.1899784713904848,-0.166525355327701,0.004596001951059371,0.2935340533035344,-0.5606469219929701,3.0625
0.29169662328110857,-0.7543083736269777,-0.14497418368478862,0.3003794718194368,0.09132519831359182,0.10007450239625736,0.07950950468349711,-0.05474600267345997,-0.1520942041503681,0.7345426231726168,0.2445427561592727,-0.2216460081930141,-0.6061676882828216,0.0919304058700268,3.0703125
-0.3567493061955149,1.5119934907261705,0.16782091762123294,-0.5056768897993131,-0.13131440891348975,0.10648855497958952,-0.08311697816993488,-1.9346790061045573,0.07785583680959958,0.5409818383466584,-0.32716470713207624,0.04099128149557878,0.9767551389300276,-0.08520382785533467,3.078125
-1.2951077766337131,3.5662645999991898,0.5822467166532915,-1.3689263341586617,-0.3227676379530837,-0.13298008967187955,-0.23189690790158876,-1.1697104272231782,0.39070570722116427,-0.9861447103792927,-0.8350303160758227,0.6407184229539837,2.268949067421652,-1.1083990409664577,3.0859375
-1.0031163188402394,1.8627147742877879,0.4657677835851306,-0.860998739260179,-0.11935802702700947,-0.3429448408984385,-0.09411621682508095,1.4575519100277254,0.2534915949163403,-1.950478943441376,-0.19080410802415257,0.6118968206211706,0.5622077778810887,-0.6528652492150093,3.09375
0.29927993987766444,-1.4142535671388972,-0.042360192612675054,0.403323112766095,0.22423683740447417,-0.24105137820335815,0.14897837001064368,1.4705383727616108,-0.1827338665709276,-1.1010037698671387,0.9065671485321195,-0.1527636999859386,-2.173970615019966,1.8556029445161948,3.1015625
0.8128168738322274,-2.055269005509161,-0.2269457740496135,0.7454821674161979,0.27105414688371254,-0.08008899670546378,0.18002997348813649,-0.24521720327429028,-0.30730020674147246,-0.2306810607919482,1.0821350180706735,-0.5294225034996147,-2.5438422475539864,3.1274598327877534,3.109375
-0.0060585858580825104,-0.24549721519408477,0.05578757754175179,0.026725241888242098,0.0688829182807144,-0.14388408177511566,0.04132621166277018,0.516026342175061,-0.036408075962165116,-0.729603839567688,0.3510727747851726,0.0019038093519448704,-0.8032981376468364,0.9028727596130471,3.1171875
-0.794972947353065,1.1341528845424942,0.2956591475616628,-0.5687024157516665,-0.07072718230502568,-0.2132030624309269,-0.04191389536038387,2.1461105308205157,0.16430822958214147,-1.1105039124167249,-0.23038114621712524,0.522658370199894,0.5263803134970725,-1.758108767555557,3.125
-0.4278792088728835,0.9674017339514864,0.13738777901768057,-0.3743683556442129,-0.11894538700966535,-0.015509671548952796,-0.0814929680367608,0.39874789212070205,0.15472049222413758,-0.18303068729530517,-0.4539893987905273,0.2894657334062773,1.0651411540080307,-1.356503028812366,3.1328125
0.6014144133407291,-0.21402575666266702,-0.27740254721305646,0.32515551146724797,-0.18580768433652034,0.2698459416511869,-0.1681113134453442,-2.3642416087591,0.17979267203255087,0.8711936288914595,-0.8313993038476769,-0.17538417534926312,1.851809891342145,0.11680230324289818,3.140625
1.0033865563229325,-1.3819848918482192,-0.5002525989347708,0.7909446206684809,-0.14761495543359368,0.3128247594173553,-0.15029290745224813,-1.4056989419401302,0.1656596821297905,1.0139068643544389,-0.9109008743772028,-0.23757568559584966,1.8324255974609758,-0.3865667887177636,3.1484375
0.32667835395285244,-1.1445917371385694,-0.21327734193021985,0.4337562838515924,0.09204483750839705,0.09856956853691931,0.07999197465623006,1.0298356550046168,-0.12404922674756744,0.6971714418940453,0.10263073657267843,-0.13164760427483269,-0.40336110434657163,-0.8447602116302171,3.15625
-0.3960408732092521,0.14700226583599163,0.22412010604152952,-0.25237601298892026,0.2834579687088163,-0.08956659089517473,0.26736902885575836,0.47930119911533337,-0.42370399301609557,0.4537238653750136,1.2843882144152585,-0.22876337814567713,-2.728321216221318,0.9803589281684456,3.1640625
-0.009716891462801596,-0.11813674304620876,0.08348830059112998,-0.035765299614949626,0.2214722962416548,0.013855400716544534,0.20025638375859806,-0.9295333294171135,-0.3650982098307954,0.7196136538804686,1.0392488455485374,-0.3857174832565903,-2.175386768198276,1.7439051071565959,3.171875
0.9511466548570459,-2.203394731049067,-0.5376770657206782,0.9704673367750486,0.08049155087742906,0.33612845907912925,0.06550035761849038,0.308942945101201,-0.1564929851870043,1.8169703703947935,-0.1840813283653683,-0.38801152874574246,0.11153144861657624,-1.1686617356079625,3.1796875
0.975004210515109,-2.4651496942609934,-0.6728943468279469,1.1078542738310706,0.005781125907860221,0.45153510618632253,0.017085330369585188,1.449418905772464,-0.06020138011051928,2.330464082713092,-0.751468103250987,-0.22727911716031418,1.234930279432179,-3.3935512361436526,3.1875
-0.04404156803850549,0.45636364396650964,-0.031084704008126293,-0.09199704180490811,-0.1317717033957047,0.10710601044261434,-0.10006002144559341,-0.47922075453260154,0.14245764097106012,0.35024025313769813,-0.5778600407353595,0.10832047234350409,1.309059205838556,-1.0185435743276714,3.1953125
-0.8190788364510172,2.863412842465353,0.5462891065145342,-1.0817670780687882,-0.29583531728830703,-0.34782318047064564,-0.27286422743166694,-2.108545121263217,0.4601680292661332,-2.562492754978398,-0.5038824956053739,0.49275393041588555,1.511418066894621,2.115760600759702,3.203125
-0.9420052815429286,2.5104293964336555,0.5669922284947038,-1.039042068245909,-0.22211872971905952,-0.4372534403528583,-0.20914260548660227,-0.47855471023882246,0.40897814336635807,-2.8674405814162913,-0.3015243843814073,0.5947887311343709,0.9611711200377672,1.453101977991407,3.2109375
-1.0989601380089604,1.9197679002189751,0.49876439371212705,-0.9245481347865352,0.0031434754243058727,-0.24996421648517797,0.03580352855391416,1.1121379426097635,0.012737351302297854,-0.9485673387256008,0.30403195589805365,0.40446191137252263,-0.4613865291374016,-0.6079984538888965,3.21875
-1.163941821516809,2.3359651371308163,0.5456512791179442,-1.0631894292380324,0.019343225496673222,-0.16918757921319963,0.06454145240877977,0.003649528907246985,-0.07585949287803286,-0.33778651917848374,0.45591792909954987,0.2695149678135077,-0.6782683707986199,-0.20754626307109758,3.2265625
-0.34563969158208524,1.1043699071378024,0.25333634324989046,-0.4455429502028055,-0.08507867428898408,-0.19622184377653248,-0.08669845315417712,-0.7544759931644128,0.15636459154451374,-1.2844551221965763,-0.019832577252369983,0.1825359744861985,0.20812823521487672,1.3114488476512771,3.234375
0.8565378933766917,-2.094459093260862,-0.3315741912989427,0.8343144265180509,0.07014498495931704,-0.08733281617030066,-0.0022665990116074695,0.8511268364847495,0.030967681400501386,-0.8732576639541328,0.0955832581141366,-0.1660790065158147,-0.50677985033125,1.3225393714738434,3.2421875
