AF3,AF4,F3,F4,F7,F8,FC5,FC6,O1,O2,P7,P8,T7,T8,time
0.28858425300504986,-0.4572016443982594,-0.09790897309440377,0.22004473129934624,-0.02217607104557757,-0.012747926890000965,-0.04049119366178308,-0.2752213887411284,0.060619492389059504,-0.31323418619220134,-0.10269592835244726,-0.05040298385617076,0.17160629532654012,0.6322542850222154,0.0
0.6954644478925558,-1.409642008851531,-0.193643517799678,0.5590651809241182,0.16766515779177776,-0.00591536249496244,0.10417655209291363,-1.0308949755348045,-0.2089259447881475,0.029478504215731796,0.706935214776701,-0.46113060528494854,-1.6278992693929533,2.6737526865095447,0.0078125
0.6228484449528636,-1.4347368214563063,-0.23681024294321196,0.5636153214169829,0.20674171245080952,0.13151504732282476,0.16574834771480643,-0.7618171077806005,-0.32409279534308033,1.0636782912917453,0.7291311235060519,-0.5200042384759447,-1.6840102278423337,1.4764784126620805,0.015625
0.277154711046217,-0.7054663407161436,-0.19416355785324968,0.30834974651396657,0.07581466128659446,0.2144219518346152,0.08396089620659436,-0.08170337987718124,-0.17583526545664097,1.4276859170548222,0.08544113449769479,-0.2377810763699783,-0.25665077913279033,-0.8203993560390477,0.0234375
0.10525800366126463,-0.21369808075068872,-0.11336478954080709,0.1279441361569717,-0.023245244259245148,0.1349526866545494,-0.006273198042977465,0.0917706174377186,-0.006157100389207456,0.7403946933887018,-0.24972544978389985,-0.026632745479946516,0.5032782775741618,-1.0625203971510615,0.03125
0.08547939803637196,-0.23366863692014433,-0.024997956444280225,0.08520958231987069,0.01528289225674102,-0.02673857589491248,0.0047454663380438345,0.12968448853729,-0.00150501067069827,-0.17677149275502468,0.05369334116469945,-0.0179929240162765,-0.15041995138067943,0.25866605343566534,0.0390625
0.045792145865585276,-0.32405330295068857,0.010308078356451426,0.08009250886402645,0.04296574026967746,-0.10561086770851391,0.02091957170258462,0.5695667914848721,-0.005910484958151539,-0.5867367819744935,0.19101709546475398,0.01831503414131165,-0.47564544645485424,0.5193473749626821,0.046875
-0.08158913735054744,-0.13005459446061013,-0.020364862286241254,0.025977817575847474,-0.01421835699138723,-0.008818503900889327,-0.0064141060990576156,1.0972371068652,0.04245429700292944,-0.05781595565183589,-0.17760674442119828,0.13745094621778955,0.30941566823532285,-1.1136008484468392,0.0546875
-0.45698368686822854,0.6236826870916243,0.07402363389158556,-0.2793792869678589,-0.02305662204447659,0.10374421243334246,0.02668906109254882,1.112314155635758,-0.025235069366885767,0.8622926071073712,-0.2434154589324721,0.19104669660808987,0.5473440674660958,-2.5106956997083394,0.0625
-0.9715541090913076,1.790635587368787,0.3865185125461443,-0.818980365650895,0.02552753204997916,-0.03590089327897318,0.07967000297288981,0.4324525575072907,-0.1096556470935511,0.4156190983782246,0.27150886515207046,0.21626380137254186,-0.3707546425155803,-1.3113015593281094,0.0703125
-0.8844504797102393,2.0251470363494493,0.5038351516286977,-0.9024179917267432,-0.03508107084733447,-0.2857295206727492,-0.02100963779695129,-0.4656719438919212,0.06985349321894366,-1.4014031471466244,0.33703644984634984,0.2815876168414044,-0.4481766529143647,1.2243917305083734,0.078125
0.15855808770314808,0.1900337535171564,0.0149311836058392,0.000996909526467407,-0.1664674834120788,-0.1612301791502375,-0.18592667767673796,-0.6124595993838241,0.31882991784291753,-1.587967839015738,-0.5082607366153375,0.18973376475378473,1.1241127469881107,1.2228665485721333,0.0859375
1.0337191989169776,-1.9782695894320077,-0.5769764450011329,0.9743214926083588,-0.1224000746629314,0.27632967310457446,-0.13164551688521137,0.27521558970766996,0.18336068892787552,0.8214437158270863,-0.9948870727594052,-0.11447104965453454,1.859623338350747,-1.507072259892039,0.09375
0.4586055112063699,-1.3950271155599578,-0.35427562696492404,0.5839327036476829,0.09824622885515201,0.3087148890588524,0.10934756177193788,0.8348265753301144,-0.20890225429031786,1.9878431917777426,-0.05772269012244012,-0.2540751653201312,-0.07689532537916773,-2.0361825702795358,0.1015625
-0.7676988089940093,1.3122254811431004,0.4500560147692914,-0.7055644774551858,0.1846358783459778,-0.21385917803850868,0.18097568547199286,-0.25658535696173995,-0.2772562325748627,-0.3916166136030524,1.1462507986526411,-0.04390694395860028,-2.2591209281882896,1.6400997112344244,0.109375
-0.6820996565813217,2.0434413563058116,0.5837190195300664,-0.9003812767431999,-0.022505921744984923,-0.4656537322504595,-0.05337141562736953,-1.9118944876146338,0.10881474145752287,-2.6334220823402537,0.6961350282971989,0.1520029882412788,-1.1490663819840534,4.23366789914222,0.1171875
0.620813378516697,-0.14725079864895485,-0.16855699059370788,0.2754618450675203,-0.27247201388255854,-0.045881433531345724,-0.2955224061839253,-2.029568184330178,0.44697313476037825,-1.4149134189885249,-0.9626898690057301,0.07187073646967453,2.1116987966715928,1.8107081757548362,0.125
1.0525689643541238,-1.5604574168724732,-0.5648374260766273,0.8812746049097935,-0.21286593351619096,0.31317593460594784,-0.21064944755403633,-0.7292193116183571,0.285444567847336,0.7913753981193375,-1.281457213217584,-0.0988326041098388,2.5642819436130866,-1.227833796756603,0.1328125
0.1986401408458439,-0.7961280461981881,-0.1246943917402608,0.2752174042187207,0.14855000450956218,0.11443807091661498,0.13984330964584396,0.3556930152619458,-0.24407531576507854,1.027884659652512,0.43815815368839595,-0.24751494075603833,-1.0407851346923591,-0.24295176263529894,0.140625
-0.06398712819922862,-0.8703502897252208,0.07744977176017859,0.1183577806039208,0.4012841354774967,-0.06149469256810058,0.35775407915020785,0.9088830356736545,-0.5717974750342855,0.7610792477553379,1.634726013228122,-0.4268078589707824,-3.6177235844581594,1.3541013441017835,0.1484375
0.5980673684890381,-2.02829568712771,-0.33835117903116874,0.7457099185831737,0.23715215903726225,0.16722154749693066,0.20455385258608422,1.2313135660948873,-0.3410822793553246,1.3785483595902552,0.5727085879219134,-0.38798137275795824,-1.5180441490925698,-0.5208257543162875,0.15625
0.15131153165064987,-0.3777239635863847,-0.20684816694449992,0.22780113716837327,-0.09703612061083437,0.1941110936856782,-0.06491552834035931,0.7702530130951086,0.10264982806129008,0.8839805131758964,-0.7083090047211124,0.10499792472402032,1.4268448672901677,-2.4068874241930702,0.1640625
-1.5528750641275388,3.408952353537649,0.7137569035105337,-1.4628294854404245,-0.14538024342315772,-0.26657758523749947,-0.07405101982449358,0.10243142306488501,0.17794972773454903,-1.1963272388910424,-0.08645455820476033,0.6131747005477203,0.5982472578144599,-0.8305272500626637,0.171875
-1.76400895538865,3.2687811260977755,0.8626272806038477,-1.5603168564814958,0.03488928090126282,-0.4337523837403182,0.07744178981745721,0.9726637759211336,-0.03045703484814958,-1.6459307967732184,0.7472793163958035,0.5466759378936784,-1.231965583610912,0.15533941069887686,0.1796875
0.3178263928372631,-1.2749593419569412,-0.28303623120497007,0.5052441036350306,0.0008015977408543886,0.10529547420143885,0.0017933269649119245,2.1042130650745725,0.03611728136646701,0.47962083204908335,-0.42332410990520986,0.0879131464285299,0.6463231229540974,-2.3035435956699657,0.1875
1.814883888026677,-3.3607620465102923,-1.0207462313741782,1.6892149383265593,-0.2457531760984645,0.5146136924913565,-0.25476307149439825,0.28193940557442443,0.3527406766293245,1.5421278377708774,-1.8768176316015177,-0.1867294720722567,3.561809734426764,-2.811260437569548,0.1953125
0.9844735245017241,-0.7802475970041342,-0.3604677570778847,0.585969411726697,-0.22008763066167286,0.15502947789957253,-0.24178985806260067,-2.7924212885288022,0.30503628978208713,-0.18318007612184814,-0.8930728917435343,-0.20874578210134712,1.9269421594997291,1.7211612224284378,0.203125
-0.3072759024275776,1.0337487103612908,0.4014203568939744,-0.5116838309435092,0.1406234164989121,-0.31121966971611487,0.09322706968305464,-2.1440379705914627,-0.1697256280459814,-1.403789843778006,1.2016058228554292,-0.21751577566075828,-2.3307219153089322,4.522855562440315,0.2109375
-0.38827478691449785,-0.028676209019155813,0.2214394173747108,-0.20506182099246917,0.27691867488392213,-0.1612062849472735,0.25121887732822074,1.1023777221266216,-0.3702303391916828,-0.030010747355171258,1.2384418792805578,-0.14167478062801622,-2.6831950736807064,0.9169775587267085,0.21875
-0.11822083996803537,-0.08106448972841207,-0.10142080496681684,0.04405592468625809,-0.03461465894308769,0.17089639994223052,0.005578909565326337,1.2230095277173203,0.0010188926870375828,1.0666247840164922,-0.43130515151603455,0.1247918279160525,0.8564815887011057,-2.7258697059970394,0.2265625
-0.30143452340104204,1.4885568887154728,0.12426662815528046,-0.4520258678079781,-0.2685612969094135,0.03787264787039369,-0.2195637863491814,-1.33621450828255,0.3335142583266352,-0.32318901623734064,-0.9301076613011298,0.2915396080952768,2.22195250322243,-0.6678004164755523,0.234375
-0.32542151834300326,1.1795919721818062,0.30296993818086937,-0.4851541896215331,-0.057961888382079566,-0.24729644207211388,-0.0726355787777565,-1.3068739846799693,0.12486025229606004,-1.553436978314408,0.20726269366465244,0.10869523135328563,-0.24063853775743968,2.3656228895082525,0.2421875
-0.07805506431026495,-0.35947513750681204,0.09067524596977256,0.008363045579624431,0.19593885766708669,-0.11558706429328638,0.164780424920611,0.5840427735458432,-0.2464436433677916,-0.15464971862298357,0.864603842320007,-0.15795441275049224,-1.9097317096769368,1.116690118139492,0.25
-0.22935934060564742,0.37497982029630134,0.03514428037577142,-0.16723109073364106,0.09019196815861617,0.1934691362453573,0.12495767984118374,-0.35971310596825906,-0.24503569006894035,1.6313415423406148,0.29816487727233165,-0.17082786335551897,-0.5622516312062845,-1.0097683053408992,0.2578125
-0.51386033468375,1.8213292609435376,0.23894251718747872,-0.6545248945043174,-0.06053170916714161,0.16074575424560075,-0.002205933824507066,-2.376033038091828,-0.07686205550897082,1.1836436400693207,0.009738614312660383,-0.07984952976869925,0.32342296942607723,0.02646226337518139,0.265625
-0.18758434483048264,0.29025105042066696,0.15652364849032202,-0.19486198231180726,0.12614372808217975,-0.08086837389325395,0.11199130965409537,-0.4617521474097572,-0.18913127683056405,-0.046392538664216665,0.6970799770621243,-0.1472141406822368,-1.4203680064441104,1.3442219622104123,0.2734375
0.38842565286765185,-2.3185007586254285,-0.21146233236697454,0.7089847900369879,0.30708034964355196,-0.13185592194462187,0.2389663801737812,3.364806164700105,-0.30005335160804103,-0.23059891212920874,0.8962250700849131,-0.14841783001633055,-2.347074479242315,-0.21686955400193664,0.28125
0.5391305190299468,-2.1853290600550337,-0.373008149486926,0.8154143124306203,0.007698828235082193,-0.06278332311194854,-0.028416542247371487,3.733798383222184,0.1514596314743194,-0.7183807975581938,-0.4990386647875978,0.2355520243290938,0.6113443874445372,-2.226448615497577,0.2890625
0.5033401820868674,-0.6251993296744165,-0.30467995349326077,0.4468787488252089,-0.4303718860867601,-0.08855053873788156,-0.42932926720266446,1.4287325609456338,0.7721200054181316,-2.0769514492471397,-2.0113351385469374,0.6352156542059567,4.116598287099539,-1.9366798791466506,0.296875
0.5285862902418794,-0.4804435608483737,-0.24714670277924466,0.37936730667230634,-0.33243448903794365,-0.056524736502045314,-0.34066338920615513,0.12367760917351459,0.5828460082343291,-1.6057519834299512,-1.4648100022177464,0.3693222492083395,3.0373129921597157,-0.49456667871604365,0.3046875
0.3492296499325559,-0.7764819557189905,-0.15078317146639622,0.31359059477411777,0.14928570571993738,0.1628560082936177,0.13606602496332096,-0.7721132569760483,-0.27567999797233944,1.261184163706893,0.5143157011099886,-0.39743619651416745,-1.1464122388228637,0.6313660969984913,0.3125
0.2606889304987138,-0.3006181670168542,-0.06920190501696921,0.12869536833681416,0.2589515082373036,0.2954445276124934,0.25699401188087895,-2.536264096809384,-0.5445441695633938,2.482322261856924,1.1021500804901199,-0.7298263801727637,-2.248276335325416,1.6424750871904594,0.3203125
0.6351191516281196,-0.2966756148159515,-0.19053623347207085,0.30324026800124504,-0.09567934042986394,0.13751452866081987,-0.11067464956963882,-2.814523189282976,0.08809316027941819,0.25820646579308393,-0.2842677630723645,-0.3007770301471856,0.697457762784797,1.972815995683056,0.328125
0.432531149297791,-0.22684267490507315,-0.13954398462195303,0.2379154122951533,-0.2371598489431004,-0.08301934146558991,-0.25467088347338107,-0.6653400997051314,0.42068978292044185,-1.444392234197597,-0.9210565342005753,0.19853711071517996,1.9507873460808454,0.7321105813731551,0.3359375
-1.1614635059126008,1.9934338170060493,0.5059254214379639,-0.9680655138677065,0.08323184163414712,-0.14041749063471548,0.12801424498507197,0.7313888378186459,-0.16760659910818287,0.01841407109764953,0.6049876217844644,0.2388965117457743,-1.068973578196112,-0.7972109305400966,0.34375
-2.3353310339441227,4.125177181449575,1.0277132030619387,-1.9973771275226258,0.30728361470340665,-0.1074614575476314,0.4071601823690301,0.1051803942390732,-0.6506751470868635,1.553749165931838,1.8258104887127824,0.11067610613087786,-3.3578625385597936,-1.0150286801854547,0.3515625
-1.0972081635183208,2.04066725738247,0.4677959414678186,-0.9505454746609169,0.0910208589268378,-0.03532535023742847,0.145684782538028,0.025914530886496073,-0.2312122026123347,0.6781983231656532,0.6234105854763936,0.1167773193664282,-1.0653419974934848,-0.8105339705558113,0.359375
0.9633852361172072,-1.990480038437905,-0.5248689881363716,0.9426973710815323,-0.1542520746238158,0.12954394085619197,-0.17682272858798603,1.0688818950119616,0.30158497429533637,-0.17611196876679433,-1.0876200999435888,0.06326959780472194,2.0120343826346363,-1.3692130923872212,0.3671875
0.9285362535987833,-2.07124798361482,-0.5311276417365207,0.9464911080073004,-0.06110695490756856,0.2183907158976633,-0.0773261611354548,0.9564586830275155,0.11852607719486011,0.6762266070767045,-0.7539321968819117,-0.09480678120941698,1.3024908321303192,-1.5544462647471713,0.375
-0.702152861676213,1.266761811005523,0.30958836013560914,-0.6091419283392447,0.10816109848342673,-0.006189269485585061,0.14032187923310654,-0.16896712048888252,-0.2346968306528956,0.681012374076668,0.6175706798127364,-0.014980225643039363,-1.1417450307195782,-0.24457794404219216,0.3828125
-1.1879109756619837,2.4309809948360095,0.646784673701071,-1.136975368951895,0.03611032614304452,-0.33629553297216536,0.05492616912647947,-0.1846834533214557,-0.04138153347043815,-1.3516189622492252,0.7033270502073542,0.2897906573306297,-1.188901915789865,1.2645933508325553,0.390625
-0.10218519598527334,0.39203689280197007,0.16523282756788676,-0.1757563732041008,-0.11478754499746188,-0.33266046895645873,-0.14759838805397316,0.250574571094932,0.3028317011681968,-2.3965267304000126,-0.2008237724724086,0.307992171608522,0.45083670367620954,1.5993957010850606,0.3984375
0.8657091392865865,-1.3892738908251894,-0.31422583766943096,0.67415105007794,-0.09118629457339333,-0.029612180271885665,-0.14220642889048532,-0.6276831433394021,0.22046833521118298,-0.952218716222438,-0.4445230194581666,-0.1023298480344555,0.7947714350479433,1.5372703727388322,0.40625
1.2938491744682032,-2.2797466581414305,-0.5202564604942443,1.0603882334634895,0.01794754030354714,0.15830031953783774,-0.04332744072725601,-1.3153380039800942,0.005363784046615147,0.31302390382444367,-0.14668474439872028,-0.4618494819815967,0.09074130196669207,1.8270065237114732,0.4140625
1.842400284325691,-3.8445220138050367,-0.8062261950575821,1.6861274054352857,0.028147438470355723,0.14213603764260474,-0.06791079321910225,0.19244077260158923,0.08444885116680055,-0.09486628032723379,-0.3903583047706824,-0.44741426095609854,0.3418472193658362,1.3336556439264242,0.421875
1.8548733611467654,-4.2897998396336305,-0.9135255627736039,1.8539390809195457,-0.035262560582774806,0.13941256351859369,-0.12226520693596489,2.0286329233401883,0.22567814521280335,-0.3113212266306635,-0.8934033548191854,-0.19800386916713061,1.268335937830019,-0.6069469636606347,0.4296875
0.31292035742608526,-1.0188874300871114,-0.26978075158885506,0.44352637788531457,-0.05946520674600033,0.10967765309386791,-0.052538680839592046,1.6476990082778735,0.11524974285597821,0.3423903872800212,-0.620104670741656,0.1277964402860825,1.116340917645348,-2.194577916060756,0.4375
-1.5636337407563616,3.121954609272642,0.65435916022537,-1.38489059158163,-0.0038258969009453505,-0.08692880105545316,0.0819623931231032,0.1767938042139831,-0.10820264557269448,0.3567506099147531,0.34163957485232027,0.37157908704105447,-0.34209534285001986,-1.6153345373317491,0.4453125
-1.5929731529005706,3.1647861052562614,0.7588939410206488,-1.4602795838017422,0.1023964173378466,-0.18412087593510337,0.16316580435319852,-0.3909793547724334,-0.2471555747994038,0.052013108213013054,0.9525911913792795,0.2150915605747068,-1.6098611938622163,0.07667285137689393,0.453125
-0.19432076126640166,0.2902126712202561,0.10457809658945191,-0.1762009266773954,0.15567089464843936,0.07218762478974451,0.16221722463850047,-0.6673039394135585,-0.3000479705148844,1.019364432073978,0.713455072221561,-0.25445702476972254,-1.442575634152298,0.5171605742107539,0.4609375
0.07793484922297604,0.08211732790637719,-0.09129797857382446,0.029505415568231642,0.06104250285745554,0.29584595860950763,0.09311293874312135,-1.3416980420149633,-0.23404800259424896,2.034865993341834,0.15204219123009344,-0.3172554548144873,-0.2395142968084254,-0.6032688730746215,0.46875
-1.3259213106135275,3.1838607769535683,0.5422299288102695,-1.2912937303624603,-0.09019621343522992,0.06662700649639529,0.010198801596909144,-1.201606351388405,-0.04662819721846627,0.9742421949470517,-0.025890089611902155,0.26452514397792987,0.5131224818540304,-1.573668975754681,0.4765625
-2.1289308834757517,4.59163639521293,0.9561040816212159,-1.9864075824301386,-0.11507284828286056,-0.253137341569454,-0.008926005689867986,-0.17172451975785874,0.06383677450940871,-0.6806969758986885,0.17594378641468164,0.6617800718182234,0.20357471143480493,-1.3077038197606836,0.484375
-1.0954195051123001,2.3439226162846563,0.5166249364949805,-1.0311860030114965,-0.03399813957085179,-0.1632280169138807,0.012864579631930589,-0.1714479815330079,0.0058459012550052345,-0.4961529399405714,0.23661618992421551,0.3095713567230578,-0.20467873262952987,-0.2293594480096385,0.4921875
0.36894480197594615,-0.41808145028335975,-0.12695654178680923,0.23744338867237352,-0.004731238077443156,0.07857676659063108,-0.017604332615525364,-1.123072629263826,-0.013750700279088457,0.2741161758534742,-0.016060348299307654,-0.19717221956884487,0.03548291638967981,0.922006645125155,0.5
1.2209449201100258,-2.280987015045135,-0.49291849243174085,1.0386112533305598,-0.019599535297685596,0.06417646015967846,-0.08546442099878464,-0.5242683147820933,0.11131542039306315,-0.36224055630477403,-0.3089651687312173,-0.2937920552750287,0.39409916820741453,1.5390386350593628,0.5078125
1.972990871906633,-4.48772933049589,-0.8714648778774293,1.9025144389588973,0.01857477535167658,0.014785341803379443,-0.10136336747282845,1.6143526961689418,0.19524028318103523,-1.0266608523532583,-0.52703925151853,-0.29126481394851356,0.4799811870283698,1.1092027670995654,0.515625
2.2642629368164595,-5.289291544905378,-1.0660392107904755,2.243380384251133,0.04642326035654207,0.1389301525029198,-0.07436635615733604,2.105246219151681,0.1432113111553017,-0.3300795481105315,-0.6393630087844824,-0.3856659532241857,0.6003723236024316,0.24526702624823646,0.5234375
1.0608018268184336,-2.1764423252687846,-0.4775754699238302,0.9722810021197705,-0.023108740749276997,0.08341574952640474,-0.07395802173229302,0.22607382983904672,0.11050243518336582,-0.1586693036864226,-0.4057815251250349,-0.19476012774811763,0.5809628421946065,0.4758405178546028,0.53125
-0.47983363984828814,1.346161566759014,0.3333648724788988,-0.5698462639994131,-0.07939389347246331,-0.261102618707891,-0.08296065869838683,-0.6695452968048627,0.1621670964722583,-1.6054663281534516,0.07706077115052332,0.23176461974904333,0.02848171083699825,1.5671404497321884,0.5390625
-0.4892161838265215,0.7374271880810798,0.31900411053852734,-0.42411620513539033,-0.0025682521925407425,-0.3797582850753449,-0.02784560375541943,1.0516236841379059,0.13103938770314807,-2.1531699593752816,0.28387826906347574,0.3241610228308205,-0.5698999807357686,1.1993764980279311,0.546875
-0.08454469414036468,-0.6776812226844271,-0.016314467172679953,0.14393619563412838,0.11236635120080178,-0.09393868203132129,0.09690412962708997,2.2389675414719243,-0.09066000423365536,-0.24603874170866805,0.2817553127862125,0.09809555115540045,-0.787440772382508,-0.9737248955141966,0.5546875
-1.0953888342602902,1.914406630979833,0.38917637435732616,-0.8874589939090657,0.12412076429215448,0.12837156095365096,0.20094026118833888,0.16856362775470146,-0.34305748489116217,1.820695576153863,0.5981315769034131,0.03044948696845851,-1.0297014236636834,-2.019520982856606,0.5625
-1.92957655598463,4.593845339970911,0.8646105594272294,-1.922707312908624,0.04041563964747843,0.10252541834743872,0.16792313859678132,-2.6994562761710457,-0.352700479581731,1.930631271986769,0.8017551758856528,0.06541155673548123,-0.994710388869845,-0.6707549833371995,0.5703125
-0.5705372685122501,1.9591061712549775,0.28890073672067207,-0.7225395070467328,-0.058212446418967466,0.11290486472712537,-0.0040515213141856105,-2.449735845460135,-0.06844014472294721,0.9155737140829849,0.0822556926007075,-0.06229134038095495,0.18793878224550312,0.38742096388267705,0.578125
1.058871293444103,-1.9936975143305926,-0.5213916328053113,0.9566020615648481,-0.1086417300406696,0.16056011372763507,-0.13894579563977105,0.11926243654975868,0.2073694961561812,0.10023666571488916,-0.819569231050599,-0.11403543714348092,1.487275704505543,-0.3931691745013657,0.5859375
0.6016543989726303,-1.3927353834763723,-0.3270638523071513,0.6217518155460462,-0.06892842332245319,0.05122151068166622,-0.08950523150161381,1.0190458717078332,0.1665002298476106,-0.2248747391420386,-0.5831890141411251,0.04376677621473637,1.017228447923167,-0.8343946224434923,0.59375
-0.3640151821402655,0.7760951165921238,0.16914475344882587,-0.3456341910038452,0.029752136138883695,-0.005240571502612261,0.04829417958131754,-0.3280876089037443,-0.08640441256591078,0.26880185451266275,0.24267890577056622,0.006701138386257433,-0.4011233934478313,-0.01169620745087948,0.6015625
0.12078819211095178,-0.21912562620676107,-0.08638625401947286,0.10824263802702755,0.08453715714983348,0.18925912448845858,0.09638526084872225,-0.703798484405995,-0.20846175578808548,1.3844306154874508,0.2549397064820197,-0.26518705411061877,-0.5283984732353325,-0.22664425882317976,0.609375
0.6361964935125766,-1.588897965764639,-0.4024830246395199,0.6973204843403416,0.051519099520107296,0.27435435176965545,0.0502637152739919,0.591907620633718,-0.11194619742063748,1.5237228102977276,-0.22641468361204137,-0.23804980656211366,0.26324214858944445,-1.51836818193633,0.6171875
-0.16614503455545399,0.22552242110466447,0.043494050052648205,-0.10669139525095717,-0.020693991918862172,-0.013154419667953375,-0.00891696131589151,0.5131960814401081,0.03224870019285654,-0.047653240709146866,-0.1093688467988077,0.11253983325555565,0.2362283255345081,-0.689693235518864,0.625
-0.8455041263624754,2.281736710933045,0.5216821077282635,-0.9594340469132056,-0.08260171456467255,-0.2822256052380357,-0.06750716972809408,-1.3110173865279253,0.12521509427774244,-1.5320047554730685,0.23594693911110265,0.26044981202000556,-0.1635810844900582,1.8171502426265396,0.6328125
-0.46905567086335426,1.4619969157994088,0.3277137502942487,-0.5911432182882476,-0.09710542101772404,-0.2235161188299187,-0.09456519752316467,-1.041476233259789,0.16669722750621108,-1.4174703218017288,0.014980551837909344,0.20743394095882667,0.19226636979333897,1.562161435473262,0.640625
-0.11467642531599657,-0.21792717647048795,0.005135386013700288,0.03427197484617313,-0.05936565583869548,-0.14936676091921983,-0.06485183557272461,1.9775375127567032,0.18363469049198888,-1.0631289291435515,-0.35069130130757453,0.33108845223767375,0.6218878983483407,-1.132012063355257,0.6484375
0.16125364612148746,-1.0380945213247708,-0.09150431486199706,0.3366721172170407,-0.05868597861892132,-0.2803992682259482,-0.09976899904159363,2.9321210853279127,0.2837359161611437,-2.073638210030053,-0.4086120785533653,0.40241332949796293,0.5928247621371326,-0.6564212790340731,0.65625
1.2691644211377793,-2.3189402510583053,-0.40075035193138064,1.0297626766701604,-0.12094953963994597,-0.2743146770740796,-0.230721670457724,0.06611503192960742,0.41858013952204687,-2.851621384454361,-0.5206078475360131,-0.0022477179711241856,0.798592374962588,3.1382702623604244,0.6640625
1.9593350657378725,-3.3839149616224944,-0.7383893667179893,1.5772427925341208,-0.045021339442152385,0.0778560923022478,-0.1551311978371163,-1.693553878814022,0.18987812098694004,-0.7789383952737183,-0.42004918956378395,-0.5216661228717347,0.544165869950985,3.388227309412531,0.671875
0.4137918142774575,-1.4778425317396806,-0.3090473379807826,0.554026818993858,0.27459715049052247,0.3770488348582926,0.28021064234088766,0.28561905087827016,-0.521148423578919,2.941631991465702,0.7024710581600292,-0.5549815583940013,-1.6731573235351767,-1.292808257336118,0.6796875
-1.7900038225858204,2.2060943021837107,0.6079365054762541,-1.2489342904749108,0.5028194478088807,0.24303496842584155,0.6060321887027417,1.5105453636565218,-1.002288675889989,4.02323740809139,2.0493277929273126,-0.25450091522889295,-4.124035594517554,-3.33037825468983,0.6875
-1.7047850853470776,3.168429298433258,0.8108296939334445,-1.5303858668635029,0.2892869252902095,-0.08432625976823445,0.3527473157983267,-0.8543930991480272,-0.593089464668494,1.2922697045656797,1.730380948573422,-0.08894833110766648,-3.232028153128315,0.4409600756063389,0.6953125
0.18955874210636547,0.6634063573133926,0.08218293602950857,-0.14032642833544795,-0.14525841142022003,-0.10909272040920788,-0.16494291141395917,-2.5932901506066357,0.22312870835791238,-1.1944654653244198,-0.2164736321745808,-0.0409694282602065,0.6564655857750801,2.7876316443830875,0.703125
1.0836097953380104,-1.3469131104385887,-0.5511219290803133,0.8441341340987449,-0.3373005968459973,0.222701255496594,-0.33877633267059,-0.8419711857040368,0.5109465529076905,-0.1462482006554755,-1.7158963094686144,0.08260862107264152,3.514826483290769,-0.9813370773900797,0.7109375
0.31330978120633285,-0.4168823395348922,-0.4076721428940517,0.3778377252475546,-0.2500779041828425,0.4442078907095002,-0.17438928920097327,0.6216954668116346,0.2485540883370427,1.9623149716517805,-1.5843119354720698,0.18237057404620474,3.2956505797132443,-4.613271734040688,0.71875
-0.544772129388618,1.488056888335948,0.1385096341040421,-0.5253180286233358,-0.1412966946003073,0.1739271859587525,-0.06687375835921101,-0.5295699928882496,0.08040265855504337,1.0442060194487777,-0.5729923178266947,0.19767672450662976,1.4333289344457854,-2.175807822083892,0.7265625
-0.6477271775667243,1.6466940509623254,0.4344550731532288,-0.7246710791777845,-0.06267487465296205,-0.3295830184841144,-0.06774901170381062,-0.6100243500062215,0.14927903541303447,-1.9069159288047999,0.23280611314146227,0.2715905470927194,-0.27172952696148145,1.8883900767980224,0.734375
-0.3453635642498515,0.13083214994640835,0.26201498505502263,-0.2254435597920107,0.0519275670562714,-0.4386276710807342,0.0047182596831043646,1.8165681360445187,0.10359051746494204,-2.4798281207454163,0.43859837275794156,0.3091387693068019,-1.0137714581677437,1.3904355474238124,0.7421875
0.11988914816538987,-1.0804400381036783,-0.1301920621229642,0.337487153751826,0.09517415660616858,-0.034237602795875566,0.07790602648942355,2.2821924603813777,-0.06702193603865828,-0.04104558900832224,0.11205438933772936,0.06338459894127212,-0.47926845355008046,-1.2521214826040081,0.75
0.5518272114559992,-0.979573699796589,-0.3175334151718323,0.4978848730978314,-0.006053397790382011,0.26427173219940403,-0.00030941887521403124,-0.5399437285494368,-0.054537584240036824,1.3551840563362718,-0.29695666762843903,-0.2416517793303813,0.5407361589338944,-0.7729935274254189,0.7578125
0.46228542715287735,-0.3546257159872271,-0.12211266579617566,0.24645478467309181,-0.0662318760157522,0.01058475990887959,-0.09029125971793073,-1.5566340487629713,0.1057047127757865,-0.37835321421085855,-0.17679515481349103,-0.14984418698203003,0.40226156145285225,1.6658329693037923,0.765625
-0.11335520976379805,-0.07970519541170018,0.17662668420161867,-0.08776726494219614,0.04700250685444219,-0.3653758958131742,-0.0049691682650648715,0.9286713419407019,0.0837570445350557,-2.145969251629777,0.4225796094168599,0.16371060611530538,-0.9593935219592274,1.9323723733795835,0.7734375
-0.3802412177888941,0.032104282608891796,0.2047844221671661,-0.19572375788979549,0.14316416786882674,-0.24873571765008903,0.11814012825881041,1.7172901204050177,-0.11691801278232625,-0.9757940058997154,0.6735457257861609,0.1213810958675583,-1.5083728587736642,0.41420000731100826,0.78125
0.0326643550678045,0.21961162261032408,-0.01991625456370109,-0.042072332015396084,0.03039269170098708,0.16034112873747747,0.04761393395701724,-1.2470893038433608,-0.1357567471423058,1.1055102926626834,0.14024214093345017,-0.21331383279052663,-0.2058199774238066,0.12698259173846937,0.7890625
0.5076001694540286,0.005959209530363099,-0.1800367556034825,0.1999485260107288,-0.11973481548892372,0.2189370512646745,-0.11177013166269044,-2.859447973873144,0.07878641826922324,0.7907821812358388,-0.4268197072865648,-0.27293851977484423,1.0430366598446548,1.125300940205648,0.796875
0.4165279284651342,-0.6543891411482161,-0.12215692883727602,0.30729454677227175,-0.028230848214279562,-0.05826495677123809,-0.06132443976269184,-0.41680092464760754,0.09697017520909418,-0.6897348552058169,-0.09522798400414595,-0.06629310284042006,0.13587107560784484,1.2351586052586092,0.8046875
-0.07075850603909693,-0.7375494558530548,0.016115107264572118,0.1359423357699181,0.20474556570459795,-0.0906403965019354,0.17870736415075508,1.7644182171714604,-0.24230250375416088,0.030598307812998504,0.725270518551352,-0.07338046657857589,-1.7127377736221874,-0.1291825694588694,0.8125
-0.43187832950431393,0.26108952287281645,0.08820262709284915,-0.21962202632222705,0.216286831439629,0.19011480435145162,0.25282998617146313,0.6253274461755354,-0.432956856553125,2.081126043023903,0.7432554924050493,-0.20978847121252397,-1.5622100746608047,-1.6026484299815145,0.8203125
-0.5163401352919958,1.2860462850378689,0.12949601457449242,-0.47892458392790943,-0.027477461909977356,0.23757430206953473,0.043065123296664974,-0.7836049993798329,-0.12126141351314182,1.757116658393784,-0.12370944584943977,-0.005820465214723427,0.4701436094919324,-1.8676836875580878,0.828125
-0.4568792046326129,1.131535468227223,0.18121719663603356,-0.43633361459833797,-0.15230762732640607,-0.08342427162279692,-0.12043541837782222,0.2756810756678368,0.22667154086717042,-0.6942296636888609,-0.5123700910371266,0.35177337155622734,1.2141191692420876,-0.926189360694749,0.8359375
-0.1977956907512934,-0.051732172276705485,0.10132215101303649,-0.07171459589808706,-0.016683685407498643,-0.2431610950265146,-0.036196518715624765,1.7559398124314352,0.14305704558927423,-1.5002790409730475,-0.0432901690614528,0.3013430157238321,-0.003043315851363435,-0.13661412486588198,0.84375
0.32988981429108677,-1.087929364595496,-0.19015294707955016,0.4173404909827233,0.031570688153132416,0.00479217886381878,0.01130913112054983,1.2395370797481418,0.010706616364674118,-0.08511120372293776,-0.09599898222611368,-0.0008178642062885302,0.009746030030561315,-0.591186720726947,0.8515625
0.7361458207068127,-1.0504794897232053,-0.41184560242233637,0.6180031722504905,-0.1854714773182849,0.23334227413092715,-0.1778452641216337,-0.42491612791771805,0.25177888107761826,0.5399227901936481,-1.0736309597046179,-0.016853411860542067,2.170215894112312,-1.205127753203446,0.859375
0.5913654207745583,-0.22271927522911206,-0.2742886026395571,0.336238112149161,-0.29170963468985184,0.14340272807041796,-0.28074247165828026,-1.5380254635778008,0.40954952680222984,-0.24070007908550503,-1.268467210238593,0.08581547857901087,2.73507227731109,-0.18413259208159324,0.8671875
0.23496993163352478,0.10417134892639762,-0.017002609002692685,0.03555881193791939,-0.02861339743627966,0.020635145830512097,-0.0411125266965739,-1.7954368637650493,0.016921971802792906,-0.07335268064075717,0.047158056102893316,-0.17853558682570533,-0.0047939323460417,1.6790126522938993,0.875
0.2386891951879934,-0.5264948907721408,-0.028826202491774394,0.16384664685599212,0.24287259393853294,0.1008698673776677,0.21625412355490828,-1.4156760954281555,-0.4193680030700529,1.2001652877100162,1.066359520310356,-0.5380340889985233,-2.2586184271975407,1.95821408021663,0.8828125
0.23491433149102398,-0.6225467706845706,-0.09389520859360478,0.22463548567764013,0.16387363313694173,0.12299136123658704,0.15064707052667572,-0.5783535783753655,-0.2890658887713517,1.116675632201517,0.6079102717129464,-0.3625809272938825,-1.3353213918942948,0.6599698626520882,0.890625
-0.4586049446293365,0.9325296685686524,0.22636257145653008,-0.42014843017523956,-0.04707092860833895,-0.14825401510183878,-0.03554606158970944,0.3389799357728577,0.09327150301933072,-0.8097958912101108,-0.021252807562686615,0.2371030230812216,0.14391180177915316,-0.0334117831480834,0.8984375
-1.3125516033612332,2.5066023570524565,0.6651683494516314,-1.1774251784580343,-0.07541800255740456,-0.4587749406952597,-0.05355696914637769,1.1665814578441387,0.19553168385652867,-2.379084464060306,0.19370121760661937,0.6283316762798198,-0.16195444407320642,0.26012707492510306,0.90625
-1.184588269557831,1.9483654064503617,0.5945377706792103,-0.9898128189423315,-0.008760630693151519,-0.457129698627966,-1.7788635200155038e-05,1.7719266838935832,0.11988039589232448,-2.260704438712482,0.3690118673012436,0.5660115561361028,-0.6321483325595769,0.161412188905853,0.9140625
-0.18830426835470723,-0.0656564000324938,0.08433843333503019,-0.06147123950264183,0.008198564433578186,-0.18531561627269574,-0.005840601977700011,1.55633654149016,0.07835422844528167,-1.0587191018558084,0.03363178248425131,0.2287259573500614,-0.15612543731662237,-0.2692994510768035,0.921875
0.54665119066165,-1.3859237136077822,-0.2823857639045519,0.5741540477043007,0.05484100466799121,0.09544292089217764,0.031215028477609933,0.5786294080938063,-0.05503199941694771,0.4435795842832692,-0.03571760658853534,-0.16635620410321517,-0.12119232467072764,-0.27788206961533285,0.9296875
0.6191805963856606,-1.5358067266144941,-0.3533185156692231,0.6495561252861898,0.12373610515100784,0.26558956684003715,0.11388730651684453,0.07642268589884371,-0.231946716795261,1.686306056584009,0.15399061394361188,-0.37557392688830255,-0.5138381334576023,-0.6761121651996211,0.9375
0.47525127039221315,-1.1497872570728291,-0.32944084693500586,0.5224655405283538,0.05582269707891539,0.3042952842213425,0.06795270537526674,0.1587174049751227,-0.15584679254288145,1.8242654586574996,-0.14771384848287605,-0.2595794884186199,0.17121321393950115,-1.5345579004575889,0.9453125
0.3536204570376673,-0.3573562991190357,-0.20719253510343752,0.26630234642555467,-0.09522341752780138,0.18423816967362502,-0.08081951621195752,-0.7019893952260587,0.09030244863249477,0.7051005717438648,-0.5409240430101655,-0.0687403955476885,1.1395791908771273,-0.6857671535431898,0.953125
0.2508443927010437,0.3220908913331638,-0.018647075575842845,-0.004208551082020208,-0.1099469334331902,0.018708925321510653,-0.11633446138476439,-2.144713765976013,0.13513357573611237,-0.32617184637470764,-0.25027067045049706,-0.10321168459244863,0.6698317419178998,1.6756793974667143,0.9609375
0.23643844030169184,-0.006297238434149957,-0.015308754061385599,0.058316940994189194,0.002204069908737379,0.00872259636812338,-0.014864631716486299,-1.625940829811368,-0.021366852189658395,-0.06662578149432936,0.16518935192127113,-0.20146664727376515,-0.27566104502970223,1.7561925036318429,0.96875
0.11482759585428337,-0.5459245383015534,-0.10538719264060188,0.1961598859372106,0.07588094554496748,0.09652285665203711,0.07740865018126816,0.5503493538739811,-0.1302958812825696,0.7632761187098108,0.13953097281315036,-0.10854518119131557,-0.385628104997685,-0.7364996125229029,0.9765625
-0.360026306116283,0.28629832937013533,0.09576151045178866,-0.2004892500208052,0.09947381594834792,0.04601872944757149,0.12131931463270865,0.8537197204940474,-0.18538192739726206,0.7842631456836383,0.3363670455605099,0.0013445982754477052,-0.7139175087055655,-1.1638425842861697,0.984375
-0.6951026205245948,1.5339620399685419,0.37658953865138406,-0.7019143738415923,0.09779319291828326,-0.06581563978413123,0.11946852531063401,-1.0395577430354757,-0.21458570787059753,0.27186813504682317,0.7379276502702471,-0.06127893595055604,-1.3249975697893814,0.9636639983520693,0.9921875
-0.21766743108906828,0.8624487798518526,0.129785888674915,-0.3123635697426001,-0.02454133819428268,0.04019498883364251,-0.004803751743187249,-1.3162875148595072,-0.030431194395818047,0.32872255385419125,0.0737353271339937,-0.05430061894581798,0.015745235983787898,0.5074158409888532,1.0
0.5982429538062105,-1.0751425891122706,-0.4252618236144479,0.6060290194778678,-0.22948260402230755,0.2188670321088286,-0.20809199694745475,0.891975298434007,0.34078351291550785,0.4052859919562724,-1.388458337522439,0.19469250157648996,2.7769128932059526,-2.7063121203551304,1.0078125
0.6464914872633463,-1.431536197327465,-0.43042461863194104,0.7096754336089447,-0.25782591770261837,0.05522790110170395,-0.2595093152924989,2.040096613160583,0.48018305016426455,-0.7585416827562931,-1.5207470650165607,0.38058609812271665,2.952980134610945,-2.605638767494473,1.015625
-0.12069121987381914,0.08053036321563614,0.15432647294740057,-0.10871784769683612,-0.03543937571816138,-0.34182690161794504,-0.07499905089856967,0.949796882809847,0.19977557983459204,-2.2220967219055714,0.05369237093871507,0.27088950384792293,-0.15969434330255053,1.3543430122769666,1.0234375
-0.7046122787609538,1.1139037482373346,0.5141448047351134,-0.6690534685669305,0.1667502327311578,-0.4613468813750707,0.12359581285986891,0.22192797797910552,-0.13415439905381102,-2.0729701105382143,1.2158525496372272,0.09183056692555483,-2.464062718273817,3.0580372947855183,1.03125
-0.5377185180865472,0.7173670006943583,0.3437333637957191,-0.459072949185332,0.1511249446868302,-0.2675011273468003,0.12953060491259677,0.42972369878898303,-0.16645536872141503,-0.9731933481944058,0.9197406788191036,0.0333291493728747,-1.8882233873037368,1.5685531454533066,1.0390625
0.01665003158557282,-0.004679581760760998,0.07685255640259728,-0.032289253587447234,0.0332652136230949,-0.13905475533673578,0.007058852735890385,-0.24141728548225053,0.0005855354890184072,-0.8040315426272717,0.29025650352637206,-0.024597396159547563,-0.6096459415917971,1.4313701916379975,1.046875
0.3805723667784792,-0.36962214351346256,-0.07032537591286353,0.20795460263810267,-0.03898737035110238,-0.06976427047932604,-0.07194744240347593,-1.0794035031136613,0.09939831602902591,-0.7748931165114135,-0.036902660659916875,-0.10045301389030505,0.07829440195592648,1.8449131799010279,1.0546875
0.27711051363112926,-0.3785981736339811,-0.2046580832090646,0.25141758669102665,-0.0745083920825388,0.20136169002630366,-0.05364822373540591,-0.24303907407489359,0.0547877753524915,0.9184847956780852,-0.5136047400716087,-0.04518787548372151,1.059698387511804,-1.2499996992146676,1.0625
-0.16360275177290481,0.19938672796721016,-0.2014927001623004,0.013629600622957988,-0.06857567502536921,0.47453146776010113,0.023608979996366453,0.6491826248750386,-0.0854699668255752,2.9427595016759183,-0.7597251693815026,0.02799148867396006,1.6240197127458855,-4.674854701038325,1.0703125
-0.4499512471749683,0.869112823537331,0.03741067468997964,-0.33151635347997693,0.05236681590313665,0.3623336518998695,0.1308519197196048,-0.3753959303398842,-0.27645916930645326,2.738944261413208,0.03533621986111541,-0.1317477993493063,0.06585172886063283,-2.7264083081347312,1.078125
-0.2569078199124561,0.4452155935954026,0.1837268686605441,-0.2706362244824818,0.21641684905598466,0.026916868740281936,0.21278312148721856,-1.1310839612408603,-0.3913307826436012,0.9391114049445577,1.080937011780305,-0.3506514548444701,-2.181474788776478,1.475992775438916,1.0859375
0.11810632822965203,-0.6561256179781879,0.018796473420254194,0.15430596607869462,0.19840175987086367,-0.0922672912734033,0.15750548920740423,0.219543229299304,-0.24903212033401217,-0.10373270285508544,0.863383199653586,-0.2424065301291518,-1.9246547377428698,1.5378410359376826,1.09375
0.2773312015102182,-0.71893941615036,-0.1679248121819315,0.3148893092554781,-0.04384923031749075,0.01934691371022695,-0.051892031285304396,0.8133389860398054,0.10441363529933223,-0.1632204686602548,-0.36042366612275056,0.06891037489673427,0.6380029204214848,-0.7287335164062912,1.1015625
0.3203054914512289,0.09033957284327375,-0.15273906546141092,0.14120333947149788,-0.23344127330426206,0.08681327155693748,-0.21887562930655746,-1.0840942364909205,0.3269292319572559,-0.2770233343403263,-0.9798020309555059,0.12281350851022522,2.1407463857374824,-0.28272749458428836,1.109375
0.3629562076605593,0.032490493323051366,-0.08992913184834475,0.12571838588412318,-0.1409880107016054,0.019397201182110205,-0.15026199267474236,-1.7331130755925093,0.20245517572344748,-0.47323261336195976,-0.4563565345336329,-0.04738166690931211,1.0512264913759324,1.2955463804360463,1.1171875
0.15070515212124438,-0.7101392729193551,-0.04337705471455463,0.21775525825870906,0.06967930346961314,-0.11957323570060376,0.03703445874862189,1.004691595945495,-0.02079805326972947,-0.6644400683545214,0.2391371405887652,0.004285972470618042,-0.6452050962188025,0.478758251055135,1.125
-0.1821123321746638,-0.5910991702143933,0.058180855460479464,0.07012239958432055,0.09764511942454862,-0.23379160912818822,0.06930141495833499,2.773706869696727,-0.009930906677617122,-1.130920413467959,0.2937162816981828,0.23236277428450144,-0.830709059318796,-0.6168095826522118,1.1328125
0.012857716673222214,-0.0784348613389037,0.04628375314502609,0.004497409522239762,-0.02226360532870715,-0.1605446428518918,-0.044607290478040094,0.4025671721599828,0.10795368582077547,-1.098038335507468,-0.00671887977277038,0.11650649246946215,-0.019948313337119793,0.739962423100338,1.140625
0.5503812551316563,-0.40937670111852226,-0.15460002514936136,0.2895415703697538,-0.04087857601253373,0.08260104834273933,-0.06308591283383733,-2.1724230525309287,0.0328976151365926,0.10620272913401715,-0.07193811003578245,-0.2812666359452452,0.2023611551634172,1.9301331380741895,1.1484375
0.3174494152673926,-0.4110772346960685,-0.14298675847191378,0.22885045061543693,0.01718336815826088,0.14572884714809853,0.016160958371468324,-0.9619250383721336,-0.07546759933899774,0.8032296340365895,0.005547428976249169,-0.2234567705007692,-0.014008257533668913,0.29643613531807667,1.15625
-0.7050497101048788,1.1509191769731322,0.25569943769563097,-0.5358756655966609,-0.0656857950544343,-0.12041216012160703,-0.03024077241006909,1.3967090936135107,0.11105113949603206,-0.5474086534280879,-0.21240589441419272,0.39932337165217635,0.5280532447087721,-1.6231791487109888,1.1640625
-1.0151740985626998,2.1397361320592236,0.4618616931396187,-0.9194071020753207,-0.194815037286741,-0.30680898852488736,-0.15650563824209768,1.0590825332453162,0.3438350393001655,-1.9207231905466888,-0.4859377748896864,0.6684814397111013,1.2406177158328755,-0.9147051682300187,1.171875
-0.07961690977127184,0.4814253854623589,0.0884823211997808,-0.1638936336769246,-0.0813982825472738,-0.09180456200319728,-0.08342185896498568,-0.5422142881248257,0.1401487691461101,-0.7664626494011461,-0.17509420594782835,0.1072596687025421,0.4537810089174652,0.7112097128548625,1.1796875
0.646731542049296,-1.548061802681747,-0.3061902129556627,0.6315986210563603,0.171063967700988,0.20295921127736535,0.1441360237075815,-0.34681438123366753,-0.2861002620988178,1.402583023659247,0.45785829915282505,-0.4629171964879235,-1.1411381812092591,0.43372377233459036,1.1875
0.16655554383113913,-0.9893774308734441,-0.15856822439508103,0.3245169949769849,0.2030035507072634,0.177057690062791,0.20166426202805396,0.8688769399236517,-0.34331040506943744,1.6023550107872373,0.5510528185508184,-0.28900757964456103,-1.3250784402426874,-0.9890213299454705,1.1953125
-0.5906419185462487,0.8685712866611199,0.20713777652182155,-0.43439745764105714,0.04895564916783757,-0.007660366017274013,0.08191551737385673,0.8020142965418847,-0.11074196358937824,0.43339364559249294,0.2230436454131704,0.12991672454147915,-0.40028440214327743,-1.250569699585363,1.203125
-0.6165382229066788,1.30247496857725,0.25888507524032595,-0.5659762749445543,0.01551797672677987,0.01047902887324552,0.053899371989007475,-0.30245597600576896,-0.09511071873384848,0.47969012141752726,0.21416596325563078,0.07496745120735317,-0.2753942843262931,-0.5547415444803891,1.2109375
-0.18991625482756963,0.5520932710916074,0.044323634522467466,-0.20274227018173835,0.058702995659409465,0.20062514059424788,0.09377726946070862,-1.0444698116556592,-0.212083328825907,1.575116498033187,0.24036782792867079,-0.200662988161947,-0.3837532827214742,-0.5320929366685677,1.21875
0.23739516273597702,-0.06710756311757667,-0.16133045807867732,0.14300052361442753,-0.044104877162059575,0.2617349146475377,-0.016597390017847942,-1.252101364003173,-0.042932211699890706,1.4274021876053378,-0.30162322203967956,-0.18862875091434184,0.6984220700846644,-0.6943587631435147,1.2265625
0.6766185448441336,-0.8506329557356074,-0.2759723681882615,0.49002673127734436,-0.13167958089274373,0.07012300180059278,-0.15204647782350403,-0.9571717162036137,0.21641885887199308,-0.3114647956842417,-0.6232788903664667,-0.07114302464269777,1.2602269015496097,0.6596477289185324,1.234375
0.7857632650535958,-1.611712475300585,-0.21798392348573287,0.6558464600848403,0.02401135046918059,-0.19709741683997192,-0.05804328189738535,0.03120141206725221,0.1191498617194993,-1.6619079668404275,0.11844109385186846,-0.12682433615442393,-0.46206677559432136,2.601613680812154,1.2421875
0.19244816457875427,-0.831274012457419,0.04396144490707889,0.20730355750160134,0.15365600944436802,-0.27430637728481405,0.08533756765160752,0.6689065606033461,-0.09080616516822622,-1.4466799854249217,0.7643856701381851,-0.09680779729548224,-1.7638020182935688,2.388050933395411,1.25
-0.38810835325317167,0.884057753995495,0.19991130633889242,-0.38110442401696054,-0.050634137890026826,-0.11797312750325852,-0.039185021926635144,0.02822916103826258,0.0865775036596835,-0.66811726898294,-0.03660677124485699,0.18945235503882285,0.1842952116157065,0.109073164409652,1.2578125
-0.07100977990451368,0.7653598251369165,-0.01892447471977651,-0.158677794167357,-0.2967840745047434,0.022044784160662745,-0.2595673161832946,-0.2588828099002447,0.42998617992570826,-0.6446335817031253,-1.2191332572199938,0.3846145331199102,2.6926441145466176,-1.3667507691987861,1.265625
0.5311806700262881,-1.1076878488066801,-0.28853420473509955,0.5332390308691579,-0.17589644517861439,-0.034551784843537485,-0.19413551585620314,1.2541983233210112,0.36204014728202677,-1.0331626302061703,-0.9736246988077579,0.2523555183642933,1.8655432502727196,-0.9894756108987495,1.2734375
0.22357516814250747,-1.3097717414944186,-0.12018560744940959,0.40702386572766397,0.1291092176631571,-0.12228229053269325,0.08809015975928969,2.177402177399282,-0.07620458259802362,-0.5643945955396316,0.32573633662205737,0.01583995341106301,-0.9580731114499393,-0.21453197649494318,1.28125
-0.6566897502064821,0.8996384388909138,0.3044243012471394,-0.5182760311352788,0.20521510095368714,-0.03566181661450319,0.22101461944531758,0.17250001832643216,-0.3585249103959806,0.7364746406949908,0.998409520392358,-0.1149732744951002,-2.0109390187937524,0.15662758264766813,1.2890625
-0.7166468390877834,1.8512240902530939,0.33041989433867014,-0.7611061286807741,0.07786731279807788,0.14301977107847538,0.13328068417924754,-1.9451889997024974,-0.29026139452742417,1.5735358397224661,0.5902325898308111,-0.18039833595208607,-0.9236149067912215,0.11556953551509429,1.296875
0.1842936067987816,-0.23424628816684673,-0.14453372667382092,0.15697520501303094,0.028336175810980264,0.24488665284898484,0.05036575722255878,-0.7633349378241662,-0.14028027714126534,1.5488519406762882,-0.03545672174583806,-0.22607645653547706,0.08968866235013384,-0.7600516280242567,1.3046875
0.6937955828710407,-1.966856557591148,-0.4255432188374462,0.80678386048311,0.09275883780298685,0.21685276355014277,0.07628366881743574,1.2528170296599863,-0.13108864980831542,1.2359910117916086,-0.09911920866478369,-0.2270589879977615,-0.08621242376145341,-1.4382288073085292,1.3125
0.08275088174331995,-0.4446324810011571,-0.04066650736858132,0.1338217895884857,0.09617241638495717,0.015437512604831123,0.08459667232017884,0.3370120294107463,-0.13680529138449032,0.3191282621554284,0.3304367303367596,-0.12197837567297376,-0.7705754196497343,0.11515231326112205,1.3203125
-0.7562619148832419,2.0752315562175245,0.496854279269495,-0.8822455730396516,-0.04934487169119235,-0.28005488742117907,-0.043150977200290964,-1.4350493728241707,0.07958965963005585,-1.4775486424975788,0.3726390886395795,0.18508146435429784,-0.4724118726554583,2.184064891390105,1.328125
-0.803118154802662,2.2765819868198296,0.45942591108442415,-0.9019299091996139,-0.24465507295982608,-0.3274144745991394,-0.22132602429096385,-0.5490767789345453,0.41144953241977444,-2.3057882834325323,-0.5106604682887955,0.554033078351686,1.3834146422658684,0.7775266380545046,1.3359375
-0.2635714725806459,0.7920667089244974,0.013772082128846166,-0.22113580211229691,-0.2911347305118763,-0.012889138842150353,-0.24510384053963508,0.949629973582094,0.4442198003499717,-0.7479581122454675,-1.2823918970684902,0.5370893954170468,2.7746582330780765,-2.445110311587102,1.34375
0.2118666727194255,-0.2567910173411599,-0.19818873879133475,0.20811826706077807,-0.10423494778733877,0.2094411648935521,-0.07449950870925436,-0.022848595490922555,0.09538325388546579,0.924948190042806,-0.6614625831533606,0.02575940608961076,1.3778123952248025,-1.732381503059325,1.3515625
0.575630601554566,-1.0645239652179916,-0.16777849269418588,0.4412029960505196,0.13611677843754566,0.049954250916740627,0.09161402607138493,-1.2073802718584694,-0.19880285788832847,0.36884390269177425,0.5708627940306823,-0.42804721088556746,-1.2874967428889577,2.120256583902995,1.359375
0.8173210962273748,-2.0167177108625474,-0.25862646597746536,0.7585859855562025,0.2012928394855138,-0.07238061613075808,0.11874569794402061,0.026519619994377186,-0.1973996129851944,-0.3817130542653612,0.7466134247899021,-0.41439093307312974,-1.839855785599854,2.51207227235678,1.3671875
0.47646321600935876,-1.519088530061602,-0.29134464899640883,0.588903964942443,0.11775404815069292,0.1414368075081136,0.10040951791193077,1.099013577262941,-0.16377440918937533,0.9497361713348462,0.13459100704217788,-0.20516847892062193,-0.5213887377129297,-0.9051833417614572,1.375
-0.30996422034446003,0.5827049470511402,0.027975491767385334,-0.22553672546541761,0.041815536308545856,0.24505390724446444,0.09470473255820351,-0.23464719888992963,-0.1968206938267057,1.874785871938177,0.04900148146225836,-0.09488287385506883,-0.01081882594182902,-1.8417283523967933,1.3828125
-0.5071256463238185,1.3443328839481652,0.2808110797084455,-0.5616215775032284,0.0029854359703644366,-0.050051040229641915,0.024652427995697734,-1.0970632967609015,-0.05969012837035726,-0.0004435341661581157,0.2966797471223669,0.017792076715053763,-0.4094901459738147,0.7152745677705507,1.390625
0.06590921441964187,-0.2352595176514284,0.05739317793305928,0.04744957060179852,-0.011210154467468626,-0.24237930218535184,-0.05037494545943587,0.5273903975300094,0.1314905579359954,-1.619515698001965,0.08633624967258727,0.12873551640400926,-0.24205342841823885,1.351216965499444,1.3984375
0.21171258431512116,-0.9900682702295773,-0.157254949259486,0.35311347311679436,0.03262460339814916,-0.019147671685814306,0.01705571075801894,1.719318719394273,0.01775801229278463,-0.16112420287772394,-0.10922543200698559,0.07337072805515722,0.029992038099754474,-1.0196863497992759,1.40625
-0.39899444492912167,0.48774286239011827,0.08569402355945979,-0.2498621716058402,0.06648896466849777,0.1158227083101931,0.10440162118333159,0.6072863390655511,-0.1724479152487597,1.1651708336152875,0.17557760821209978,0.008790262705762069,-0.33402749818230976,-1.6604278171999451,1.4140625
-0.4252682390448585,1.0387959825067803,0.25578952061320326,-0.4550102256392641,-0.018046711575316968,-0.14425491379085947,-0.012568077617828253,-0.43087195419248925,0.033253001451810676,-0.7165273933641291,0.18956416108250887,0.12047630384571308,-0.25665393210960646,0.821202474966163,1.421875
0.5452514913919632,-0.7471531636723929,-0.090135693628437,0.3553346518475496,-0.12968003114506785,-0.2924525294347319,-0.1966154988522008,-0.24064883952070973,0.36130504589097456,-2.5575769518491556,-0.3612688790014594,0.1370936828861323,0.6721033261821472,2.5430384783491573,1.4296875
0.856622427229665,-1.325590609768898,-0.3270014119528739,0.6662599746846349,-0.11931342430285242,-0.005138660360750465,-0.16319070458531929,-0.6138409285850375,0.2532994152503039,-0.8753296301198964,-0.5841700200464851,-0.06949099922993392,1.0978733427610616,1.209850928563488,1.4375
-0.32537213372552587,1.0761303571056182,0.0679126830495853,-0.3566838815213216,-0.05088036968739431,0.2495925889378998,0.010851245048010385,-1.2287763384539483,-0.08169291666200147,1.6514509476484827,-0.21300008577308496,-0.05761768648388185,0.6501216216327915,-1.3885608542802836,1.4453125
-1.1838689702294558,2.3649392061930112,0.40232053268869244,-1.006929905425746,-0.01405104465059753,0.13299179884882695,0.08281144357350084,0.10478108843666263,-0.1448249292438137,1.513130660742097,0.0397841811713374,0.2283218752596603,0.21350661955569458,-2.729972345105019,1.453125
-0.09057890575034791,-0.4966033608888272,-0.05719864454022416,0.12051795430079713,0.06731835923866356,0.019486242783831636,0.07350328755454838,1.8846989170852357,-0.07601174030378471,0.35836829420960864,0.04010907685177128,0.09092830269635888,-0.23056504479267462,-1.7030992203550712,1.4609375
1.5126831167350372,-3.581309942411551,-0.6907693480240031,1.4849957953339699,0.16786414211686776,0.17751837435842552,0.0849392938728852,0.6655829021628608,-0.16320565811379809,0.7086209777643274,0.16835326072198234,-0.5373566046098541,-0.8300374443331464,0.8321389073243132,1.46875
1.1243332970580102,-1.8561383708826826,-0.4357250988500241,0.8759179984013827,0.0877763033989792,0.23027286704383082,0.03959076931166369,-2.068429108014029,-0.16296742973440723,1.0697043121055843,0.2131888420654826,-0.6129688902774776,-0.5830192462386193,2.0780448418850566,1.4765625
-0.961774979370398,2.76314364596905,0.4939708583492011,-1.081962768850284,-0.15023041382779004,-0.0953937749376733,-0.09316553847324999,-1.8169797054907753,0.13069384331114306,-0.44547652373430385,-0.12566819213126626,0.2684975318527753,0.6938447912207332,0.4186375118380963,1.484375
-2.0128636375262876,4.334008766491424,0.9051999462186545,-1.858381324398821,-0.26085233199199337,-0.4147059161822621,-0.1701190167526395,0.9047665349339716,0.3858455814202414,-2.1955341587493353,-0.4545882619195032,0.9851181620793913,1.4546894142594222,-1.6053165668442213,1.4921875
-0.953921731561762,1.8171588754153598,0.43298406048395977,-0.8212949033632854,-0.14765286339487518,-0.32352752841417604,-0.11961550028265212,1.4465540763538831,0.2932678468219565,-1.9294001778677308,-0.3353318379154217,0.6327244357133703,0.863537220628253,-0.8568604014461362,1.5
0.28773976881333846,-0.4534252770197337,-0.07293091992119115,0.20031156287656765,0.035473955265237465,-0.0049067981731373955,0.011823737454958502,-0.6550732889430781,-0.03913256319498853,-0.09825845279086327,0.18157492734388767,-0.1650267979156266,-0.4119777165499315,1.184096684062141,1.5078125
0.34429418595126615,-0.7534156063312661,-0.12027554165769587,0.28607765666561974,0.20758226987841086,0.1670564928930414,0.1886386058373152,-1.1849434555335492,-0.37625710323154987,1.459733436777816,0.8093554744301418,-0.5136336606872823,-1.7499388076348912,1.2357630155520665,1.515625
0.5466128063079507,-1.9936264044655527,-0.276280746784996,0.6885539083057972,0.32316080335577874,0.14027082409964167,0.2804055945468058,0.9375385586670846,-0.47312728811898996,1.4812170827960371,1.0053953080204168,-0.5111990944738707,-2.41812517271877,0.2687670246027883,1.5234375
1.6615554377174773,-4.399980666370205,-0.7446999767156204,1.7331388627576558,0.23488722284019478,0.03828120206036924,0.11754989900583246,2.0786388100204114,-0.16307804573847232,-0.0891565420775598,0.3612780032079099,-0.4849752670248387,-1.4118570633492609,1.0695782653853851,1.53125
1.6322877739972905,-3.415984551780237,-0.6657722862591814,1.4834551665922313,-0.03760717952930102,-0.052267619042891955,-0.1428629942495814,0.6846026615152455,0.25292653690513917,-1.4093538820125644,-0.5174566226729372,-0.20652985519669467,0.6333087979823697,1.763927299341782,1.5390625
-0.5114330816746961,1.610587049224247,0.19789744550835678,-0.5641724352559077,-0.21836940364866256,-0.0010147547397829622,-0.16559730133353745,-0.5980621244472044,0.26899251027643545,-0.31092082048387093,-0.7399184428512051,0.34659020456320977,1.7981377879513207,-1.1117475207641696,1.546875
-1.8729550312297198,4.200803441926161,0.6350498675643147,-1.6857558734252074,-0.1837457972015401,0.21174866336791537,-0.015486386249297109,-0.38820434768292933,0.0036469241344350345,1.9538212922120535,-0.5450691526318014,0.5287033030149548,1.7109023794729905,-4.555324113317729,1.5546875
-0.46819011732654214,1.134402233230608,0.06654569079502358,-0.3979593372648865,-0.07231106305154933,0.2641054023823672,0.004694995372525551,-0.3198931205515074,-0.0480118963779436,1.7693706792950141,-0.4052083784312532,0.07754466080738406,1.0268509461016095,-2.633489104793142,1.5625
0.9236252073814727,-1.74534940059441,-0.29177917148449867,0.7467404247199513,0.05594717697114741,-0.06305396909986419,-0.018876974869071438,-0.7197056577022988,0.013546637906435665,-0.7888561957474893,0.20356449550084538,-0.3103475055610954,-0.6217278624832512,2.617377892712684,1.5703125
-0.2099539689406781,0.19673084448270806,0.2944180547360316,-0.24406640181455283,0.18349769057743515,-0.3592352306415441,0.12246919033084992,-0.20619778594136795,-0.1617581935142982,-1.6622272403338605,1.1551065896872645,-0.10494766876951876,-2.428377554752825,3.426201542157709,1.578125
-1.3600168737945646,2.481809472664598,0.6105134861157977,-1.178573898542442,0.09972094774435522,-0.1460341571415414,0.15354145413642958,0.33109287498559337,-0.21902089603971026,0.14606452623572413,0.7693138228266562,0.2231548023485305,-1.3375528158471097,-0.5745983462813482,1.5859375
0.14783782208356402,0.371818972414903,-0.17471304616524486,0.04482791518888489,-0.23623779489287747,0.260923654377621,-0.1833298364260226,-0.9294257791370689,0.24869718380060904,0.9297567621166836,-1.1314729414208586,0.11837118653736417,2.4987824910847976,-1.9678096255117865,1.59375
1.8330059553007703,-2.3838005686189403,-0.7827425492603325,1.3651336195661405,-0.3911518654276497,0.19814588041893308,-0.44096132643139263,-2.113675734261209,0.6467448874667715,-0.8945675186813545,-1.9012436681982137,-0.1054232965366224,3.833643305887048,1.1362257049451345,1.6015625
0.5542622964839707,-0.851939951092235,-0.10039450223107654,0.3816354466836651,-0.08439846882143424,-0.26047087145949444,-0.1514975653224261,-0.2437104805930186,0.28041898278758043,-2.230095272438895,-0.2003014653738518,0.06366148879067046,0.31846405892220125,2.5253980315196674,1.609375
-1.6936613412473285,2.13433191839615,0.7847626508921202,-1.260743710540853,0.282530330893229,-0.4354268447705769,0.2995176104397145,2.8134545843563954,-0.35765646537711815,-1.0132158397924556,1.5377770473098367,0.36431943291780916,-3.1340078752340803,-0.320971575514606,1.6171875
-1.3866793293167392,1.538807135315907,0.5002318675684784,-0.919828136045087,0.24637057154109895,-0.10125731423895488,0.29941529021826424,2.79594439592455,-0.4060734974339936,0.8485205326936749,1.0327780153875532,0.23797547776122197,-2.1245477213091837,-2.561293436971944,1.625
0.6011718345362095,-1.1769966605613755,-0.36900617345981995,0.5826090911695337,-0.02784378118850648,0.27460257942604627,-0.020246666231002405,-0.07975341894593599,-0.010370786859649561,1.333621514467291,-0.46689358180679297,-0.18429069981173965,0.8563163518954252,-1.3124241117597415,1.6328125
1.1654608671746265,-1.615655899021547,-0.52357315001796,0.8877973681559691,-0.12014221540584503,0.28819848889132227,-0.14056493030839656,-1.8996037729070003,0.13800171938341652,0.8365535601430564,-0.741415726139654,-0.3443461562907333,1.4657039046118296,0.6036858069779881,1.640625
0.17968202050501833,-0.10568428037553866,-0.04344942510943371,0.07910119379281233,0.02714541042455326,0.06774588584713431,0.021524572059718607,-1.0921079624962693,-0.07605570376565164,0.41057597867951023,0.15983658908929044,-0.19484807350533018,-0.298518044450854,0.8632286939254562,1.6484375
-0.3562876488458038,0.28465237777818814,0.17324205875575813,-0.24235576000912296,0.17207280495676455,-0.049582018180053575,0.17068650702101912,0.4134833204527347,-0.26772615548325657,0.37489960902392977,0.7821260299214603,-0.10584150741709111,-1.640603288766639,0.2887529969015634,1.65625
-0.07013017364860086,-0.268345109039088,0.010831417278230518,0.032295311831309674,0.1201573643268599,0.011377003174282257,0.11589556646336036,0.6386148395775562,-0.1798527266009395,0.45318657400163737,0.4250316359866331,-0.09429040887416408,-0.9629416392283142,-0.2313931590182764,1.6640625
0.04899534097810594,0.14169504239791195,-0.03965308701744043,0.00352370931998952,-0.08177645780098049,0.050107222002082986,-0.06941209055068524,-0.3221056013499066,0.10189180749443577,0.06756302781430192,-0.3566258516679802,0.05465767325671622,0.7883804307812016,-0.38388997006823994,1.671875
-0.07600604685307183,0.6464953765155028,0.06455300069299129,-0.18531855168669242,-0.14292532860587767,-0.040897692410537194,-0.13164972922731416,-0.7599808088794332,0.20908234395908745,-0.6161159743396488,-0.45166605577938423,0.15332721855967854,1.0704105059984632,0.2624826595913523,1.6796875
0.05924433832623079,-0.3822270597755928,0.020358247605965496,0.08720973573260025,0.0907100955996893,-0.10088193557793425,0.06323982457454831,0.37093468569779076,-0.08367067391081714,-0.4315901005024834,0.41079101216816355,-0.06857796443709778,-0.9382452839366606,0.9010076411417688,1.6875
0.2684031957513009,-1.4249162763405323,-0.1297168041075788,0.43307219748948134,0.260151671145031,-0.00649624513229363,0.21934943030894313,1.379816257986104,-0.33571482846443323,0.5224958605255396,0.8680243291646056,-0.2805825413401112,-2.080421720647086,0.30474356262806146,1.6953125
0.28428483890180356,-0.5946206950241723,-0.1632494019895162,0.28068368697217205,-0.01547251937770757,0.0873979821311915,-0.017864176034073757,0.135528347717382,0.019587228946224642,0.3494541908556513,-0.21514806648238424,-0.05453174767752594,0.3781662513876326,-0.4737677343751252,1.703125
0.38522533603277,0.4421191300359585,-0.14645109984234173,0.08560271139001085,-0.3908523136398629,0.02824552439419297,-0.37513557363365324,-1.704428019581357,0.5821709742576449,-1.1315548382695513,-1.521277397616254,0.28525696296592035,3.358160211298059,0.1034485282527228,1.7109375
0.4475085501761775,-0.10639661201063488,-0.14614266048009397,0.21976148820185717,-0.2806220727500524,-0.07303131425789908,-0.29376184515905546,-0.9144689966787662,0.4785896669650195,-1.5095970109088628,-1.0826900892757139,0.2280761625432377,2.322021578162102,0.7098006115426493,1.71875
-0.16730153347950125,-0.24493580440727927,0.0551418529144697,-0.013197307352010855,0.11161068715777293,-0.07951515410980618,0.10171883635714148,1.3183828262088164,-0.12483128776510684,-0.09884277551054575,0.4014738588548333,0.028551008399376604,-0.941795236287356,-0.3471431066489107,1.7265625
-1.1237130486432405,1.6458675769334592,0.43542349350062337,-0.852881128996105,0.1523653827617804,-0.045597250920108905,0.20345422869048213,1.1780759701006769,-0.29671805419801006,0.7952417721408785,0.7464279823505406,0.14685089386718267,-1.4289445649072914,-1.5553375955503224,1.734375
-1.1919833122491206,2.86841227742708,0.5202533258343498,-1.1727274228558664,-0.11081803884365737,-0.04128757973238572,-0.03283617900326295,-0.865294112773917,0.04883882340997288,0.1337201920117416,-0.08584120827806276,0.33065796844728645,0.5802977861145845,-0.9810286860401105,1.7421875
-0.33005073876288504,1.2763432006535296,0.18603078891419672,-0.44690466131160006,-0.14790926113140127,-0.04662968659328909,-0.12176665902216008,-1.1266927504542557,0.18547234747425537,-0.5101459712575056,-0.3709022982417647,0.18131929009363026,0.9957344550473842,0.27626070625511323,1.75
0.18962282307077383,-0.6468709554558495,-0.05921920541941242,0.21675482684086542,0.07365672096255538,-0.05842586148091011,0.04654520997196565,0.4698708587852665,-0.05981213530104586,-0.2783890568825046,0.2629279726725339,-0.07701592534365537,-0.6623446543297175,0.583890887542277,1.7578125
0.10143129042290709,-0.8116086110124857,-0.02872338750752966,0.2091411177920209,0.20207887760166038,-0.0394764951595269,0.17127920322235798,0.814834189541471,-0.2633947448759762,0.2502206507225693,0.7584668434141687,-0.20744522337318366,-1.7479398421796792,0.5924158045515324,1.765625
0.42299549631424216,-1.0835623800533662,-0.16346082438044007,0.4037717698457147,0.19720354600861603,0.11766963360258346,0.1681394349915164,-0.5248747749966273,-0.3177921790377162,1.0575414479856837,0.7096179615174248,-0.4401167072911177,-1.6110453709680304,1.0633913451563073,1.7734375
1.1452427190934755,-2.304589134218323,-0.522494784028858,1.0185015722999184,0.16913028752777104,0.338773712042535,0.1302042894311595,-1.2574525698238692,-0.3094874556041235,1.9752752517072627,0.349875619644612,-0.6902913630427325,-0.9605450824711478,0.9165083579784544,1.78125
1.0559371559202557,-2.056869516783164,-0.543624534618089,0.9662116790701307,0.02273157334440861,0.330300307590504,0.004289805689523831,-0.5476140590095528,-0.07580314458387201,1.564544074017066,-0.3321938515033721,-0.4071436686507717,0.48264060490879435,-0.4633600409546124,1.7890625
0.07252501540593666,-0.0043666524157460794,-0.102788118795493,0.08602156892682838,-0.19379723295384252,0.007406356801673387,-0.17603487706281593,0.7450396283024214,0.31599268034982647,-0.5365813392496545,-0.931265654097757,0.31136925371826796,1.9396099150296617,-1.5321863611774154,1.796875
-0.6061482622205266,1.0396084700963417,0.26704264086974894,-0.47809906265609287,-0.1842169819405433,-0.3322983332869207,-0.174770749080203,1.9503725083297574,0.3980721573340511,-2.295949620746699,-0.6134749941704604,0.6589572233698185,1.331250968612436,-0.9604745528157947,1.8046875
-0.622616916753745,0.618974758492045,0.3314563993047984,-0.4323168539831403,0.028717248969158247,-0.40414744830352367,0.007320565569870578,2.184540059960621,0.10636336973835388,-2.1540701736315944,0.3173064611206964,0.41927281447435005,-0.7073407591802277,0.3053116641640947,1.8125
-0.5378767110892214,0.7786565072165885,0.30360116671881604,-0.44914395541203245,0.09113161938906406,-0.21984101640835008,0.08322943861462552,0.5766692017434382,-0.09057558591407201,-0.8379312874492091,0.6068840830014157,0.11177962274008986,-1.2222472250188525,0.804459715785922,1.8203125
-0.2909767258588115,1.1217125349630832,0.1693831709630595,-0.40810464359605586,-0.029304609292224698,0.05533957230193353,-0.0029758235609984693,-1.66347522112276,-0.044144602977053936,0.4574581082077548,0.09876758353368657,-0.06882846055376822,0.009511050497578928,0.5946076102213381,1.828125
0.26609776533246077,0.18108808645092797,-0.12836981171008918,0.0765089899068705,-0.06968857990803197,0.2528409546104638,-0.044790949618413956,-2.131517275342382,-0.017756658686610343,1.2835107722489616,-0.2928648505048696,-0.23630174690261557,0.7508588542271571,0.10972372757398363,1.8359375
0.271759340386787,-0.31699984260265307,-0.18994407818974135,0.2220258647975869,-0.0256741408672836,0.2462147613706555,-0.00350460652917638,-0.7477829970546288,-0.04974583047780454,1.3506619886359255,-0.28168116686332817,-0.17022604242391728,0.6014237584303939,-0.9056769317664835,1.84375
-0.6260437958629697,1.1930779832256597,0.20046167383386282,-0.5110745843581497,-0.02182023913480074,0.0604208530472538,0.030055578220098432,0.3464223018936837,-0.04401746648090575,0.6938489632072494,-0.06837269009652104,0.16934300005484346,0.28126696134108625,-1.701157114102364,1.8515625
-0.9679094655289976,1.857215836310807,0.4352827010801966,-0.8559900903318806,0.028270051866585804,-0.11648033363637009,0.06891692642999105,0.20510043797054966,-0.08651764223403435,-0.09496239511973434,0.38271540063466636,0.21793272890422852,-0.5919943899300245,-0.4794831811792664,1.859375
0.32539019107792,-0.7231110201062703,-0.039734693107683475,0.2520243750445413,0.10094160038904615,-0.11662473892873444,0.05177989642823651,-0.35134104469215766,-0.0838516838265169,-0.6518555906371083,0.5086537860958256,-0.19664910551274398,-1.157330015549754,2.0821567309711684,1.8671875
1.8284443005348276,-3.3942483597260864,-0.7162458086033201,1.5406124788125704,-0.03342093715036008,0.05035818902248739,-0.13876149492904688,-0.8187728889872031,0.19016556972031246,-0.845169729774799,-0.4346534722010782,-0.4223001308844983,0.5342337862969974,2.658963108627696,1.875
1.509207383796071,-2.3644435928862078,-0.6763286562907203,1.2267129944487902,-0.2325365023095481,0.17776428078046896,-0.27844266567616244,-0.9440121069248683,0.40875449448922374,-0.39923101252965304,-1.3051302812669876,-0.14126105809508357,2.5193968452688855,0.4979833033778319,1.8828125
-0.32503929895998424,0.761401531775604,0.0843627234333472,-0.2812898753544811,-0.09195753452923189,0.04172582900490146,-0.055271904582551254,0.19364597294265376,0.09608613993051646,0.2012102423055818,-0.3849322414313653,0.19419921585980177,0.9059372443722962,-1.342026108084329,1.890625
-1.4868957813173176,1.9641116972639379,0.6231702776606105,-1.0968305044962308,0.2124834079876459,-0.2383039448387509,0.2529600950573033,2.3054006987999345,-0.3210233511905045,-0.06266680778341055,1.0942668881232878,0.30546316227434905,-2.1840579232971438,-1.3687189906649893,1.8984375
-0.7824193032788713,0.4793404542842098,0.3070936783136556,-0.4388575699753633,0.16992042057821724,-0.23057602866117533,0.17266166197443944,2.793360948277425,-0.1795102119814659,-0.549476566033468,0.7086227750543187,0.2595168328957031,-1.576237204802571,-1.1316079979509388,1.90625
0.5664207658380759,-1.177761737327347,-0.31368322225989576,0.5545497524207333,-0.05649488837442089,0.12191023069142981,-0.06647545248355197,0.4252645389914617,0.10229380718460172,0.29092924383236063,-0.5106211109866398,-0.04235765003878278,0.9189846549694614,-0.8108801739667231,1.9140625
0.6067659969834871,-0.7205858492295294,-0.26706500970017955,0.42218823480983597,0.01396448868846886,0.2684845524394106,0.01191475658761967,-1.9285996578191773,-0.11318285918618225,1.4152804283122116,-0.04846550957721547,-0.40652582645118757,0.10926127047945436,0.6359755931323855,1.921875
-0.6183553529878504,1.3683023557447616,0.36752623275646945,-0.6471596758442386,0.15878513639578393,-0.050105301951162785,0.17112778695912276,-1.3878914405271423,-0.3140284132541046,0.4983648508909156,1.0099756642415154,-0.19593623716999523,-1.9070411404075167,1.5445152127052073,1.9296875
-1.151947755039738,2.279238910443456,0.570079184237222,-1.052394940723563,-0.017454062818442286,-0.2855740945336907,0.013604313855895616,0.39767356434353746,0.0367257436319168,-1.2003183375813344,0.3516259891302148,0.39064440116010934,-0.4868102450424492,0.15526598073537462,1.9375
-0.23591369399855175,0.6625800354292265,0.07056988538969246,-0.22576708683840369,-0.15037320936778012,-0.0386244326889148,-0.12546542049397666,0.3268423491699376,0.22856787615864332,-0.5314134538009089,-0.5938571442159138,0.2935041775518526,1.3257397780616829,-1.0039963179746343,1.9453125
0.5616773665271856,-1.057097382907361,-0.27055808181328056,0.48788063823645644,0.08266023108100003,0.22758018160285043,0.07260613125404355,-0.8935115342545937,-0.1821689410973785,1.363014836511928,0.15174959299607985,-0.38344529209150396,-0.4053251412356376,0.24570969409114068,1.953125
0.25069425663130895,-0.6114404959773602,-0.08760736739562715,0.22550962813732103,0.139088607128106,0.08485763730313682,0.1215005849074656,-0.5620696755258054,-0.23405669666109838,0.7892480951323735,0.5328820987544329,-0.31858478110101324,-1.1761607549301871,0.8441369036936868,1.9609375
-0.0038153495201641912,0.2451819345161958,-0.041889202570179904,-0.01086248910004997,-0.2609693786333137,-0.09882243747459364,-0.24780578708757528,0.8782765334719741,0.45606412047571526,-1.363900458547093,-1.120822963423607,0.46464327252011606,2.365371659610121,-1.2630614746596704,1.96875
0.5091502363859287,-0.5401739164261989,-0.3244236985849401,0.4296813581605183,-0.38354222092061735,0.03876143811737608,-0.3693373759659747,0.738070175860636,0.6346945820054922,-1.1258211052096938,-1.839146518020387,0.4664506362368737,3.799938129286121,-2.035539116275658,1.9765625
0.6691844732148176,-1.3001642032709269,-0.2815440537887872,0.5726316506503412,0.10645047104370038,0.1701510276068694,0.07825368024987929,-0.9180571712377666,-0.18568238182740787,1.0021375080818047,0.2843665886517204,-0.42090055752844874,-0.718171324785694,0.9409498523930324,1.984375
0.06967641732718886,-0.5243774092561817,0.10163256657829502,0.05144850969816449,0.400201830694957,0.0018449712378147333,0.35354739907965915,-1.207575650924265,-0.6308232268758598,1.0987985127668702,1.820584003536822,-0.6645273267215489,-3.871041215781018,3.0013458350152087,1.9921875
-0.05455719012123684,-0.18330751875066628,0.08093021568895714,-0.01007445642957521,0.0728870779198897,-0.16601627118930604,0.04480643355370599,0.6279977608706115,-0.03581658306577411,-0.8308028196991226,0.3821196792105571,0.02412658353678445,-0.8686980101111701,0.9188959450888092,2.0
0.4730155226288313,-1.1245163634675115,-0.26943985660476855,0.5180056907875881,-0.18677355818807576,-0.0901731074415075,-0.2076779760807108,1.8065389172503428,0.40757793477672943,-1.3866250738774253,-1.029836878727927,0.3473291577777466,1.9561068706567324,-1.210772196887648,2.0078125
0.24566199664605723,-0.6165228481047608,-0.12473584589196819,0.2597936657073446,-0.010903704363493086,0.0007830670953675851,-0.023891038264146847,0.4802669387002589,0.050930119984941326,-0.16807042223914015,-0.15639203708164096,0.006959971958480575,0.23347557147833967,-0.1767929728265582,2.015625
-0.7872142899420033,1.8662963610979253,0.4078518203865861,-0.8133066684205711,0.0705142575419809,-0.025594536943319337,0.10615222568759468,-1.3885311281704393,-0.2060764501535064,0.5075427113417789,0.6509110163952581,-0.05009335818533625,-1.0810386722691117,0.7408878044789378,2.0234375
-0.9606758674265975,2.562936361679123,0.41431041078757336,-1.0001730287750217,-0.12818361287848226,0.03203517715789852,-0.052748163218070146,-1.34828285539168,0.057598537332963544,0.41900815971212274,-0.20587668275161014,0.23850063106783062,0.8226609636584805,-0.8530057843042531,2.03125
-0.0024076051316039783,0.28891318582067915,-0.09993409578715842,-0.009992280502115057,-0.14710522647044008,0.17636454438322835,-0.10499352233591724,-0.13198319786180823,0.1503589536912408,0.7199542258870005,-0.7565080305966482,0.1286009343501866,1.6534230409566133,-1.865660430070612,2.0390625
0.43207863742981006,-1.1186799566910912,-0.23706743552467383,0.46260414445895387,0.06741544976756778,0.12495081388647442,0.05388473575714302,0.3571225550533865,-0.10222387315636224,0.7358073663231693,0.041906018032463695,-0.18954199520964196,-0.240539787068093,-0.38796034195034107,2.046875
-0.2715495558543971,0.19602323309814496,0.17080277056539958,-0.1958216100174892,0.1307367779127304,-0.13273772810172652,0.11538607103855587,0.44400843555803593,-0.16270203348573872,-0.3223653238288553,0.6612603010038369,-0.03717378602424839,-1.4022785532989208,0.8072653789252152,2.0546875
-0.7464075927541225,1.1113972731771868,0.37941339184567424,-0.6037310318624183,0.0590081904198589,-0.2720647508093983,0.06051620835344972,1.1133293945639453,-0.028891913723529554,-1.140994669542513,0.4893141912558518,0.2638728403250281,-0.9590752808430164,0.2766644417722483,2.0625
-0.12440111917607115,-0.2423000201103698,0.07291979352269734,-0.00692534514331019,0.07924346452216274,-0.15704866029102243,0.05771561633603173,1.2696708384608457,-0.04115173021459163,-0.715870359072606,0.3315764777581513,0.0845997427408875,-0.7976541137918806,0.19178700700008022,2.0703125
0.5756150845284342,-1.2466515568071488,-0.23064749567586654,0.5239529215652549,0.05479979795419677,0.029248700568471384,0.017650747461252426,-0.06229624615062789,-0.040500481977898656,0.0047726244392123284,0.100245989720283,-0.20804125770423176,-0.3647604659480056,0.8460967883381633,2.078125
0.23370209710591,0.012381785744857703,-0.1191235655741932,0.1111342423854206,-0.10179915023294543,0.13376639550235053,-0.08776009210008438,-1.078022132593456,0.09948402783202023,0.44392005658089473,-0.45184934785948905,-0.05215362467832179,1.0155132828597844,-0.16207722445611808,2.0859375
-0.5250745689501943,1.3147922462693074,0.12699798484072214,-0.47772243519181345,-0.10737894913309164,0.16635291276049535,-0.038251688985497204,-0.28823731555450605,0.039163743200408725,1.0786810216986673,-0.4583993539972343,0.17196297788668455,1.1589699731133034,-2.1641856025500994,2.09375
-0.2559340649859493,0.24412652340771485,0.022920209412656933,-0.13381831176729583,0.07577836718993819,0.15692417878416454,0.10963873285344389,0.3629697252669838,-0.19454925578442855,1.3657393114493568,0.182312542560118,-0.06919189913313603,-0.3648893211205532,-1.5022409006714137,2.1015625
1.0330847707679789,-2.0295883698305492,-0.40279210927286435,0.8837927461547362,0.09214023212979479,0.10430621015654,0.032575434062366806,-0.818927632617787,-0.09986645898852785,0.31958556331999377,0.19889134980428907,-0.44594216799242475,-0.6359894433600277,1.769457573335573,2.109375
1.6617071596686113,-2.711928767755202,-0.5908437185967557,1.2889588279155701,-0.08456121514976739,-0.0040138650692546915,-0.18458077224586278,-1.6423823610084736,0.25454778447031473,-1.2333366765240903,-0.4634669361774781,-0.37510563981463657,0.7149506302987951,3.370443480764399,2.1171875
0.6167906842380444,-1.008044372695798,-0.17826904537480492,0.4699321769774002,-0.10787620295991862,-0.17933368419318513,-0.16355065454791692,-0.03434797095228654,0.294718393061879,-1.8123795312806341,-0.41025524869441626,0.074465241816286,0.7379074004484738,1.7002826307567303,2.125
-0.9534783093158685,1.4018423422422517,0.4465458569138835,-0.7464878204972777,0.029450068966221116,-0.32113201643611583,0.0406665261906427,1.7476978801267942,0.029844940096172567,-1.4193976891136408,0.367624640368956,0.41981461170466383,-0.6928548593955313,-0.3504867596459154,2.1328125
-1.3270942414107838,2.3423334692591147,0.5806616091544721,-1.1156378445866582,0.033656960840278,-0.21073458843586812,0.08347441631152522,1.033246052250857,-0.07333012513422651,-0.4739715252168439,0.45233361463345506,0.39029736773449286,-0.7176186761093521,-0.9983892611834949,2.140625
-0.4162372841220203,1.0913778860895726,0.10667191757849231,-0.394662075970452,-0.06080121761125997,0.1632915096654585,-0.004320142604012617,-0.5445369619393566,-0.02574064686084709,1.1318902641640738,-0.24906195427046948,0.06472073176202121,0.6963713975906278,-1.5587478390056664,2.1484375
0.4527232016692175,-0.8311617235596095,-0.36223400277114165,0.46211971778641314,-0.012146636906739255,0.42807570042269366,0.026163496430519437,-0.4006557126578289,-0.11698124887849527,2.4483982282318224,-0.4663461076829539,-0.2543786848025247,0.9177371273340693,-2.2887863319874477,2.15625
0.3755925862046367,-1.0449708266836018,-0.2780478125114775,0.4478224658871884,0.09362350617896913,0.28239024269758567,0.10511077043647554,0.25397798510150477,-0.21236127429179932,1.846434428484962,0.037619980925469004,-0.2743480859934898,-0.21269691937746793,-1.417092281465659,2.1640625
-0.22965026576340064,0.6467186426897602,0.15317069698941255,-0.27732899106723213,0.019745795362994985,-0.043348901739942276,0.02413795642491838,-0.734569040559569,-0.052083433952359384,-0.0853491162234894,0.26056516619292214,-0.03153614393821985,-0.4395233407213996,0.789423144817763,2.171875
-0.4053677758336285,1.6201769654708482,0.29992253376353295,-0.5986618445489827,-0.14353989120807073,-0.1569375597002907,-0.13156095400819387,-1.7600132751298112,0.20073647748915058,-1.1543321369174484,-0.15873261299728264,0.17026506697705768,0.6146443106148872,1.6013024444290398,2.1796875
-0.014124420387465446,0.3201261929568349,0.048605573055800266,-0.08679798486716825,-0.13297076720224835,-0.13053785990289,-0.1389477467830519,-0.09493020452520924,0.25040374431003054,-1.1933739220542547,-0.4285811867539496,0.21667830901047683,0.9493662597715687,0.43383050176711385,2.1875
0.07523843411892069,-0.9761082863973882,-0.03936544205660475,0.26904618057407065,0.03877235736382671,-0.25670364451864025,-0.0035034177017181493,2.687774050332711,0.11187278596023637,-1.5952140167887436,0.028333688249391496,0.25859164092002623,-0.3126867830217636,-0.28558181801934285,2.1953125
-0.4695092351093226,0.028682814513570767,0.2565036943233156,-0.2340347277477545,0.12681321329588585,-0.37237669196910117,0.0916628251595302,2.5064436038264537,-0.033304954606414416,-1.772062145199165,0.6298176283787191,0.2736585517163375,-1.4573558496977992,0.42457784767412216,2.203125
-0.5918515991767528,1.3174077449081356,0.3258783716397124,-0.5985346683537999,0.04960540422248279,-0.0988513829336086,0.06524298474425744,-0.6924571318899001,-0.10995629756782943,-0.14243259473576358,0.49994449597184193,0.024669350415876787,-0.8650480265245055,0.8141700232739392,2.2109375
0.33264012922140496,0.02688307518975655,-0.1676213198729278,0.13734459982522762,-0.001686165788274141,0.3486255961701041,0.026195714393902506,-2.5388163410185807,-0.16209499794981772,2.0508602739831745,-0.05278407707667909,-0.410393239240752,0.24386660609573688,0.16595782947297733,2.21875
1.0383851925129464,-2.136208725470568,-0.5290318785038173,0.9623278188504492,0.12981175457315136,0.3861569256937354,0.10961291847097009,-0.8573573683774286,-0.2697039106460126,2.234202910571403,0.112195617113191,-0.5941466487390298,-0.45333387532373587,-0.131532233721091,2.2265625
0.4304330012626895,-1.7907570686728043,-0.21983625667291326,0.5947174724683608,0.28523883164799074,0.06441703927850022,0.24262649201503764,1.3226603959462488,-0.3875678706817528,0.9523818846199145,0.8863695770277938,-0.3762636029177557,-2.161142976769724,0.15778006274942988,2.234375
-0.39186622171345104,0.20469953451326017,0.15794357046329188,-0.2230083921539486,0.17327493619249287,-0.04077587140248912,0.1764095161890406,0.9253271855242655,-0.2646838350425938,0.4515134774425186,0.7203521678033308,-0.056772875107407555,-1.5433339909371464,-0.28953104903544113,2.2421875
-0.1826928927923797,0.8743616978332179,0.03395971546292976,-0.24700799133072743,-0.1796071462886685,0.08619722649610188,-0.1380120652821614,-0.6351605996722983,0.20648385393348678,0.1635786538587104,-0.7132125950369527,0.19437737161635313,1.6543698850840765,-1.1171413270619568,2.25
0.26576115298004155,0.4160768500088391,-0.12078362724841935,0.0560868355923916,-0.4042344497856906,-0.04200591918664228,-0.3882144262558838,-0.6741987143788466,0.642181309826052,-1.5489236608402859,-1.625636364543815,0.444247143437306,3.5265877180384493,-0.5453663258060919,2.2578125
0.09472111091401147,0.3397837861374223,0.051119578522475256,-0.05033313025563045,-0.2873356555628048,-0.31115097373361617,-0.3120985106499085,0.15607312262330508,0.5736189909736835,-2.8488600519812457,-0.9708104456668631,0.4849669122574626,2.082118600587116,0.9972129236297199,2.265625
0.13445634582341898,-0.15744874748619908,0.01689547921016254,0.0642803356834966,-0.031096830200312734,-0.14953774476306886,-0.0596560250631872,-0.12000227338752745,0.11691952130558526,-1.120043031657835,-0.009344448898538799,0.05226077711295761,0.0016374612239014024,1.257293709069955,2.2734375
0.6641220196962636,-1.3361673877212596,-0.33308107495239186,0.6041081214149749,0.09713687501528949,0.26293637160165806,0.08484975106172754,-0.7504190251838887,-0.20492287204720844,1.5693475851839536,0.14326579725138996,-0.42272893377514037,-0.42719247815986006,0.048264837694509455,2.28125
0.3538514895212282,-0.8845234115729371,-0.22912727305092315,0.38279945432481544,0.08949403765924449,0.2322900534255137,0.09418448526248556,-0.08781504412945897,-0.19600583137907862,1.5297126680906665,0.11287792750431036,-0.278375640019772,-0.33934066424422255,-0.7766304082957851,2.2890625
-0.7717506166138898,1.2755204959292978,0.3265789917795708,-0.6252833075079192,0.04530333965805395,-0.10107557341538737,0.07538570853948262,0.7244638506192929,-0.08735516191177002,-0.06966825629300584,0.33576130333716964,0.1961695333730046,-0.5885848452630065,-0.7339649625897043,2.296875
-0.7987319600440029,1.59976009828281,0.33701502336375705,-0.7105136063184916,0.0014667802912714653,-0.04470844940056763,0.044876397976624946,0.043446437796316024,-0.061485071882566376,0.18888114449906562,0.19522413019831367,0.18064835983874786,-0.21428856411819602,-0.7638448167629547,2.3046875
0.22295392708897588,-0.36045133677813535,-0.16426165123222783,0.20562415220812813,0.01786772994118865,0.22469512023248547,0.03585251805299632,-0.5321405751794008,-0.10729196342306802,1.3620734794031775,-0.09816953083574338,-0.19253149229654623,0.19732127465243288,-0.8120027294688031,2.3125
-0.016441488972745548,-0.41167157323671066,-0.01767049996069112,0.09123612153993749,0.11821694378584265,0.01292060695272882,0.11131335787665905,0.7682074557330593,-0.16937936577026536,0.42228533181468847,0.38888815345717803,-0.09135693448702842,-0.9102720581419351,-0.2926712883726694,2.3203125
-1.451327074965236,2.2797626839327267,0.7171413530530623,-1.1973871238180114,0.12075163879609199,-0.430436173586134,0.13717843437979751,1.6562784275432032,-0.11648654987994454,-1.5687805909285233,0.9555157794617466,0.42696748710507937,-1.8296746566048707,0.3029586754252251,2.328125
-1.2895762279983156,2.903621517241557,0.6657639044993827,-1.2673268495486203,-0.10292242284676274,-0.3368578159438593,-0.06389071127280864,-0.2305842135460822,0.15931140189615675,-1.6833312329578574,0.1457337643593208,0.4945196759845476,0.05557627837721955,0.5484450320571402,2.3359375
0.8045793903701791,-0.5587644971504091,-0.3055751173276121,0.4730000942161393,-0.25773759641836574,0.0976240329097874,-0.2716618219212774,-2.0628735157196227,0.3845313977891149,-0.562072598412807,-1.0589147311107898,-0.03620905254227768,2.2723985710413412,1.0798805399681404,2.34375
1.8751215044586718,-3.63042626011471,-0.7944573892348794,1.641698074142379,-0.017450874224886028,0.14736780784362757,-0.11165473786286195,-0.4779493548793336,0.13988735391333484,-0.2101849884687035,-0.5066377301053799,-0.4547485208137791,0.6443036777979437,1.7549795115494524,2.3515625
0.7867032417303821,-2.7035210793958258,-0.32489760137328744,0.9354988707380734,0.3310072227042046,-0.04490418958481061,0.2454221446262198,1.752931536024035,-0.3691310997196825,0.16893813313316838,1.0500627090135934,-0.436795425301687,-2.6464347139646183,1.2538412112109605,2.359375
-0.2807306197093457,-0.09629492138411141,0.09290965221488003,-0.1095563862959331,0.2795473641314891,0.09095040067819127,0.28448511531028614,0.4620040120512134,-0.47882241675927,1.5373090705664363,1.087826352218179,-0.3084957023580583,-2.3340679045545527,-0.2297911419799685,2.3671875
-0.00508222792592328,0.6033479255744518,-0.05932477516088779,-0.11906189926245064,-0.034506396569277474,0.330047309592207,0.0163226747739162,-1.9570809346171065,-0.12458951610685821,2.0406557817186624,-0.1837987996005779,-0.23768368539949247,0.5669796233733829,-0.8371813754551238,2.375
0.40642947085799197,-0.3981832885836071,-0.20810437828395395,0.2892416301904471,-0.11114346426928494,0.14573748186176458,-0.10457206044076983,-0.7997606301748248,0.13226468180111167,0.39158826875145314,-0.5717795426693857,-0.05384372768141353,1.2032524982690007,-0.320165151121728,2.3828125
0.09189166337716359,-0.7479533489876962,-0.04762990508858904,0.22642928013048444,-0.010580415154529139,-0.20606200473362493,-0.042558037294442325,2.0877816680672265,0.15493145487624208,-1.415745126211751,-0.14937741452804285,0.2510732407100505,0.12103583695660286,-0.3130908273619137,2.390625
-0.23140704404655724,0.23479664614342893,0.06896346122413419,-0.12188878589072273,-0.12154660422944766,-0.17244210170322347,-0.1178718053670218,1.6348523868476583,0.2685447796600275,-1.3188957675403874,-0.523459789196267,0.41562399997348687,1.060302374056984,-1.0760179291008864,2.3984375
-0.15379646792512752,1.1828700722174894,0.019613843050721867,-0.2979473601490514,-0.2837355378643153,0.12107252298747823,-0.22947861096069733,-1.2543830226412447,0.33980303951480595,0.08020821738828093,-1.1066399820591317,0.2618253508945884,2.556750837395632,-1.235199976151507,2.40625
-0.24859420718666606,1.1967382545307819,0.07668415167265182,-0.3671028050024743,-0.11180143965094409,0.19844911842364327,-0.05790500983738472,-1.7649278523858694,0.026305839033511184,1.1191759674121602,-0.36926805301493004,-0.022373182706270346,1.0207023603609013,-0.6945558279452992,2.4140625
-0.7291360545602931,1.1734854359342002,0.30383972918007296,-0.5917007675711728,0.13257282966515896,0.0005710698385502824,0.16577506217523633,0.18242380732062374,-0.269070210008605,0.8082114922772733,0.6739232131306324,-0.012985840674626615,-1.2888904658228628,-0.5483980723562956,2.421875
-0.9913300277531805,1.7940360805550515,0.45031636969154326,-0.847610130386659,-0.0026558610827552135,-0.2070543481660427,0.029830904049052878,0.8228727846731487,0.00851336590227176,-0.7532153774008252,0.25805751089416457,0.349756580404999,-0.36622952401722986,-0.5445091024566052,2.4296875
-0.503642153965664,1.5239648184355994,0.28551271003087597,-0.579140173896935,-0.22718732611778572,-0.24199908958807542,-0.21038333724793745,-0.186820160477408,0.3885290674617419,-1.8911534871982012,-0.6185929698492371,0.4731427373159629,1.5020659746092617,0.2870456597030023,2.4375
0.5380055881590596,-0.9488664247383612,-0.17730812620327274,0.4296294914339164,-0.04232832319571602,-0.07498787376319144,-0.08356650078504678,-0.17295459539119995,0.14260046376464824,-0.9179563598027694,-0.19434998199993497,-0.045024822789353235,0.29790304006932494,1.2495578381371788,2.4453125
1.2808467486275226,-3.306878486741353,-0.574350809546397,1.3047604550394254,0.25970031794235904,0.15069773715278073,0.17841837592019585,0.7493859802011581,-0.3132587256112368,0.9320427202720127,0.6113773591914898,-0.5972198977400708,-1.7395511294081447,1.0641483096544655,2.453125
0.9769787297528484,-2.3763892225251735,-0.4586153727343323,0.973314711949723,0.16371307152178113,0.1810556464733184,0.11472895512871939,0.26876550175987746,-0.21991383430752617,1.040787672355092,0.302916229276377,-0.4578867199519991,-0.9467374073168462,0.439226160644255,2.4609375
0.00219681090862377,0.4020469019463397,0.05409095320907579,-0.11662541485879975,-0.03660606713166729,-0.0038707051100385186,-0.035968729501133195,-1.1444045757276264,0.03097046118437397,-0.12027116340893626,-0.003136933367661974,-0.052784990281598027,0.1083989297605778,0.9170970607420271,2.46875
-0.40370255677325567,0.8317018999637646,0.293393429430317,-0.43685044416384916,0.15582365388474062,-0.12075718105480514,0.14494963649730816,-0.9808172408964225,-0.2513101459538993,-0.08899874243765812,0.9657522212067302,-0.1763336447162156,-1.9008319699003882,1.9641281931708139,2.4765625
0.10054956395462616,-1.0822398294138393,0.014482560649662858,0.23515707301641334,0.3824771121238702,-0.04698933023730192,0.3320134605016578,0.608525342003133,-0.5399396402090721,0.7128532111763626,1.549396903251419,-0.4677734639497871,-3.4462456372501635,1.6419121965555765,2.484375
0.33064009197571814,-1.1605788327249498,-0.17854328291781185,0.42404915406708904,0.08428204070134032,0.0035611814464663097,0.05819380231599032,1.1522509968172674,-0.07120610656758186,0.06163953711243819,0.1378952583877114,-0.07961933926719858,-0.4883488871551936,-0.2755619984480271,2.4921875
-0.46527370206502505,1.5488547403061266,0.146590639278076,-0.5006247824562059,-0.3510342017867307,-0.06225714428997031,-0.2957513736674587,0.1656529208668426,0.5172313262651685,-1.1035937599305656,-1.3501698604146495,0.6055527828312217,3.04701883953496,-1.9001342419614815,2.5
-1.1445048350439573,2.908838274033695,0.450845362595762,-1.1259828135903092,-0.24215921633274679,-0.021717402470944933,-0.15018807529942,-0.5103230501248339,0.25352750888285536,-0.13185060396051132,-0.7099649771206845,0.5238719550791969,1.8938325359483321,-1.994381392062114,2.5078125
-0.5165023239001886,0.8404853269167409,0.14178370418312217,-0.3930847939155603,0.12094851944374824,0.19801036479859407,0.1718092810087693,-0.17361396072058896,-0.3175556408206296,1.9206537207542373,0.4551747416701302,-0.1383894330237554,-0.8421153817877098,-1.4690262936407117,2.515625
0.43289850612216707,-1.0162901413103453,-0.3040075362885161,0.4705929698128159,0.03835056992313985,0.28250811843983803,0.05144074628564739,0.11236856867410472,-0.12611355940432684,1.6653639858479055,-0.18752032209145023,-0.22427258569310649,0.27541696628362045,-1.468576492370823,2.5234375
0.08961820905240282,0.35287839286372935,-0.0947053289992721,0.010373192513012839,-0.29476484446692397,0.01742935493892179,-0.26793717113623333,0.03368676625805775,0.45125052325191156,-0.7669132282456951,-1.2753077577765084,0.376929351695762,2.745308060646253,-1.3739837598167435,2.53125
-0.8147052777782534,2.003082457686742,0.4171859311523473,-0.820329157363018,-0.2240980577200744,-0.3130011509681773,-0.19794918871918915,0.3335444252928629,0.3938766515039447,-2.1570684667970483,-0.5496033248209261,0.6034416101384831,1.3893828277653877,-0.06363694547788296,2.5390625
-0.3006384499526301,0.1805499006159855,0.24383179298490085,-0.23003258937953433,0.1218666794309102,-0.3087273780435722,0.08278175758610194,0.8241026761237039,-0.07302912217632511,-1.469727719787093,0.7365428585398991,0.07268431962840669,-1.5866720470284879,1.704383930753244,2.546875
1.2173947444434157,-2.932591615276899,-0.4761989741111809,1.167402636859919,0.16577375909034994,-0.020898151648848232,0.07086665552181351,0.5869378117221635,-0.11177530593374742,-0.39786888209230586,0.4024954088694255,-0.4155086775245321,-1.2490176357118359,1.9940802780498066,2.5546875
1.4374869739260543,-2.804128722271075,-0.6493208198372693,1.2833062049261938,-0.032708072894792606,0.17524519630249963,-0.0929185705192148,-0.20061548478935046,0.11562428218554692,0.18172159800389107,-0.5457286590363427,-0.32814557194160177,0.8190770799974788,0.6443465958925545,2.5625
0.23370767266763826,-0.1382620335246924,-0.13425370717103616,0.1518097019715984,-0.06727564730386858,0.14854830398512256,-0.05370015184713504,-0.7775939570742122,0.048097242629523,0.6336780223744055,-0.35943603016920805,-0.0766525971458705,0.7850059298871865,-0.3932725824817539,2.5703125
-0.20911764473982536,0.7899122705164142,0.09436087628776314,-0.27759340538093413,-0.010133488262579848,0.10643487667598817,0.018025256369160282,-1.238585854543342,-0.07596354000094856,0.7901382622003936,0.06317251663737983,-0.09029072782927222,0.026149025379449478,0.01134754663159493,2.578125
0.5164831725901725,-0.5298037229976473,-0.20798654156972038,0.33699126173993166,-0.04633336016814773,0.15236015485269766,-0.05374050309750423,-1.5256791474419709,0.025031453752091523,0.5551461851352164,-0.23312253685493597,-0.23172505868449417,0.5031462309265733,0.7384783468013558,2.5859375
0.4780366273994432,-0.8911811028370128,-0.20394006250008712,0.40392109682756083,0.04848405267335529,0.11155352632372148,0.02964604419422781,-0.6090214099353684,-0.08584273769490801,0.5765951800414205,0.09051079994771435,-0.2556934395533612,-0.2708227579171723,0.5782262094281702,2.59375
-0.7195704068383711,0.48844338601443055,0.3311784914625994,-0.45719087893916255,0.3220338814191298,-0.12121996248702978,0.3192647192019169,1.309917840991176,-0.48250252901152385,0.5483887230501149,1.430220790286208,-0.12887491050483912,-3.0314133589465935,0.18997843093035388,2.6015625
-1.2374045171089392,1.3801313931762642,0.6116866738404921,-0.9095871001070592,0.32633404719623993,-0.34292522622115895,0.3227175701596678,1.9112895076398815,-0.43755955951070097,-0.5588460416462229,1.6674125750782445,0.09919767167233107,-3.4574338099632382,0.62225595810348,2.609375
-0.5993206023064648,1.2509987638797966,0.3548059987452538,-0.5855271123895206,-0.034918532739169346,-0.28302031695855073,-0.036881619962923426,0.21478363053889288,0.11191546903581172,-1.5559398666216024,0.19226133105050644,0.2831141699400419,-0.26948719022759937,0.9561905030479707,2.6171875
-0.33757923698704373,1.5200572636104666,0.14723765087974033,-0.4807290630015213,-0.23247116322587738,0.04300208095157983,-0.18418332551555217,-1.4120407216899735,0.271232041558912,-0.16542926789820317,-0.7668015429218564,0.24193068604609613,1.8817510728072862,-0.5248645911336993,2.625
-0.7186478750363022,1.8002728654077982,0.17274578952133668,-0.6598750635378565,-0.08418859010511347,0.3001302273504438,0.014316814957730777,-0.8075688551437439,-0.07999259653276072,2.119325278775146,-0.3754366058437804,0.08962277169986349,1.0701050739356794,-2.8397708166311535,2.6328125
-0.35127591368363165,0.47372633150493587,0.011458172430659781,-0.19370415978798827,-0.018197823142126788,0.17796903768069702,0.03523871318805067,0.8268687778570903,-0.05841048819277193,1.2921281617472944,-0.27229736743185373,0.11216207105964784,0.6067318632089623,-2.642263001012409,2.640625
0.6932846697220745,-1.4692655242014787,-0.2749856749893909,0.6472342976472507,-0.1506289168476848,-0.1953823380416349,-0.20638802743117912,1.2805778534500731,0.4040275858141063,-2.093465374257375,-0.759795838707051,0.23991980036734548,1.3606999256872525,0.5244570633744623,2.6484375
0.7868875734952381,-1.4877920296103833,-0.21093955833902672,0.6408479196565843,-0.12413383645070322,-0.3271776957520613,-0.21025958246284543,0.5981645638254689,0.40949579040044626,-2.9128404158753876,-0.4626056216485021,0.16704717048528936,0.7537410496150524,2.3802876419007677,2.65625
-0.03783820227556764,-0.12004361686987056,0.026545004595905277,0.00102475305530034,0.07768601116377015,-0.015448280838148783,0.0705768929908445,0.18616198123420455,-0.11167455990875698,0.14331078028570587,0.3223326438779077,-0.07553849172772595,-0.7076330074217643,0.240932956555217,2.6640625
-0.042887086964236355,-0.2654115556638543,-0.12824988439485685,0.09798890433386698,0.11936969984122386,0.32192411151361505,0.16079346880021653,0.29232807535757294,-0.30728084038232684,2.4234939046869552,0.1865528219332341,-0.23262543521383514,-0.43013295485432745,-2.1956732670465278,2.671875
0.8820563123403868,-1.8389244460752296,-0.47734736165585223,0.8467855063596824,0.013346405355787861,0.27524094325739906,-0.00070441770905295,-0.012922355314172797,-0.04409445382362256,1.28037603376881,-0.3573667355011364,-0.29205775832349024,0.5370968636484339,-0.8109536873247379,2.6796875
0.9940476359296463,-1.7166600303714534,-0.3729522786576687,0.7979097091247438,-0.010931414931272677,0.04886342534660123,-0.0666054109910528,-0.9406562890183664,0.07229030499978639,-0.2967655814976653,-0.16107034146729182,-0.29111876765767924,0.17095243468962334,1.7726472170473897,2.6875
0.033017249663242425,0.38109277400533836,0.04282309185683188,-0.10022664924946655,-0.04011694140507951,0.0037192041311615524,-0.040138455830108236,-1.2798062529190153,0.03298047715769904,-0.09446473092244478,-0.013108553839357152,-0.06938579664352973,0.1359229298208815,1.0062718468522691,2.6953125
-0.3004748665130695,0.9869382860494453,0.09439097460348668,-0.32663781557858046,-0.1685632228561137,0.018096864629403926,-0.13037317852419478,-0.2412456349645159,0.2143223557008025,-0.17317912973488017,-0.6341856132468914,0.2615717238500347,1.4811447946270044,-1.0824850207870396,2.703125
0.37764128014135007,-0.6588219900300506,-0.14227059758446908,0.32363650551052275,-0.1478679982533793,-0.14214508856465496,-0.17735915618230413,0.6667395522299087,0.3338658774804954,-1.5532643811219244,-0.6544799017735784,0.2286953063416958,1.2678093612493486,0.2799815380586625,2.7109375
0.3850410874738004,-0.7809969657022718,0.005017666567962983,0.2622452704990695,0.0872616231334084,-0.2616127184201999,0.01295262802372311,-0.39148655397874,-0.00011411278842112038,-1.6597491939802995,0.5734184007973171,-0.14628938512368733,-1.306952931483178,3.2235759725639848,2.71875
-0.8084125005439683,1.8717569323532397,0.4923287236009024,-0.8686091380764127,0.1783405085985865,-0.09209515052373222,0.19301623581088612,-1.9005670194349769,-0.3574598646278566,0.39816620042854656,1.232594735146458,-0.21557839610942678,-2.2933663206882238,2.1684702486330485,2.7265625
-1.4495363833879218,3.0350708297530304,0.5680836260907546,-1.308116312809388,0.04202697341088136,0.11111264084036107,0.14482230806350635,-0.7093887195188584,-0.2661082260226241,1.6925000976914628,0.45160662211356944,0.14075923889235523,-0.5364370287109347,-1.9192890453796911,2.734375
-0.5848546381468082,0.41761470024995906,0.10235506915695972,-0.27869140781216917,0.055792437725140274,0.05964284491089609,0.1013031929520883,2.209124400944816,-0.1153169643931079,0.8747275068103808,0.01016842525935774,0.22428656467044905,-0.06513271063552539,-3.0103822778057134,2.7421875
0.285497382916309,-1.7534390485253524,-0.17654090045888632,0.5380138176382697,0.25509491137686796,-0.03451329426826126,0.21186543090752089,2.419031291186586,-0.2916329592846484,0.31591673556498373,0.7334447859244602,-0.17403906587732826,-1.8852815501322255,-0.44109098675095865,2.75
-0.09262557299950579,-0.03226339810153708,0.07193136999545362,-0.06761011752682718,0.19842091649692856,0.05531821481403323,0.19211764446775803,-0.5404070935630146,-0.34589553012724245,0.9736687025109899,0.870897785454564,-0.3163306282805454,-1.8219394484865263,0.8526728302774266,2.7578125
-0.6035714504607024,2.0567799965936904,0.27273728798243685,-0.7356847038718252,-0.14762379865020608,0.09111478859805759,-0.0848018421464294,-1.9857200866819935,0.08378884516858243,0.5422417762899642,-0.3279074835313229,0.11390233145281572,1.0486668095598093,-0.3289082580296036,2.765625
0.0949292767099356,0.3116420822955891,-0.04203876716245942,-0.004771087139609298,-0.27096840697620084,-0.09323469104308846,-0.26390052469096287,0.04128129383316869,0.4596672439356127,-1.4099886180638612,-1.079804282047311,0.3805149209374904,2.3218889779976144,-0.44553324305739844,2.7734375
1.1021169289015227,-2.673689183914872,-0.4548274639474051,1.0951943744124777,-0.029266250699517857,-0.17136790558418813,-0.1180142212929537,1.8181344469603145,0.261834353632317,-1.8385774200008773,-0.42061765085788705,0.03304533430762013,0.4643969190905224,0.9364420490455422,2.78125
0.7723357676779851,-2.0440873931396597,-0.3484980351041323,0.8051670411480062,0.1227282616832178,0.03800976829471949,0.0697833320755162,0.872411798741796,-0.10671751280919275,0.128352695734785,0.21889303493245893,-0.2588448314265448,-0.7591394957168436,0.4919442226452483,2.7890625
-0.48615616571525705,1.1641750702350833,0.12891752770571968,-0.43860322889585635,-0.05732356065217281,0.15312066458841955,0.0020326421100813107,-0.34265257881234373,-0.02903709844921504,1.1100281240931595,-0.2372026617876306,0.0955666550782763,0.6727419951091342,-1.7378254418528263,2.796875
-0.8130786311337989,2.155812198713621,0.2956483021716508,-0.7985793499368476,-0.27305604602795513,-0.03653991367968516,-0.20016400488172054,-0.019887463135638373,0.3503722215919797,-0.5195644717006946,-0.953482640960696,0.546061855373817,2.2925730240809608,-2.0266489074395877,2.8046875
0.23563887021523885,0.02731002471781329,-0.07394387807069193,0.10524696105217432,-0.23626088410976584,-0.1074887555086768,-0.24425588525989766,-0.16612053075066768,0.4216244611427142,-1.4905153168766085,-0.9214261095912731,0.290994743070899,1.9583221899519168,0.20420450483777997,2.8125
1.2057018567196125,-1.9784761500862984,-0.4842558641747235,0.9554173798119132,-0.0003285189423740063,0.18746807898611606,-0.0504933599238009,-1.6346865195463416,0.006163946953098217,0.4948337525775263,-0.1904925838695213,-0.4572924670713163,0.23504837120764663,1.7131070939570474,2.8203125
1.0551966249174525,-2.067738142307265,-0.4656204215462755,0.9108463389431052,0.21431446033002022,0.3623522706494401,0.17895368569161085,-1.7393998190789512,-0.4073501463865204,2.307469371731282,0.5991235654118847,-0.7837498388129891,-1.435933011756872,1.2694504273461111,2.828125
0.3459875871578567,-1.229409619595699,-0.14452992010253157,0.41369826335822846,0.21166756511913673,0.040449159654880225,0.1761605347032521,0.45971079040237806,-0.2943102609603188,0.6483818795039272,0.7263865163388353,-0.32956863122137664,-1.7115990536625154,0.685661334603953,2.8359375
-0.11339708378190155,-0.2579447203041634,0.11286100557265029,-0.011177084503018088,0.011511965442740753,-0.33058423799389525,-0.029650326218608403,1.7568614301227918,0.1427546567596765,-2.0220393431914463,0.135322028111132,0.2751291307724243,-0.41078909950630643,0.7423223384669707,2.84375
-0.44366123191726176,0.9590962888572513,0.25774577667663495,-0.4335402297660378,-0.0759186378470234,-0.24220008252190559,-0.07689623836059924,0.3820325480115819,0.17706535935606804,-1.4983054595749756,-0.06845609849037664,0.3081398834722658,0.2397044419159474,0.5148993694327689,2.8515625
-1.0066870763780056,2.080910960350706,0.45732406294792666,-0.9389503434855613,0.11079857007884882,0.014451808028038159,0.1634808683383313,-0.8803592890125068,-0.2929919404631487,1.006969171159881,0.7612619755630405,-0.026829167495859153,-1.3098153404984947,-0.14263667960875406,2.859375
-1.4922517475273713,2.563782612086592,0.6555488392925474,-1.2613550949030554,0.2254566728868816,-0.06272239984888311,0.2874586943792804,0.1272177879147822,-0.4611654086559974,1.1148971433630313,1.2754750475329946,0.034640348609063336,-2.3870886654257033,-0.6222577645332907,2.8671875
-1.2277031073612843,2.1827759203595067,0.5514475982944829,-1.0370849100010178,-0.01497020799850737,-0.2710605151787499,0.024655452714188154,1.2225408333089827,0.038495958745836195,-1.0559941681975802,0.2574580991557931,0.47254959289306786,-0.33494928174364474,-0.8083254110800447,2.875
-0.07668130224012022,0.5669024453859637,0.03206993708578723,-0.14016558270020893,-0.24855220481429807,-0.11613101913968074,-0.2361036256055629,0.206895126672067,0.4215261072997615,-1.3954204660823986,-0.9528186311866664,0.4082057189086052,2.0784486787656915,-0.5476706087771547,2.8828125
1.1307710497495753,-1.7864929564789567,-0.5304296158007845,0.9218359049378189,-0.08680318031141934,0.2792350773335155,-0.10851115887120179,-1.2819669173612964,0.10195652039265271,0.8815875497236234,-0.6657969887926061,-0.3237801607278665,1.254810051982046,0.2149988984146901,2.890625
1.2530725824429947,-2.589516703774246,-0.6141803205117281,1.1515231254477838,0.17213514334476693,0.42765609184650016,0.14019678314605571,-1.0749576459493069,-0.3344483469878426,2.485183452204656,0.23943930417347625,-0.7288790634966793,-0.7705412085099009,0.24648292150021794,2.8984375
0.27857217602889944,-0.7985294422762754,-0.2310833612245268,0.34429028032506537,0.1114121136368025,0.30232649263827005,0.12966268773659329,-0.0296723142961088,-0.2634401801908162,2.087910669087696,0.14963977980532453,-0.3103659050447665,-0.40631307916202075,-1.3618921355818248,2.90625
-0.40622497021356446,0.9187846554239045,0.04895417809846374,-0.32039155939694686,-0.10266031306743262,0.17851256364220916,-0.038523863982106214,0.22407960629683132,0.05046701932461176,1.1024554319650208,-0.5392177506615501,0.18342162354838618,1.2562526721417653,-2.5564092492963275,2.9140625
0.06449256613282203,0.16783932689335926,-0.05503915330526501,0.017816686845436438,-0.17016160471273112,-0.006454060813287737,-0.15784047768376347,0.054266467804417476,0.2688801226368881,-0.5514770350141647,-0.7285602134788381,0.2230800656855722,1.5645077718531006,-0.6930247153923071,2.921875
0.7448961379916248,-1.257404924842992,-0.16992274415087893,0.5621212746630296,-0.15969640531327545,-0.3653910615289611,-0.2461501534967152,0.34765866157615255,0.4690660408113603,-3.2313802570193126,-0.5375306354994731,0.21363375987296795,0.9516343371867696,2.67809591365645,2.9296875
0.5299529675289233,-0.9972495488008501,-0.027660778001110227,0.38585556971060925,-0.12417832670320518,-0.5211179992286162,-0.22385204594413846,0.797369773869027,0.46632175789532315,-4.00642738696584,-0.2670758301410326,0.30202385806139626,0.3840479744072738,3.3021695840211414,2.9375
-0.2177148633087824,0.04907519513378913,0.14079893553208933,-0.1284818910272954,0.07355541158557415,-0.1928846370889301,0.05225496642604595,0.9646674805949403,-0.03455422665503373,-0.9046141982118991,0.39692434251477815,0.09584362972704473,-0.8853542841755376,0.5900785102905403,2.9453125
-0.7408918098839449,0.6531929622571256,0.237404487719325,-0.4580379166584032,0.2984674486533428,0.13069266718094227,0.3375646601542973,0.9235011207376177,-0.5577576276330377,2.1105253175277094,1.162540592753016,-0.21069254895718964,-2.4166224606567317,-1.470240422617985,2.953125
-0.888723717582806,1.238504492260788,0.3748361845269214,-0.6850285478815406,0.2279148364717263,-0.011684255009295971,0.26031787817071406,0.45576631587376065,-0.4187958962604569,1.088445629209998,1.0813651097159762,-0.08024520881373247,-2.1552762544980753,-0.4879108212507774,2.9609375
-0.34723163913805405,0.9661766768234534,0.2327898917737404,-0.4071130634942064,-0.05163156509529526,-0.1664962906501975,-0.05134997841307666,-0.5037107749811824,0.09926423304314046,-1.0032803258593432,0.06287135750370637,0.15031316024641614,0.006155235848208548,1.0115353190367882,2.96875
0.9323384041247306,-1.2629204150826838,-0.4259834087643042,0.7166023982621339,-0.17868126783625002,0.166016217499956,-0.19586411957395858,-1.063056764415587,0.2724370165136206,0.019767888059796675,-0.9412256164037187,-0.10170002037231841,1.8912204843150056,0.16964700592303972,2.9765625
1.3767926344142152,-2.4359837054913815,-0.7578599474144355,1.235907141470072,-0.10272533434788769,0.4917708981583197,-0.10432389286165497,-0.7535203674554951,0.0776802417961067,2.0570981199178657,-1.0365705154755394,-0.37518424129605477,1.9432004080420513,-1.6150084202425306,2.984375
-0.25726301475856234,0.6916348418890637,0.03098686238549438,-0.23615871140207503,-0.013535984904083437,0.21516463625340257,0.03619518765238026,-0.6060920632001768,-0.10413600053066462,1.4984546885817098,-0.118904882949273,-0.05436390285002379,0.37424374540079297,-1.4538033010457192,2.9921875
-1.9673649345501314,4.314407599333673,0.9483512015564859,-1.8969323345885627,0.02777937719601163,-0.20406077404355838,0.114563781412451,-1.256393495815517,-0.18206751197628,-0.058791795387413005,0.8413179563013926,0.3216387303109645,-1.1908439051750466,0.18848931229000954,3.0
-1.0883452124375415,2.612567524043503,0.5608446837971514,-1.1221478672265708,0.029157737313190116,-0.09225243731591189,0.07714610218608384,-1.5619861027301196,-0.1498766947255865,0.14509384885979074,0.6165932346430131,0.07403786377850093,-0.9100196672346524,0.8073450657954772,3.0078125
1.131942309570383,-2.1383215257791406,-0.5293561006451941,0.9994905412767763,-0.005101520271289492,0.2269617440769578,-0.04169275018013276,-0.5684984086626582,0.014733821864157993,0.7784978259950819,-0.36924552521066495,-0.3528032656493313,0.5483349371596998,0.3045455512020208,3.015625
1.5103737675055071,-3.370484414006529,-0.7001324858747805,1.4538744382086355,0.024793544285833,0.1235521187177741,-0.05132839301146537,0.8920029309671891,0.08069693836612056,-0.03249799496701502,-0.41426909768389597,-0.3052131640646442,0.418249674473379,0.371740131027499,3.0234375
0.11087275438855822,-0.9330519074950312,-0.009035827999697113,0.2422291755681444,0.12225881858737833,-0.21942145233148597,0.07324086780499506,1.7530854661068125,-0.04818173357929604,-1.1361431190290272,0.4589611574852783,0.042190033568290625,-1.1773113672539492,0.7214006314386305,3.03125
-0.6458553476376571,0.5839074581183571,0.31006566380835054,-0.42666778672919475,0.08280490610325335,-0.3067115861795322,0.07248485722809411,2.0729107939415585,-0.01988254584137272,-1.3616111301836646,0.4761969602249175,0.3088737048849063,-1.040254709304008,-0.10581368812421907,3.0390625
-0.36412293164466425,0.3826775503353143,0.1165309721545754,-0.2101121180152151,-0.09897092075952932,-0.18100237060482677,-0.08981598347406818,1.9089670152568037,0.2307654763317636,-1.2321643866458858,-0.4315111262571049,0.4401605403498805,0.8699805715558422,-1.3402695339691746,3.046875
-0.21909984293593598,0.48933652161686286,0.052803343072256086,-0.17260474983257046,-0.13756248987197886,-0.05436930476511671,-0.11671618055631806,0.7332164972087784,0.22651231910738445,-0.6088818986613114,-0.5815687354897694,0.3147364823086185,1.258882443464572,-1.1835667599318014,3.0546875
-0.020451302819428967,0.3690633256173673,0.0006985986921834303,-0.0928307459254826,-0.016911763550473788,0.12594352646749518,0.00333436972682573,-1.0711454737032207,-0.050882072593128214,0.7783256627170233,-0.04010237622185375,-0.11146045588632034,0.18511240207599355,-0.05967735140543792,3.0625
0.7584692651882973,-0.9787509461993624,-0.3352630423257103,0.5516398746023178,-0.023421705028777808,0.26188614509318986,-0.032150479613278625,-1.858514118674703,-0.0372305367902059,1.1774805216492041,-0.23761392607800738,-0.3791679976881334,0.4757702415603498,0.6542775894920306,3.0703125
1.0079780042861797,-1.586545904488284,-0.4057955446721593,0.7939893918314684,-0.09843152200325417,0.07379994816258643,-0.1424464093563792,-0.936655852779299,0.1971737323894265,-0.390222843573728,-0.5537541822536953,-0.18392534747306133,1.0203625739263067,1.2032985289629128,3.078125
-0.14922335374949386,0.15513775184942014,0.1799938197002674,-0.15589438317543444,0.06114552669298406,-0.25997164627566205,0.024818169954321012,0.24046860685700253,0.0011080771924429022,-1.406433281226823,0.48457082814973446,0.055512163434293146,-1.0278394969387006,1.7976663684781191,3.0859375
-1.413385758318117,2.3118855764991766,0.7163203838093105,-1.2152797877369879,0.2740403715414732,-0.25141362220816194,0.29723657790088026,0.23267180439245722,-0.4498859520123833,-0.008572729608746265,1.6176349182322596,0.024851479866827952,-3.157264927833032,1.021670322516834,3.09375
-1.2061291155658342,2.2971555575068243,0.4830674651302741,-1.046712708395852,0.12090681026208423,0.07450731277306906,0.19565731718277646,-0.33702410223354223,-0.3392878739227358,1.5336456703625845,0.7194987733603807,0.029823605129520557,-1.2167568262892994,-1.31005730398705,3.1015625
0.14942591193454705,0.14965307966472932,-0.21263685507962332,0.11399618320030104,-0.2093316832205946,0.28835416645559936,-0.15368771547671797,-0.3572804393149921,0.21009405961129893,1.1798664661916545,-1.1172052652058193,0.12421602073800624,2.414899120148113,-2.5818792842700904,3.109375
1.200177722816494,-2.0008141827268138,-0.6264100794099726,1.0453348360537928,-0.1962906518103477,0.2807024797266169,-0.20914970316162249,-0.32772740356384145,0.2964410449725815,0.5460977888339059,-1.2636909425288116,-0.10445387532522987,2.4525432490809984,-1.091927930181622,3.1171875
0.9918440519150181,-1.9224440286303348,-0.41419556352575015,0.8558613701592155,0.07519505652744671,0.15712476762341712,0.028064619321759295,-0.8170037158813266,-0.09918612747000023,0.6386958457606033,0.08916188747096945,-0.43160694131223215,-0.38745013307718823,1.2369867432585784,3.125
-0.20823304657129865,0.4402352908478408,0.18930518765885349,-0.24630496298920435,0.09410235178209478,-0.12670817405280038,0.07706207325945862,-0.6063059405591543,-0.12720418848325823,-0.4218283201700019,0.625511110685499,-0.09757020642967609,-1.2467402941357597,1.653680359106145,3.1328125
-0.9655498954436991,1.9962074277097586,0.49247836191360933,-0.8933078005867905,-0.14505652243442912,-0.3822430450943854,-0.126756835737583,0.9294444209000746,0.2999403174179922,-2.292369562251321,-0.20374097590391338,0.6042361071296456,0.6268972992701973,0.05942526014308437,3.140625
-0.22348857963481933,0.29006587066675965,0.052025105596242495,-0.12081944310878281,-0.16664054188680785,-0.16097620983816788,-0.15696930181454535,1.6793419207719393,0.33437006160426436,-1.376627708707263,-0.7309258727591811,0.47547093955952185,1.502722049376293,-1.394231852429166,3.1484375
0.8886890488563934,-2.1495014954424065,-0.5001322562051889,0.921093924506601,0.12900099196268375,0.3331301441412818,0.1124876508518571,0.2500915931174401,-0.23658359205384316,1.9724736230164346,0.041868203393697706,-0.4447094723148095,-0.358723556537701,-0.955128554684528,3.15625
0.4914221201432495,-1.282656920626106,-0.22803541782921857,0.48480692925762786,0.29197417788863456,0.28000221284166454,0.27318885625447187,-0.9770818040701696,-0.5305144202043249,2.332534638218489,1.0086740716109142,-0.6763612308135455,-2.2436325596063575,0.775589748341082,3.1640625
-0.8198133625098253,1.5157898175530446,0.47907844880652933,-0.7647860873648,0.07137719015584833,-0.31959930453217056,0.06683011320741107,0.1743231296624754,-0.0577454965739556,-1.360930160383934,0.718801143654757,0.1931800352655567,-1.3509171389075185,1.4513245321780064,3.171875
-0.7476921469464985,1.411063580342815,0.40007721069856017,-0.6601510090513687,-0.17289158893641926,-0.45811700949498224,-0.17568266708731448,1.637029629043974,0.40975143656362656,-2.985780691661777,-0.3871420306768516,0.6859574721739062,0.9080048358685193,0.1340678903199387,3.1796875
0.6670973298485046,-1.4874086566361804,-0.3830517956745377,0.6824783288028543,-0.06580518863360607,0.1377378372036368,-0.07773607298917971,0.8248277968096543,0.12911232957040691,0.30155037152306224,-0.6345076488088225,-0.019850559568736454,1.1261846605182375,-1.200109665536374,3.1875
0.9162696153164283,-1.945675047777308,-0.5082672390600302,0.8761694618846338,0.15761821118684052,0.4590694159137151,0.1536312619071114,-0.8859586714379051,-0.35368604275768095,2.8501835699348255,0.19179556331446404,-0.633296121578825,-0.5934663722824277,-0.684430494988121,3.1953125
-0.6365137852740739,1.4850963178202372,0.33169663269287675,-0.653152677454063,0.06581003628963304,-0.02497921370759754,0.09320053771088001,-1.0861355507595434,-0.17741202688658533,0.40951264738618787,0.5618660347896371,-0.04782094422321025,-0.9554892124488144,0.6333549260693827,3.203125
-1.4914885150069517,3.5564410821806103,0.7912750901605382,-1.512344304550089,-0.20368046013832278,-0.4551765253042144,-0.1606075532667517,-0.36240636523490033,0.3371141476291856,-2.6019376433542774,-0.11644232314576691,0.6994728744075756,0.6942247371066746,0.8245381918616337,3.2109375
-0.09205204104836448,0.6032403647838978,0.06247678677244294,-0.17155243057466693,-0.18954105326324344,-0.10517160254255961,-0.1813160102865637,-0.17999483398199642,0.31708837717362576,-1.148096387997491,-0.6617401689135108,0.292972689345445,1.4843198007983756,-0.03183486632338572,3.21875
1.5633145171025842,-3.3000727140057196,-0.8025999726717493,1.4875025710477912,0.07000480592443917,0.42423273475814677,0.030150237179484438,-0.14469777859514138,-0.12613922670415734,1.991667011631147,-0.36605592216002436,-0.5700711677712699,0.3845314641667873,-0.6421657805116394,3.2265625
1.0086776739683088,-2.391166930759864,-0.5204273710488926,1.013215250298144,0.15088586816324984,0.295103411634026,0.11841272263305423,0.13237746174900114,-0.24552459908617247,1.7157056984894767,0.15954863805454436,-0.49724239264153586,-0.6346131440869933,-0.3031186629360689,3.234375
-0.9216561872735267,1.9296479968642877,0.4893070763501804,-0.8852376785973438,0.013294274909546757,-0.23155185665285,0.03377752593485781,-0.2023391394540746,-0.022711128288083558,-0.9004327171465438,0.4653532064834771,0.22997173078211083,-0.7445445452569531,0.748896351986952,3.2421875
-1.4605325396301265,3.370421711986699,0.7801547931944048,-1.4743839163267618,-0.05357905748189158,-0.3400308577698397,-0.010853828130839908,-0.9473499973048304,0.05228199760449779,-1.4564024943180902,0.48124688058238274,0.399780088661844,-0.5650938344943789,1.2228916876279412,3.25
