AF3,AF4,F3,F4,F7,F8,FC5,FC6,O1,O2,P7,P8,T7,T8,time
0.5733299911400348,-0.3676749944188469,-0.5138894434604764,0.4825394576095242,0.14052655348162196,-0.001984211081658463,-0.11910476224620126,0.0393840175232766,0.09775621803836133,-0.09697154015255954,0.002966190514160299,0.16332865242589215,-0.06034163706743593,-0.34035800257256954,0.0
0.2007783110620579,-0.12864517577539777,-0.17978699800903095,0.16877802192778957,0.048900675862065236,-0.001016532983824291,-0.04171271559536615,0.013815969526085381,0.034126162123960774,-0.03386349350813183,0.0007219695621555245,0.05754435035294014,-0.02102113256117738,-0.11902183390209502,0.0078125
-0.5056813762453424,0.3247006626726067,0.45374051962682027,-0.42619839304224644,-0.12486231008020834,0.0008183275360932605,0.10500595503684454,-0.03466032457757964,-0.08651252627740316,0.0858510897070262,-0.0035359460463676123,-0.14300215632281446,0.053569924310238236,0.30076458268259393,0.015625
-1.1239608182628622,0.7215316195142115,1.0083183585454054,-0.9469562598579012,-0.2769591727757425,0.002424256825242668,0.23342090577639854,-0.07710046056809028,-0.19209288721943366,0.19065273908349653,-0.0072632409190931495,-0.31853714958916557,0.11886467966444633,0.6682945923655983,0.0234375
-0.9188289345042716,0.589977274734806,0.8245605236450384,-0.7741168670241441,-0.2265447554776812,0.0018916836534086216,0.19086509749594147,-0.06304731400478383,-0.15708550044917982,0.15592988305987035,-0.006027322211042536,-0.26037795975112527,0.09721865571541698,0.5465191418366336,0.03125
-0.16957983691557674,0.10913140519090654,0.15272226328823726,-0.1428256577792166,-0.04227948211487609,-5.42896486836174e-05,0.03530344546149661,-0.011635823593045326,-0.029168499152838045,0.028970533547018788,-0.0015105073270631415,-0.04776396860353772,0.018100151352046647,0.10121355092001531,0.0390625
0.24045654281446383,-0.1541198308138486,-0.2150889379824586,0.20272801968954024,0.058592781307359176,-0.0011195814154071298,-0.04987075610555679,0.016524563796424398,0.040856975513193075,-0.04053607445414449,0.0009622053667229586,0.0686255480297789,-0.02521494332505574,-0.1426210226953018,0.046875
0.08461039590747892,-0.05414377729094231,-0.07547178869786382,0.07142323469866944,0.020298283667026813,-0.0007151423899739335,-0.017568462621825695,0.005851005198031163,0.014283532862726475,-0.014140885664237823,2.3237089244485586e-05,0.02444248054366993,-0.008766000289491394,-0.05009420723877367,0.0546875
-0.17421308075193517,0.11201733242852865,0.15652452340746342,-0.14673928255496918,-0.04333838890426039,-4.289409745953592e-05,0.03614275410482465,-0.011908016538733282,-0.029884840636159826,0.029721938490421363,-0.0015368880578601324,-0.0489836972530897,0.01856968312623667,0.10371410275980122,0.0625
-0.23415451337142726,0.15051883260565058,0.2101982441418994,-0.19732798613176694,-0.05807465182470293,0.00011300835671669278,0.04859716298249035,-0.016026250503355547,-0.04011950617007289,0.03988066906440196,-0.0018980427714719542,-0.06599328119012822,0.02489920780409633,0.13934279380517223,0.0703125
-0.1909400113573435,0.12277791326521996,0.17140452944729406,-0.1610229078716712,-0.04743894850505178,7.808616331825983e-07,0.039630747262574685,-0.013060799131832914,-0.03273870146025689,0.032554527269643356,-0.0016379265206272735,-0.05370601879006814,0.020332756294330106,0.11368740052196584,0.078125
-0.05256945918486601,0.03401224360539375,0.04730514830778811,-0.044633293004583074,-0.013392181750502913,-0.00035885200174692525,0.010868893856738308,-0.0035620055947022584,-0.009092210972079694,0.009105507237483561,-0.0008051932665259086,-0.014358600446169439,0.005730748867972645,0.03150491087041982,0.0859375
0.3690181657408324,-0.23649527061121603,-0.33077779321657647,0.3103638921685088,0.09031306174402626,-0.0014540012315859723,-0.07672077796963571,0.02537319520902445,0.06291080691211441,-0.06234077770988509,0.0017345654566237828,0.10538819205255918,-0.03876955614463083,-0.21900801265346395,0.09375
0.8750263584389586,-0.5612482768635207,-0.784533402148397,0.7365903527613035,0.21477031313229447,-0.002768148765604034,-0.18180878960969568,0.06009947604550512,0.14930710268185737,-0.14809394667495973,0.004783786307690919,0.2490419007608015,-0.09219286908240304,-0.5197012645884314,0.1015625
0.8246714233136576,-0.5289844311224737,-0.7392815926296872,0.6942171083324392,0.2023678222865338,-0.002637175542690661,-0.1713115454798623,0.05663626782171709,0.14068856484196135,-0.139554400189153,0.0044803384661900834,0.23469063828220105,-0.08687966440557113,-0.489752476050132,0.109375
0.11516592201894876,-0.0736637001847843,-0.10290362102658134,0.09665912010441693,0.027827081941344332,-0.0007942461371231243,-0.023909934323856193,0.007930682152432936,0.01951028347156087,-0.019310596757148822,0.00020495082153188134,0.033187320401251726,-0.01196936016877449,-0.06812015175086114,0.1171875
-0.4835590719468971,0.31058954157548296,0.4340605832416486,-0.4075032754638649,-0.11946695983160106,0.0007610571922385072,0.10047195154669653,-0.03316853923635415,-0.08275930202110225,0.08214925228590983,-0.0034023599851526545,-0.13684697774348453,0.051245562134181875,0.28765200217732995,0.125
-0.41396993405995514,0.2659565078275992,0.37166850359088066,-0.3487688681079885,-0.10236888425320498,0.000580648149902954,0.08603677537176357,-0.02839504174266382,-0.07089924646682409,0.07035829020723178,-0.002982978642429954,-0.11709106808608956,0.0439029551841863,0.2463316270811914,0.1328125
0.062363670788011014,-0.03964651134006236,-0.05537200602042028,0.0524394686906141,0.014784114692125544,-0.0006564946472547647,-0.0128913073550649,0.004292364281842364,0.010447887118822847,-0.010334840411748905,-0.00011396022954419259,0.018182978704811344,-0.006372254674315669,-0.0366201677870506,0.140625
0.4837298192425478,-0.3099480142775427,-0.43301326846068583,0.40739087674607627,0.11841905266162847,-0.0017512797056767112,-0.10041641423414485,0.03320426817996448,0.08242133710263659,-0.0817089415924731,0.002424036157548932,0.1378239688394686,-0.05084466462071989,-0.28693332327901955,0.1484375
0.4276160258667903,-0.2739824659826092,-0.3826414592457892,0.3602902000271599,0.10462609567792247,-0.0016058047407170011,-0.08878324474050386,0.029356845018707,0.07283983486566445,-0.07221818733249144,0.0020868839115141978,0.12185791575044436,-0.04493427355023538,-0.2536251603078098,0.15625
-0.48335947757767206,0.31036385342778955,0.43391643579230293,-0.4069995946530632,-0.1193940519299149,0.0007603426182227396,0.10038194810448368,-0.0331372129136627,-0.08272050938112942,0.08208002484450408,-0.0034001539004243505,-0.13678210604458932,0.05120028054677834,0.28754658851884424,0.1640625
-1.61169357191609,1.0342025503867436,1.4452153448313105,-1.3576133376209496,-0.3968641275302812,0.003690854865031955,0.33467989095374184,-0.11053913830317542,-0.27536495768468494,0.27322264193956586,-0.010197599938838857,-0.45707201545578413,0.17029050678830399,0.9578133460174539,0.171875
-1.3806314320666029,0.8859229391934639,1.2378355000548362,-1.1630937161920325,-0.34002412105501567,0.0030902241491323613,0.28666424992738965,-0.09466833659910456,-0.235874200820651,0.23408201321591315,-0.008805019567500098,-0.39144417991657054,0.1458995461818329,0.8203701328530482,0.1796875
0.2859357547149757,-0.18338241703081642,-0.25638327166183605,0.2408309561628048,0.06983963609614263,-0.0012385120508246743,-0.05944989917828606,0.019688475988730896,0.0486963025698318,-0.04826213760845703,0.0012366546302201222,0.08165670080212875,-0.030020592225378673,-0.1698726191573294,0.1875
1.2765011132072146,-0.8189563763094544,-1.1444442402973989,1.0752454744259938,0.3134472651990836,-0.0038107728033332563,-0.2651484359296267,0.08764742550781945,0.21780622640502867,-0.21608171871991297,0.007204589268824706,0.36284529562864026,-0.1345812245820624,-0.7582977060023351,0.1953125
0.5230154322756505,-0.33545071416679045,-0.46885565137397933,0.4402686260470992,0.12814467793030385,-0.0018532645004540327,-0.10864617752588972,0.03593359538692336,0.08914228150150252,-0.08841888320645921,0.002663359489145461,0.14898682124810034,-0.055033053443417336,-0.31046954320208314,0.203125
-0.3335027565972936,0.21425758162180955,0.29916271015632767,-0.28153798019508797,-0.08247839029534733,0.0003712363578161591,0.06923754352330538,-0.022845296281760186,-0.057069687260088375,0.056694353961604126,-0.002498757345806928,-0.094066580398038,0.035393254206548846,0.19847913867773712,0.2109375
0.056797878163032466,-0.03598971259035697,-0.050545962984018714,0.04717550795672914,0.013533050459717368,-0.0006427314680979115,-0.011819920509855659,0.003926657968847493,0.009610782327666456,-0.009435467946708201,-0.0001480387170855347,0.016800816535347905,-0.005798429207922791,-0.03337426834730582,0.21875
0.7668150691600618,-0.49146983312492554,-0.6868891219635126,0.6454374767581114,0.1881312573535968,-0.0024867428699120882,-0.15926166521379817,0.05263166290721842,0.13083442382449037,-0.12971100282189055,0.004129771810985447,0.21832026325835707,-0.0807395503414667,-0.455128259369066,0.2265625
0.8836218572353691,-0.5664838848283684,-0.7915573877833296,0.7440553179650531,0.21678576123180612,-0.002789953393074546,-0.18348420175187627,0.0606359376418424,0.15072881303940575,-0.14945607299490074,0.004834286608375175,0.2513435432981178,-0.09305989768664275,-0.5244909189736522,0.234375
0.892626680861812,-0.5723566616358297,-0.799703775723101,0.7517925162512655,0.21893173911144853,-0.0028133063295231954,-0.18530314643750026,0.06125017068565153,0.15222136724998253,-0.1509485270166324,0.004889430744213516,0.25378678128969623,-0.09400480920199447,-0.5299208373101716,0.2421875
0.7874132080735206,-0.5048319185361619,-0.7053763600076511,0.6632139948584602,0.19305800028419867,-0.0025399350273346134,-0.1634263008370395,0.05403162417216195,0.13424698598983528,-0.13313654495455232,0.004255355630587175,0.22392126538758828,-0.0829014011773529,-0.467480469207815,0.25
-0.27756332308372744,0.178512235750328,0.24946319377508094,-0.2338668324590045,-0.06879200849023014,0.00022610428185209,0.057699397237614455,-0.019030998376213207,-0.04757470298635503,0.04724784353102351,-0.002161923416724655,-0.07833325403619393,0.029504313444879922,0.1652368554394299,0.2578125
-1.801539367982093,1.1561883546900158,1.6156196932954374,-1.5175446696199446,-0.443532253127264,0.0041838526654902775,0.3741018951144841,-0.12357246430039644,-0.30776765474598616,0.30540125378037364,-0.011343410224916502,-0.5109301690082187,0.19035117362017595,1.0705869479361665,0.265625
-2.1554377364103683,1.3830258114340488,1.9326034366625993,-1.8155850273765595,-0.5305550605542185,0.005102572406028265,0.44755163541805026,-0.14783178413141304,-0.36819235718867266,0.3653344038918494,-0.013473753035642145,-0.6114245343402023,0.2276812096628069,1.280707222097304,0.2734375
-1.2291119717160655,0.7885900409616652,1.1020036484409648,-1.0352897869237414,-0.3027482062433369,0.002696806323970402,0.25520208313665305,-0.08427241759614991,-0.21003689776600173,0.20837510816509752,-0.007891414078119519,-0.34847529678163885,0.12988252387966484,0.7303524157230404,0.28125
-0.3838204989129054,0.24629468930560616,0.34428775642994075,-0.32330506881547316,-0.09486627356179657,0.0005017975943307461,0.07967741985314879,-0.026285428922047983,-0.06571547528583359,0.06515292166295522,-0.0027991088878832494,-0.10848374234370647,0.04065904430554089,0.2282879337621966,0.2890625
0.0397949231291069,-0.02547035912752346,-0.03545979930696028,0.033490276481661405,0.009302265273736239,-0.0005983568640134631,-0.008319404674871946,0.002778860507841395,0.006612066742837278,-0.006597625802297369,-0.0002481056889450848,0.011805352628575747,-0.004035131980546622,-0.02331052611526634,0.296875
0.8282614803077857,-0.5313684361350663,-0.7424763792350804,0.6976177515485734,0.20318049088496729,-0.0026463536677570833,-0.17206810659890306,0.056883166635865574,0.14123960603627878,-0.14013232976596637,0.004501791006457618,0.23563878338053126,-0.0872416431576709,-0.49179692236748845,0.3046875
1.8176667323989864,-1.166129752642216,-1.6295624171901786,1.5309761647835893,0.4464875854330972,-0.005216133450425194,-0.3775003986340131,0.12476723911259005,0.31019059808138244,-0.3077247444273697,0.010463268057913692,0.5165110944143441,-0.19167540355877197,-1.0796655186593305,0.3125
1.8202957991447062,-1.167709560673816,-1.631803652719467,1.5330951112242959,0.447153922135707,-0.005223064992913186,-0.3780268497376123,0.12494285442231018,0.31067534899555416,-0.308178602604984,0.010479650069663936,0.5172830391277227,-0.19195990865758705,-1.081239306203322,0.3203125
0.586716064672422,-0.37611972652018566,-0.5257267157412414,0.49385072560232024,0.14380848818481437,-0.002019303842852531,-0.12186715243526472,0.04029874781952864,0.10007939350448793,-0.09919895649467997,0.0030471040073990594,0.1671223500395933,-0.061742945377620866,-0.34836123493882953,0.328125
-0.6656727427050667,0.42756722007154613,0.5972082517264462,-0.5612601314555783,-0.16419634432412789,0.0012337314492768643,0.13823723182286476,-0.045649185675760894,-0.11376376172136508,0.11300309897874067,-0.004499690978581896,-0.18841538912155584,0.0704757752997813,0.39576470100174405,0.3359375
-0.8247504650472736,0.5297793058954511,0.74002737708914,-0.6953270711119093,-0.2033444092481321,0.0016475093388220216,0.17134829441524052,-0.05659250674686136,-0.14095298201507891,0.13998860759579015,-0.0054591512295377904,-0.23360622916435214,0.08728033808041959,0.49045089744645515,0.34375
-0.11593239269092559,0.07504183826152894,0.10471666728716589,-0.09815940085148846,-0.02902876207544044,-0.00019327879258149912,0.024182811276490947,-0.007969973672896064,-0.01993744694404155,0.019905581686386384,-0.0011887827288540574,-0.032389423862382694,0.01245302508996985,0.0694663574017003,0.3515625
0.42256909116273417,-0.2705247434716207,-0.3780782751248056,0.3556289285826618,0.1034185648495063,-0.0015923332174882943,-0.08769624133279948,0.028992679751655856,0.07201791343654061,-0.0713401777791414,0.002055616794063754,0.1205034026730262,-0.04439516511088997,-0.2505053393836282,0.359375
0.2396992103843144,-0.15329368717632197,-0.21425603930617448,0.20179048819847126,0.058440635150748,-0.0011178083113597898,-0.04977869892858988,0.016465224279310936,0.040790496147286325,-0.04036559144624864,0.0009539978307111425,0.06857707644507374,-0.025088599339479337,-0.14200167252740764,0.3671875
-0.3050607289084617,0.19605854627264216,0.2740057685170114,-0.25687163512212546,-0.07554486568549826,0.0002969640433479051,0.06333160514798317,-0.020898570405527846,-0.052254899214974046,0.051901853768584943,-0.00232694180832382,-0.08613036978316962,0.032402225744368116,0.1815203410404875,0.375
-0.6972239286877948,0.4474195066812796,0.6254353429347586,-0.587076210074935,-0.17197390064132076,0.0013155153841913276,0.14475961553576344,-0.04779216734045534,-0.11925075120416688,0.11828536461047129,-0.004688207604620657,-0.19750418513032758,0.07376469592514459,0.4144223009076525,0.3828125
-0.8855978929136454,0.5681058693009321,0.7941384966431156,-0.7458138153496198,-0.21827484607717657,0.0018047921260044353,0.18385566474657924,-0.06070667097404679,-0.15143058918527932,0.15016574399540744,-0.005823048744410619,-0.25098357688851625,0.09363063381027709,0.5263049381787775,0.390625
-0.9323710343502623,0.5981426690843987,0.8359498696957246,-0.7853789309465921,-0.22978454235253773,0.0019263489300195156,0.1935582024270163,-0.063916302792461,-0.1594042502617639,0.15811451143558342,-0.006105463240241977,-0.264255686532109,0.09858016999629819,0.554114772125734,0.3984375
-0.6308664162263649,0.404796545605093,0.5655851870919099,-0.5315158260513791,-0.1556560094318731,0.0011432521292814093,0.13095230448235884,-0.043230509203682044,-0.1078920806654805,0.10706354600441913,-0.004288359897708975,-0.17864885646686973,0.06676599454397437,0.3749853377900883,0.40625
0.1478602515855294,-0.09482100120387885,-0.13260296992179027,0.12438332211268814,0.035867059925164355,-0.0008793998154429674,-0.030751760126601305,0.010206355079072823,0.025098233727139468,-0.024882824711187575,0.0004044226779441793,0.042473029475682614,-0.015442851735642268,-0.08772284133544331,0.4140625
1.0736399797507952,-0.6888259207029804,-0.9625889992976139,0.904168828058185,0.2635689159503806,-0.0032838557161506856,-0.2229884100258992,0.0737298947284334,0.18317612652200443,-0.18175058046232526,0.0059820151306952335,0.30534093775791393,-0.11317540574710404,-0.6377684240270595,0.421875
1.4942139311678166,-0.9586356317710154,-1.3395814293236006,1.2584934123374283,0.3669966893019945,-0.004376107146690873,-0.3103147487477819,0.1025802051343956,0.25498627464695506,-0.2529897033829288,0.008515706445471775,0.4247182552595596,-0.15756812448051238,-0.8875970148627926,0.4296875
0.8974493678842826,-0.5756729068028489,-0.8044421233774481,0.7558982925886704,0.22021420436132774,-0.0028262285624380615,-0.18639094272359366,0.06162524279014991,0.1531010912791001,-0.15185938880429561,0.0049209705430264435,0.25525559068886294,-0.09456988084471248,-0.5329870641180661,0.4375
-0.4005207364640678,0.25724437891972135,0.3594506964390642,-0.3375655647425907,-0.0990003174499657,0.0005449685420579243,0.08315920162945643,-0.027446840049883403,-0.06851618135740818,0.06805620951327628,-0.002899869356002005,-0.11320569286155423,0.042455346198172705,0.23827165479332088,0.4453125
-1.1006034477036575,0.7066638936232303,0.987414578957687,-0.9275835332306795,-0.27117563376757176,0.0023637339738069338,0.22858722685379562,-0.07550989660283405,-0.18806457660875392,0.18669607962522677,-0.007121252761412497,-0.31188757184534344,0.11639128005614158,0.6544150566603645,0.453125
-0.3629669623236746,0.2336546416604279,0.32634165089956185,-0.3063850523303393,-0.08979232543548094,0.00044841658037384017,0.07545744449975735,-0.024927799847896136,-0.062123853167222715,0.06178704427813224,-0.0026799003842613595,-0.10246926126023667,0.03856635943780303,0.21636174201694638,0.4609375
0.739120553120067,-0.4733644332963247,-0.6616919118089003,0.6220731834464898,0.1812242711989759,-0.0024140129728316795,-0.1533965217718322,0.050682280132933785,0.1260648723564787,-0.12489574984910909,0.003960678827861409,0.21035854231423864,-0.07776080915728295,-0.4384145353600809,0.46875
0.6207199990189023,-0.39754262683334285,-0.5556849825174974,0.5225031371176099,0.15211278839637593,-0.002106949818589131,-0.12883574039359352,0.04257621743621234,0.10585315427310385,-0.10487223778348238,0.0032493057488259865,0.1767255391601012,-0.0652833938259117,-0.36825664975895456,0.4765625
-0.2255513019753024,0.14516661693730679,0.20278046397372695,-0.1901892878071235,-0.05599330300499072,9.058777236701743e-05,0.04685911157543129,-0.01545661543577422,-0.03866255506502363,0.038439149560976216,-0.001848311136001852,-0.06351852465058008,0.024022057613747618,0.1342968898312541,0.484375
-0.07436406587068227,0.04790261026143762,0.06692230092968077,-0.06254861087335747,-0.018800131946844083,-0.0003023879022098992,0.015406251335084572,-0.005047887549483145,-0.012863795243197935,0.012787727239038168,-0.0009362844148151985,-0.020625340223128383,0.008036017591867234,0.04430208861501546,0.4921875
0.8270947474006529,-0.5306508085858638,-0.7414603656566241,0.6970444502671163,0.20290722293938204,-0.0026437802923821615,-0.17183116059592815,0.05682309202454092,0.14105436031203744,-0.13994906870163717,0.004496103991300922,0.2352564082209514,-0.08714640255375497,-0.49128311165402994,0.5
0.5115341134366015,-0.32822411287064435,-0.4584964906589757,0.4311369560037738,0.1253154876737043,-0.0018239267304782903,-0.10629226494217048,0.035165182283535185,0.08716290655291889,-0.08650162616480409,0.0025941803721653465,0.14570142595652147,-0.05384236764141976,-0.303670046678307,0.5078125
-1.177891469424533,0.755736757750336,1.0561620351335315,-0.9922805970812791,-0.2901512288298895,0.0025641853086894374,0.24455567750119714,-0.0807591484485496,-0.20131403180568402,0.19969500723093403,-0.0075858504255913875,-0.3338449449497791,0.12450089377090696,0.7000732193735456,0.515625
-2.138664887603412,1.3721271326799467,1.9172950315851756,-1.8017724549469878,-0.5264183276558735,0.005059364657336507,0.4440605148815587,-0.14666904778061357,-0.36534967257071743,0.362447607387663,-0.013373143012378646,-0.6065936611695192,0.22591286445598197,1.270665208412377,0.5234375
-1.4054880708548625,0.9016632759486994,1.2598184679355524,-1.184157508691829,-0.3461004567037505,0.0031548657365432432,0.2918079202327424,-0.09635908175434867,-0.24013738464425408,0.23823544829943072,-0.00895301193624966,-0.3985181311170402,0.14849847381335785,0.8349232955360344,0.53125
-0.20687174639316125,0.1327167728922405,0.18551136017355882,-0.17448171948802,-0.05134439912715567,4.2023751961639834e-05,0.04294697814464511,-0.014148832175034135,-0.03548002100950337,0.03519909367355469,-0.0017313426544980862,-0.058301152795877664,0.021976852659513862,0.12302507121508383,0.5390625
0.687055765574932,-0.44064259499671243,-0.6155240092905748,0.5785136962652504,0.16846535644402327,-0.0022793394928199554,-0.1426537959581668,0.047151823405402415,0.1171431948260016,-0.11620639198194059,0.003652391452135025,0.19546672889498967,-0.07235462079493489,-0.40777066728297706,0.546875
1.7781562522290746,-1.140608590067517,-1.5937312379244404,1.4976858128935628,0.43678528341649725,-0.005113434461992409,-0.3692557300279082,0.12201813477654601,0.3034666401156672,-0.3010316935234786,0.010225833441471493,0.5052235149596396,-0.18751381740757028,-1.0560338340678277,0.5546875
2.569528835266469,-1.6483733093621384,-2.3033982123171426,2.16439542063822,0.6314104197576772,-0.0071693572406149484,-0.5336154528085093,0.1763364107777941,0.4386237054927928,-0.4350917349720309,0.014994925178324467,0.7298811532052609,-0.2710575587725144,-1.5263749773014401,0.5625
1.5131095552802463,-0.9705025504539182,-1.3561315649232832,1.2744705553812496,0.3715975678741758,-0.004425467429262216,-0.31420820802351695,0.10384782690011779,0.25823360501296727,-0.2561018162811795,0.008629084411728705,0.4299912949963322,-0.15953541876955438,-0.8986826054986697,0.5703125
-0.9627556131105514,0.6182408198282521,0.8639380605635497,-0.8112455384191467,-0.23730799249809306,0.002005687039416623,0.1999802993812584,-0.06605173301061727,-0.16454970171474878,0.16336590683895047,-0.0062909572560542314,-0.27281859269610054,0.10184974375603527,0.5724724432415783,0.578125
-2.2065733631963638,1.4165146357605714,1.979240488563581,-1.8591339620764826,-0.5432008277388449,0.005236655997494622,0.4582923762101401,-0.15140626915525038,-0.37693160150030247,0.3740966229347121,-0.013787133724594742,-0.6258375783707508,0.2331776009799715,1.3115254062439696,0.5859375
-1.1681568194006313,0.7503876385838202,1.048212244081153,-0.9845164516058186,-0.2878083581295415,0.002539547594134996,0.2426432791715974,-0.08015711946454093,-0.19959206920979794,0.198179251165524,-0.007531548815969981,-0.3309602988921474,0.1235729740252251,0.6946117586494346,0.59375
0.10373784334170696,-0.0657104758501144,-0.09223347325609513,0.08685749741042284,0.025003134286494096,-0.0007640300885856548,-0.021514680566405018,0.007117736908564124,0.017597101429162463,-0.01730141584779971,0.0001311798734429716,0.030166875685154707,-0.010692607595074352,-0.06095617021549586,0.6015625
-0.06865417043486656,0.04462782169705676,0.06199780673248015,-0.058227568957980945,-0.01738459112103993,-0.00031627477615859666,0.014238227239306117,-0.0046887092411711274,-0.011862633781896314,0.011864569525949414,-0.0009062997540591381,-0.018792192362406993,0.0074798367700141056,0.0414061037747535,0.609375
-0.5226344003294909,0.33545588671979054,0.46853427493045396,-0.44038643377900927,-0.1290309955003101,0.0008626385202736418,0.10848781188922563,-0.03580083646515176,-0.08941586032459548,0.08870425018404375,-0.0036377889570241924,-0.14777715920599535,0.055351205263353284,0.3107983440009705,0.6171875
0.29078585375798366,-0.18685891739687543,-0.2610400944215839,0.24506958170060367,0.07101063097790976,-0.0012506334820615221,-0.060435440335743475,0.020039601489929473,0.04945559576041329,-0.04915100890465503,0.0012671300999537417,0.08299994859861223,-0.03056485291749083,-0.17279842832324824,0.625
1.5745724128744747,-1.01074776079725,-1.4120136553067737,1.3266630243163977,0.3867429455070045,-0.004585626584304608,-0.3270573796035398,0.10813206054483317,0.26866219060062346,-0.2666457820282241,0.009003828413085512,0.4473418795820815,-0.16610578143000723,-0.9356327566564734,0.6328125
1.5842437438839636,-1.0169148351045014,-1.4205367894172647,1.3348648082632248,0.3891427184896788,-0.004610922594410632,-0.32908950790140945,0.10878625992246453,0.27031963822636884,-0.2682671539970724,0.009062085834357424,0.45003554716890465,-0.1671255235341173,-0.9413702417120706,0.640625
0.2045598010998073,-0.13147190243629767,-0.18334014813863372,0.17255335781070005,0.04983390262421745,-0.0010271354580375879,-0.042533127007368006,0.014096975754959148,0.03474134816792586,-0.03450862296460709,0.000748502412705959,0.058358865850320796,-0.021467980271226,-0.12161660547473159,0.6484375
-1.2794525569355497,0.8210226418065073,1.147501582150058,-1.0777926893452747,-0.3151575891215271,0.0028277041602284263,0.26572273200087404,-0.08775978452270491,-0.21864289205418666,0.21694137479013625,-0.008194837560300013,-0.36287736204959203,0.1352188115621585,0.7602411544341837,0.65625
-1.8791943923580772,1.2061092343372075,1.6854056857016397,-1.583278889256739,-0.46264823609303585,0.004385533417138161,0.39027281012751064,-0.12892894686414913,-0.32101475413283087,0.3185859827340752,-0.011810813740938897,-0.5330294631430458,0.19855958969590354,1.1167773489216857,0.6640625
-1.4286318143537693,0.9171186070313536,1.2813178255387048,-1.2039245508275027,-0.35178937409997735,0.0032152943779167305,0.2966466295162257,-0.09800642123941679,-0.2440383368779412,0.24225866321842557,-0.00909711244948562,-0.40501478400876184,0.15100134722149078,0.8491711131183034,0.671875
-0.3029740690798354,0.19488845523887682,0.27195447091871516,-0.2557872894039789,-0.07493466665179306,0.00029191700964517213,0.0628812674992743,-0.020762630445352148,-0.051817676098672785,0.05153880278653325,-0.0023146786403234073,-0.08539801260821812,0.0321690094672593,0.18041090333250107,0.6796875
0.8039730593225985,-0.5152289644518505,-0.7202620382602267,0.6766794317611713,0.1972303475465104,-0.002582636751953334,-0.16691662218843448,0.05517179071053031,0.13716532953295463,-0.1359772875387102,0.004353909296013442,0.22885574979110335,-0.08465478086180243,-0.4771215868423961,0.6875
1.3752681063443881,-0.8816046080255392,-1.2320713963498091,1.1580380947953601,0.3376359077201806,-0.00406616452956379,-0.28549437531824745,0.09434468842984854,0.23467028294380907,-0.23271245109583813,0.00779398577162429,0.39101321781290543,-0.14491024377948006,-0.8163867566868067,0.6953125
1.4381388034826819,-0.9219404801205695,-1.2883737877729586,1.2111652957738879,0.3530726827104472,-0.004229581134847302,-0.29856730408390825,0.09865896123574878,0.245384135794099,-0.24334397729121165,0.008172127436729744,0.40883566847270236,-0.1515299328616888,-0.8537523737824771,0.703125
1.133022380113117,-0.7263809159995539,-1.015129988763481,0.9542322136517708,0.27807860079704216,-0.0034374145895390246,-0.23526248521660809,0.0777517664160506,0.19329403716610663,-0.1916895377186942,0.006335041356724245,0.32222881380261037,-0.11935486361068101,-0.6725928214354486,0.7109375
0.3830848938356016,-0.2454501847305172,-0.3431141725534356,0.32252355484114015,0.09369114909069941,-0.0014898722719309033,-0.07957586406373651,0.02632378178731419,0.06525260050741938,-0.06468764317004948,0.0018177883299381804,0.10936144379718876,-0.0402315755446255,-0.22710838215376208,0.71875
-0.5864803775110129,0.3764286253693413,0.5259542251965528,-0.494102459034453,-0.14473429398487944,0.001028119903881936,0.12174105691675444,-0.04018623340827662,-0.10031441238793631,0.0995390217242408,-0.004023107480944107,-0.16591890326036945,0.06208945984021141,0.34882884589064483,0.7265625
-1.0746583945461274,0.6894061186114093,0.9634822240506754,-0.9051124584502083,-0.26477199444416477,0.002295708950140329,0.2231102394432894,-0.07366825004078777,-0.1836941342740792,0.18220782620422346,-0.006962249984522627,-0.30461759540563876,0.11358770143413378,0.6386067065856538,0.734375
-0.8402897900658081,0.5388346865798158,0.7531979337250443,-0.7075865520022224,-0.20710603889090717,0.0016866190664867246,0.17444061954056897,-0.057572451392946804,-0.14367264458982945,0.14246675184058247,-0.005547290484226968,-0.2381680018437883,0.08881101468727158,0.49909316832954964,0.7421875
-0.62389063875118,0.40002264562428835,0.5591238523948279,-0.5254404954125093,-0.15387828392328592,0.0011244386431972534,0.129501863330834,-0.04272386285733824,-0.1066929530627783,0.10581411925684038,-0.0042428125589041125,-0.1767289940160388,0.06596645114854373,0.3704809160763067,0.75
-1.0347695543951143,0.6638532712907521,0.9276377035172486,-0.871745582799991,-0.2549456458328228,0.0021917899724567427,0.2148354331244736,-0.07093451767698764,-0.17683105280542577,0.17547350654040722,-0.0067200161937643905,-0.2933477161738751,0.1093712569104528,0.614739590351232,0.7578125
-1.3197022014842523,0.8468094489308426,1.183348477238453,-1.1118056391241098,-0.3250419140877318,0.0029320645121591127,0.2740279401140376,-0.09050356297645919,-0.22548581709940158,0.22377562342299046,-0.008437658898095945,-0.3742528490354237,0.13947119251037982,0.7841383195471072,0.765625
-0.24457648652537764,0.15705430381269658,0.21963280523447082,-0.20614140227209626,-0.06064741840207045,0.00013975396715901073,0.050780407881227854,-0.016741998228304678,-0.041907594945493634,0.04162747219730549,-0.001959557649640773,-0.0690354131583687,0.02598687001046061,0.1454165121612458,0.7734375
1.7230782722685374,-1.1052435111177816,-1.5443836744346202,1.451232076658028,0.4232407407217789,-0.0049705230992610995,-0.35781860965762535,0.11825472607798512,0.2940782377034427,-0.29170841890724303,0.009894731920756131,0.4896232552052658,-0.18169423617786926,-1.0234857995520827,0.78125
2.4356166634377407,-1.562130233409618,-2.183105666890597,2.0512586403286592,0.5984500827857794,-0.00682050691253193,-0.5057560407976092,0.16711658723488826,0.4157394857442455,-0.41237252036858774,0.01418502229452656,0.6919689151084681,-0.25686971880649295,-1.4465503404590403,0.7890625
1.032577778675568,-0.6617451499760935,-0.9250255844008636,0.8692686027640728,0.2534039305667142,-0.0031759077677763585,-0.21435819489291788,0.0708255179961196,0.17616267101563407,-0.17465295731155916,0.005729803022020226,0.2936895098367656,-0.10875256760518244,-0.6127688694682067,0.796875
-0.5745012794430994,0.36937975145107926,0.5159550386574018,-0.484510241635232,-0.14177997678334087,0.0009978106805558146,0.11936683730223986,-0.03943710471356002,-0.09822331306053135,0.09757762508461203,-0.003952833657154479,-0.1624912967349301,0.060873060349427965,0.3419995842912491,0.8046875
-0.5261577474994181,0.3383122013745841,0.4725962149576895,-0.44375526618364997,-0.1298561014940086,0.0008715367889849245,0.10927593928298565,-0.03609735130530557,-0.08993691016219069,0.089358200023568,-0.003661830049414984,-0.14868306271823464,0.05576435319579314,0.31314853340066956,0.8125
0.2509058950910314,-0.16037165117788804,-0.22429344873332532,0.210987200892128,0.061224409388371176,-0.0011468326345338634,-0.05212872779252287,0.01723830439613326,0.0427244318520058,-0.04227333028754478,0.0010187415327411393,0.07193119323567722,-0.02625202472042629,-0.1485326632650375,0.8203125
-0.020807054682790642,0.013672886053215063,0.018978273673433386,-0.01758543643452861,-0.005642772667161534,-0.00044072022951465356,0.004294506762878916,-0.0013883439373409052,-0.003740200210869527,0.003762466663610664,-0.0006178188679908342,-0.005304638507500496,0.00241310562404224,0.012917634152641895,0.828125
-0.8918028520544323,0.5721324506061894,0.799566710164327,-0.7510276861392002,-0.21984994785213618,0.0018214254508863135,0.18516148632899893,-0.06112688008149389,-0.15250048702657254,0.15126176339435593,-0.005861929568098561,-0.2526890019276572,0.09430230260580039,0.5302155935480668,0.8359375
-0.7653697357919168,0.49079292292539783,0.6860990843011775,-0.644447614112724,-0.18872971771503072,0.0014923694877230602,0.1588845841122399,-0.05243582659120516,-0.13089485760012362,0.1297719806220766,-0.005096262038082618,-0.21686453078733628,0.0809152077507279,0.4547942795531164,0.84375
0.257041970234978,-0.16516503691379394,-0.23042897391498193,0.21679443680702748,0.06270555012135627,-0.0011634693998033242,-0.05342248150026368,0.01770469519570966,0.0436932452723679,-0.04343109580286556,0.001064753295805594,0.07332069695780451,-0.0270046274738511,-0.1527692445841756,0.8515625
0.7382023207449918,-0.473722041732872,-0.661613786001978,0.6220745237347924,0.1810007391269585,-0.002412902504672801,-0.15329260666907257,0.05069283947343163,0.12583816422196809,-0.1248754326347959,0.003962462315741323,0.20984509484741373,-0.07776659300623998,-0.4385445543169422,0.859375
0.1428626910058642,-0.0915796352911669,-0.12779167050662035,0.12038929315834901,0.034593032980280214,-0.0008664562366721106,-0.02963824077375919,0.009834011248495637,0.0242053004400996,-0.023980853192876492,0.0003746779888629884,0.04085984881723577,-0.014908715097011296,-0.08478467685572627,0.8671875
-0.8574552169378815,0.5503564877693614,0.7689235322306234,-0.722585500117352,-0.21135567421494497,0.0017314522782987736,0.1780541431178624,-0.05878852308395495,-0.14653117592374834,0.14545845197927545,-0.005652208496035992,-0.24296899328768604,0.09068127030526581,0.5094611722811969,0.875
-1.4507765811869036,0.9311095006389333,1.3007488086013552,-1.222610259640049,-0.3572303662596755,0.003272457488382198,0.3012203313654623,-0.0994866198614401,-0.2478001649751804,0.2459594251104476,-0.009227834314590105,-0.41126694064569336,0.15331794615552682,0.8619872381944723,0.8828125
-1.0820147307879149,0.6945920270149631,0.9702521292089316,-0.91198233295702,-0.26655899630118096,0.0023150785272987766,0.22465180582475017,-0.07419583153710638,-0.18485273138326366,0.18352650163822554,-0.007008259488528569,-0.3065553407399764,0.11441590528863971,0.6430939274561657,0.890625
0.2865870085316987,-0.18338236107553949,-0.2565102832931579,0.24091598061198943,0.06999754620393665,-0.0012391555924507285,-0.05950951630013222,0.019684729929719754,0.04881384734616507,-0.048299981667032685,0.0012360794437536481,0.08194713014614476,-0.030034487385360627,-0.1698473986254651,0.8984375
1.6646049589142446,-1.0674545025945876,-1.4918937358957793,1.4016938626549482,0.4089047625375727,-0.004818042891306929,-0.3456486911412679,0.11422532484851475,0.28411427786700816,-0.28178091037483016,0.009539294946173097,0.4731504701750927,-0.1755046594313379,-0.9885473228849372,0.90625
1.667322923983997,-1.0692578984229544,-1.4944147974532969,1.4040800418484631,0.40957292019377844,-0.004825015389337837,-0.3462213321650125,0.11441806317709141,0.2845684771419512,-0.28227231253150376,0.009556753011551712,0.4739185555089214,-0.17580487154262286,-0.9901862394719408,0.9140625
0.2657045864828597,-0.17002542271506588,-0.23766779959144418,0.223649548844718,0.06482371612107075,-0.0011847739366388345,-0.05516018578882422,0.018246345670544305,0.04520514499219059,-0.044793402090045654,0.0011112728492857305,0.07596853226108488,-0.027840159455834124,-0.15736248240596484,0.921875
-0.7657773028393637,0.49183549176366725,0.6874532253412469,-0.6450681274626878,-0.18889480939059825,0.0014939308092904663,0.1590528795594821,-0.052544042487818354,-0.1309450152342595,0.12999512803786983,-0.005105105775053467,-0.21690809961036894,0.08106449301019213,0.4555954203461329,0.9296875
0.020229108696876368,-0.012493735123153561,-0.017177974446194445,0.017054918061250153,0.004419521285271236,-0.00054764002813272,-0.00417672754693144,0.001382913467863169,0.003262446518113299,-0.0031794049752083267,-0.0003695963894494185,0.006212303231300301,-0.0019109241711500087,-0.011382752263535287,0.9375
1.5017260031660595,-0.9633143352165265,-1.3458252147478142,1.2650793441676016,0.3688032444195547,-0.0043953500542282895,-0.31186996093534003,0.10306334965608081,0.25621761522342074,-0.25422446509806934,0.008558069000938499,0.4267908039958001,-0.15833209654253164,-0.8917203504634876,0.9453125
1.2144854502474614,-0.779368572995257,-1.0887477167762682,1.0232508222428178,0.29817709104927237,-0.0036494769437690287,-0.25226757025343455,0.0833955859464124,0.20715937320513064,-0.2056060341464857,0.00682926214168475,0.34524817127806146,-0.128043733961663,-0.7212604831788603,0.953125
-0.9374732590812912,0.6012406308360515,0.8404311120158114,-0.789519497759559,-0.23105582953605186,0.0019393375151671175,0.19460631141084633,-0.06424170669250183,-0.1602722265797535,0.1589568766113279,-0.006134974593511956,-0.265662799703999,0.09910286078844456,0.5571178288173696,0.9609375
-2.1336027291574524,1.3688526486931298,1.9128169574057399,-1.797356748686953,-0.5252143292906202,0.005046079453163577,0.44303818753832236,-0.14632682803430874,-0.3644803469741886,0.36161123004126555,-0.013340691441323226,-0.6052371157133222,0.22536694421118955,1.267701076483767,0.96875
-0.8723324140983665,0.5598646120853534,0.7820940345960803,-0.7351370533646867,-0.21502856580244026,0.0017706597253483237,0.1811716847329106,-0.05981065234970367,-0.14909779309179594,0.14796500429307818,-0.0057416857575746895,-0.24719000888490353,0.09224501797077773,0.5183591297754416,0.9765625
0.5756176254499747,-0.3689473264246836,-0.5158681789189751,0.4845158105933152,0.1410601643032939,-0.00199012815794442,-0.1194981356755351,0.03952526684600732,0.09816058961232459,-0.09730150842490737,0.0029807505192110282,0.163888702758391,-0.060571787687139576,-0.3418810176529995,0.984375
-0.13502997610199852,0.08708135861410056,0.12138418934120096,-0.11410799537424296,-0.03369210360687299,-0.00014493376469586653,0.028044207442854616,-0.009231229909949427,-0.023152537312547215,0.023104268941398425,-0.001301785017662705,-0.03780367668052472,0.01445315581365669,0.08031502843726254,0.9921875
-1.6715424307803004,1.0728389831944039,1.4987986543708407,-1.4084687664268625,-0.4115273862069862,0.0038457254089379286,0.34708057679675014,-0.11464715428135479,-0.28550309977114524,0.28339084817173077,-0.010558472674132742,-0.47398205615933947,0.17662677080984499,0.993177638844351,1.0
-1.4777334570336293,0.9483994628621386,1.3249455615533337,-1.2452326296759144,-0.36385701476241883,0.0033428531754473418,0.3068306524053338,-0.10135032505481611,-0.2524383397775607,0.25054023817307036,-0.009390298668707853,-0.4189888042246727,0.15615846902400773,0.878091652165019,1.0078125
0.20817676686894077,-0.13326003750705745,-0.18628219117395756,0.17503362881050893,0.05070900745563642,-0.0010356617873288477,-0.04323997920217859,0.01431209027629697,0.0353958786430129,-0.0350592407300904,0.0007658858659779305,0.05959217808389315,-0.021779290033600282,-0.12342226285523328,1.015625
1.4915869080247546,-0.9566569361241996,-1.3366045704996137,1.2563468691009907,0.36628065020120226,-0.004369191966713219,-0.3097303497797568,0.1023612135667827,0.2545186888531255,-0.25245573059871723,0.008497097465929533,0.42391180631748127,-0.15723054269845663,-0.8858178444263164,1.0234375
1.9690291674269047,-1.2630399537511259,-1.764661280335029,1.658717664496965,0.483684213436606,-0.00560918747178945,-0.4088726578999373,0.13512133402909618,0.33602837151861426,-0.3333353918916809,0.011374204246696612,0.5594194040003796,-0.20763998114571583,-1.1694023104342233,1.03125
2.1008527370021213,-1.3476159361208233,-1.882912976262438,1.7697927885984082,0.5161248812323261,-0.005951204524961258,-0.4362494678309155,0.14416484838159851,0.35853165135524934,-0.3556871146813079,0.012168688194763404,0.5968580063065996,-0.22157079974475735,-1.2476256131376542,1.0390625
1.3717010006701764,-0.879614524622082,-1.2290439361181513,1.155398191408376,0.33682655433966746,-0.0040572389983936545,-0.2848284998292649,0.09412438686168689,0.23404426689918745,-0.23216856619998538,0.007773536935290503,0.3899607248325723,-0.1445872877475471,-0.8143060820474357,1.046875
-0.38736371597046626,0.2490835317920581,0.34805224560028136,-0.32661236314653713,-0.09576943013830243,0.000511371883523496,0.08045624212415442,-0.02657244842287681,-0.06629982312957967,0.0658447640442984,-0.0028265226715608965,-0.10932951732729235,0.0411126245987261,0.23082554079764558,1.0546875
-1.6431175188694278,1.0545029321655066,1.4734801388194314,-1.3844211506094959,-0.40459109851698144,0.003772704753715667,0.34119328277061506,-0.11271012790479981,-0.2807311394962679,0.27856767036322966,-0.010390594721399627,-0.46585935793879457,0.17364120899930696,0.9767688407540674,1.0625
-1.3485433129436049,0.8651413818064775,1.208971270069496,-1.1360282576664218,-0.3321424411398853,0.0030074193626364086,0.2799819379899457,-0.09246764520293196,-0.23045411706386215,0.22861523755671687,-0.00861215295846521,-0.3823410513323618,0.14250110127996124,0.8015243114317226,1.0703125
-0.630014703542645,0.4040883583669189,0.5647914729554784,-0.5305820271435067,-0.15543154399875833,0.0011410069606881585,0.13077546751868582,-0.043158087618940515,-0.10776203471823308,0.10686025635270771,-0.0042815131494974915,-0.17841145806662143,0.06664181729752777,0.3744301509367911,1.078125
-0.5370918551008763,0.34466021812795367,0.4816210857930136,-0.4524428381259542,-0.1325723488244884,0.0008996192252880816,0.1115162231864463,-0.036792339091376275,-0.09187057931478337,0.09113898527218035,-0.0037223026759504894,-0.15201291275058731,0.05685152503976195,0.31911466728787174,1.0859375
-0.39562364821516904,0.25399436657597774,0.35470093864063684,-0.33354579264850687,-0.09777224839553773,0.0005322238377250803,0.08214374288586085,-0.02709122095796191,-0.06769110654116847,0.06720235359923285,-0.002870180226830906,-0.11183013271469819,0.041933585059818,0.23501476583960743,1.09375
0.1591532491471698,-0.1019174932730461,-0.14272020470655905,0.1336868777550049,0.038659689502442085,-0.000908803984505247,-0.03308931505545027,0.010972976314182054,0.02705330902173014,-0.026772151778917876,0.0004726036379551556,0.04566663136301803,-0.01661805377969341,-0.09458915371864614,1.1015625
0.3096761072899194,-0.19832709727262202,-0.2773715107276403,0.2605641661593587,0.07565021870461815,-0.0012998429426690902,-0.06432791064164979,0.021285727878814206,0.052759771763747104,-0.052249359179591295,0.0013785320792864672,0.0883975125104115,-0.03248704523049436,-0.18392038019594575,1.109375
0.2719975236950377,-0.17398992981098796,-0.24330261154584132,0.22886642041605368,0.06635986101286269,-0.0012017672422745148,-0.05643477230380407,0.018678473081141237,0.04631551801439289,-0.04582786559394336,0.001150105813081565,0.07769611179741687,-0.02849593394586774,-0.16139170793605365,1.1171875
0.9937687541959805,-0.6371713835408855,-0.8904955051396706,0.8368175417173301,0.2438866499364244,-0.0030762155391739717,-0.20630685768509674,0.06820122686870882,0.16955063292666547,-0.16810641081196107,0.005498931159516918,0.2825980722451575,-0.10470243528812367,-0.5901495854678899,1.125
1.221756313779154,-0.7836315351342943,-1.095047350308585,1.0288552342410244,0.30000806457856044,-0.00366852520413806,-0.2537221595474381,0.08385998610686941,0.20848837181925506,-0.20677568919475345,0.006873171210483841,0.3473510951378868,-0.12879517304242408,-0.7255759602600809,1.1328125
-0.7948505212269965,0.5103002641516614,0.7131747200761269,-0.6698115704163614,-0.1959261371059196,0.0015691021223607912,0.16501272305096956,-0.054511827761177085,-0.13585088825430133,0.13485339437227392,-0.005278442211451578,-0.2250978164696183,0.08408371463517728,0.4727083692277986,1.140625
-2.824351611047769,1.8126816505359111,2.5331119241520534,-2.379327287534499,-0.6950995527730501,0.0068407469857872496,0.5865156495791659,-0.19379194158530083,-0.48242508620759394,0.47872992076278564,-0.017508992174544977,-0.8012482211047458,0.2983551918889297,1.6787467782918144,1.1484375
-1.2650649094362396,0.812264768200697,1.1351372859040803,-1.0657470136109002,-0.311680554807373,0.0027913101011145316,0.26275456224289656,-0.08681270824556098,-0.21621204638232466,0.2145985938031168,-0.008114728442705615,-0.3586295458796157,0.1337789394919337,0.7523829058258928,1.15625
2.2538524545600844,-1.4457850761335542,-2.0201456130158655,1.8986070759934779,0.5537326886977654,-0.006348419816959887,-0.46802434110661706,0.1546625457084337,0.3846403825336082,-0.3815993148034287,0.013089482215458519,0.6403018828121934,-0.2377010586212886,-1.3385515133758903,1.1640625
2.958984249566849,-1.8985346333448245,-2.652687916249657,2.4927016752989983,0.727180662406266,-0.008180211823768492,-0.6144911238808293,0.20307843621578756,0.505046929397928,-0.5011277098808896,0.01734092680229836,0.8404505401602868,-0.3121809016049783,-1.7577540098146642,1.171875
0.7317686855063126,-0.4696610568059075,-0.6559754724400791,0.6165786882798745,0.1794527037722472,-0.0023956671507905846,-0.1519713106365567,0.05027114469540963,0.12474546353018247,-0.12383006980386091,0.003923051400929093,0.2081612538849846,-0.07710443242452589,-0.43456594751363753,1.1796875
-0.5914033060870694,0.37937166544440454,0.5302984950042522,-0.498124514938901,-0.14595567401089835,0.0010408087871300498,0.12280342127130149,-0.040517615270857746,-0.10117047825805284,0.1003448375139861,-0.004049413611044816,-0.16743873212298566,0.06257373501313206,0.35156654189728603,1.1875
-0.33147504573267045,0.21274250740780545,0.2971481003266418,-0.2793628630258909,-0.082013255859179,0.0003653461027755073,0.06878315089258437,-0.022677244667035905,-0.05674232571668169,0.056314331509999024,-0.0024839550694861056,-0.09357017384018004,0.03515651159762857,0.19702114875354237,1.1953125
-0.8486205757875345,0.544658224202805,0.7606390367414435,-0.7152041499431999,-0.20916961017171784,0.0017083841315084598,0.17614595298047026,-0.05815456699835863,-0.1450114525798372,0.1439254481570441,-0.0056001119863678655,-0.24031261664258263,0.08976074297658428,0.5041309333431043,1.203125
-1.9586900878084246,1.2569417994752299,1.7558350381441852,-1.6504058071462884,-0.48215881606220434,0.004591804848132281,0.40668948374619296,-0.1343259419975452,-0.3345564336306798,0.33199758212615693,-0.012288280763662146,-0.5554446161198752,0.20693825600137525,1.1636476190411047,1.2109375
-1.5294070407168858,0.9815471502201377,1.3711375070810283,-1.2887548324997569,-0.3765845466175929,0.0034770781904627395,0.31758072866588066,-0.10488664983326915,-0.2612652984928256,0.25928745567978023,-0.009701845059237001,-0.4336258600324074,0.16161617088658492,0.9087189680413392,1.21875
0.0919388884175944,-0.05864076801059767,-0.08213701424368366,0.0770739288451463,0.022149089376662736,-0.0007339664339521565,-0.01909383469641496,0.006339073552697858,0.01557852845092238,-0.015375846308093404,6.59463447221883e-05,0.026615515977972702,-0.00952610628924829,-0.05439606029267022,1.2265625
1.0486916759129177,-0.6723556130408435,-0.9395310057828877,0.8829639037932852,0.25742288488158005,-0.003218794878701371,-0.21776246096626678,0.07196088457329314,0.17893922507907922,-0.17743750796801191,0.005828504247109127,0.29823350248566577,-0.11049243557366815,-0.6226129447631129,1.234375
1.2286576551460802,-0.7876624400361839,-1.1005655900279399,1.034513147608651,0.3016480582581544,-0.003685976723331199,-0.2551175897636003,0.08428644809986026,0.2096565522746422,-0.20788893232662922,0.006910930712567977,0.3493454758740925,-0.12945715354869733,-0.7293036135048213,1.2421875
1.2279944743134656,-0.7871637173055942,-1.099810038952987,1.0340927394331982,0.3014599560418896,-0.003684188851462069,-0.2549674578815693,0.08423049074204196,0.20953048622738005,-0.20775106627659046,0.0069064150576916995,0.349136153041688,-0.1293774889559893,-0.7287923135699919,1.25
0.7119883723132736,-0.4561976799252081,-0.63727146016066,0.5997043877547028,0.17455113600308664,-0.002344102316877617,-0.1478043070456808,0.04883439597106729,0.1214030346442986,-0.12033890846751719,0.0037985952267211437,0.20257942118568015,-0.07492826531587915,-0.4223164051140784,1.2578125
-0.15387977469632272,0.09907576455715933,0.13868987715329903,-0.12946288294373515,-0.03838971611071195,-9.530022858297306e-05,0.03200620264657461,-0.010549473657028378,-0.02647055638145257,0.026316797545999162,-0.0014162440398934565,-0.04329507560698779,0.016438663718348644,0.09187302138762145,1.265625
-0.4378036194676395,0.2809383629121762,0.39284278708567344,-0.368547224242224,-0.10820407778986565,0.0006420510299990547,0.09094740457193186,-0.029998721891599807,-0.07496843823314342,0.07437001224006082,-0.003124868032485733,-0.12392411381975178,0.04637834425765249,0.2603185233019419,1.2734375
-0.33057389265642284,0.21193958067346888,0.2964110779176662,-0.27820072067144463,-0.08181068150804656,0.0003633893765938947,0.06863813125638593,-0.02261773443891071,-0.05666034307047332,0.05615864615901231,-0.0024774372268354756,-0.09347643648928856,0.0350370075564978,0.196459870805488,1.28125
-0.6140025618697067,0.39374816785937816,0.5503327753607788,-0.5170428709521704,-0.15149423262793185,0.0010994122593349352,0.12745703099641467,-0.04205398116822349,-0.10504432972236048,0.10415419435694719,-0.004184916585962099,-0.1738923023787383,0.06495136015284313,0.3648025809419082,1.2890625
-0.8285350730571533,0.5315025770511407,0.7425864221707813,-0.6980247743801493,-0.2042497298123943,0.001656629698100553,0.17199423817213816,-0.05677387292696943,-0.14164713898266373,0.14051396873029942,-0.005478538293944877,-0.23470098095049946,0.08761581098479423,0.49231235929918954,1.296875
-0.4443664264054493,0.2852055446736853,0.3982423302019106,-0.3746847703166369,-0.10977056586618193,0.0006588579767914468,0.09222774877559445,-0.03042293337985014,-0.07600897639053036,0.07545713517850353,-0.0031651120694352526,-0.12555390903266153,0.04708470414988332,0.26416360489289004,1.3046875
-0.22735855791278567,0.1461047787042494,0.20386763246398165,-0.19192474704321735,-0.05639005833769844,9.51526604036584e-05,0.04717960652082572,-0.015542390234138295,-0.03893159854081144,0.038695350770291535,-0.0018576847672988751,-0.06394151718120629,0.02417878678496891,0.13525023131897687,1.3125
-0.35746621706931875,0.22960018249316283,0.32060885273199985,-0.3014031684449588,-0.08837690289197815,0.0004330120999151364,0.07419650120029476,-0.024471548524004596,-0.06115746598649751,0.06072345996667159,-0.0026410256715782804,-0.10091723178943328,0.03790685817006335,0.2124786742083988,1.3203125
0.3497015180898083,-0.22410470034928068,-0.3133571590386941,0.2943146089396251,0.08552875560220043,-0.0014036679209776207,-0.072676473591907,0.02404742130288325,0.05958040509345815,-0.05907117499059785,0.0016190436294174642,0.09984440168953239,-0.03672686614397746,-0.2076268300540979,1.328125
1.7229807916725182,-1.1050770926019755,-1.5443358680107997,1.4510150106203479,0.42324552636630147,-0.004970346978447146,-0.3578592545885726,0.11825444416057823,0.2940826352318904,-0.2916865140186383,0.009891169902070653,0.4897435202475836,-0.18166465636218473,-1.0232561749297755,1.3359375
1.7645213699976672,-1.1315717447305196,-1.5812290741982493,1.4859492581319784,0.4334590823632311,-0.005078019875413242,-0.36644300278216363,0.12107488880277584,0.30118874383062866,-0.2986929406099469,0.010140256168347263,0.5015246594973417,-0.1860450954681429,-1.0476605894382567,1.34375
0.08453771525633239,-0.05364616945524217,-0.07494931884820703,0.0708196529760638,0.020294115526065366,-0.0007143029014788062,-0.017511139235123676,0.0057887763729139174,0.014309282065353467,-0.01407099070300604,1.8882546174516892e-05,0.024522102603142113,-0.008716757559241103,-0.04954643388615959,1.3515625
-1.3071370601783876,0.8391963663762558,1.1725380913954542,-1.1014331501571704,-0.32198335506614656,0.0029004675921747505,0.2715151841764469,-0.08969284193213764,-0.22335663654429183,0.2216952045742177,-0.008364749117065064,-0.3706173748657135,0.1381881794908006,0.7770487088859263,1.359375
-1.2156537208127711,0.7804340674375101,1.0903759754249878,-1.0242770285080132,-0.2994987798963227,0.002662699656774559,0.25250407980970613,-0.08340355861309219,-0.2077519795719056,0.20618416919608967,-0.007812894654218715,-0.34466141193718974,0.1285344458509055,0.7225217725538864,1.3671875
-0.36967219249235067,0.23757334222260867,0.332019729586089,-0.3114537052662929,-0.09143863260048297,0.0004651177956728109,0.07680880907864507,-0.025353152561668396,-0.06330541062901968,0.06284614043754291,-0.0027159527658507654,-0.10451724479561146,0.039221828454339525,0.21990948224987716,1.375
0.4524080360636326,-0.29002509489508843,-0.4049399958628498,0.3812269081131775,0.11073353558122705,-0.0016701699751053717,-0.09391227708423992,0.0310559505510678,0.07704241568617763,-0.07642999115259545,0.002236609324993622,0.1288186258515561,-0.04756824023888345,-0.2684394818389556,1.3828125
0.799197180163146,-0.512719097944573,-0.71602472496884,0.673385406766295,0.19600000050700814,-0.0025707997652115767,-0.16594474544329227,0.054864040370969716,0.13623281536345547,-0.1351816182846749,0.004326084012803881,0.22725114677165204,-0.08417660353563233,-0.4744800040558968,1.390625
0.06878355477146027,-0.044215749574047454,-0.06143898985705909,0.05803904587514201,0.01638047420760399,-0.0006737901161097527,-0.01430126362403824,0.004771705247962878,0.011529945551729396,-0.011468492312716289,-7.325797557035006e-05,0.019938140599127595,-0.007088247280420919,-0.040626138206974964,1.3984375
-1.1544048803569036,0.7405827819197327,1.0350246875757945,-0.9723932793202333,-0.2843863460250344,0.002502895644811537,0.23967767901319686,-0.07913374992005881,-0.1972790849066826,0.1957149958665428,-0.0074412331999182835,-0.3272357431191404,0.12200179329398891,0.6859757609548838,1.40625
-1.0898014934867366,0.6992500650588329,0.9769753105388725,-0.9180535171532128,-0.26846973802839597,0.002334960101323528,0.22624930797929346,-0.07469462982862336,-0.18620626449141928,0.18477291322339248,-0.007051971773830159,-0.3088295769939895,0.11517832872356071,0.6475575961307035,1.4140625
0.28306490340381585,-0.18142661514523556,-0.2539522623232025,0.2382202325019476,0.06913756504083851,-0.001230643619967608,-0.058848511235598595,0.01949255179976449,0.0482237680822809,-0.04776562573031844,0.0012178737377176506,0.08095432598898064,-0.029706529194288716,-0.1680244633093368,1.421875
0.9125044925800891,-0.5851761569512084,-0.8182153250469333,0.7682339433603895,0.2239208409191441,-0.0028653366035306686,-0.18956188259193965,0.06266526696522992,0.1556993608099163,-0.1543810660703235,0.0050090020679341455,0.25966032197519145,-0.09612195872509284,-0.5419185042878025,1.4296875
0.38800952389041776,-0.24863826040147827,-0.34775487643389696,0.3263729734958658,0.09495083125947243,-0.0015030325628156054,-0.08062682609151288,0.02666466282978252,0.06613345636083555,-0.06554085736788987,0.0018490304090724337,0.11073549579573423,-0.04076147582892996,-0.23029605174170012,1.4375
0.40896393939026443,-0.2620614755387064,-0.3662663839487801,0.3441695774775349,0.10010271275931926,-0.0015573654947167858,-0.08493248839879688,0.028087643459855774,0.06969152273430025,-0.0690896128109684,0.00197563292137674,0.11661863609995235,-0.042981612543471256,-0.24272085207862898,1.4453125
0.9169997202759995,-0.5879409710429393,-0.8215221550113422,0.7722703455705096,0.22500289474510266,-0.0028767269652170647,-0.19038616795952124,0.06292935451826247,0.15642091596340013,-0.15512853124236783,0.005036488639989028,0.2607864665580293,-0.09660000570393965,-0.5444639441404678,1.453125
0.12970599558688642,-0.0827468336212193,-0.11557627088352017,0.10908094089044867,0.031368975079529106,-0.0008319063033880486,-0.02689047579662392,0.008905258923825213,0.021995248933132587,-0.021745260759505378,0.0002930394173005415,0.03728362144091365,-0.013488275631797957,-0.07666165840893878,1.4609375
-1.2473516139431777,0.8007444258106776,1.11893879510939,-1.0509721769044296,-0.30724996308543767,0.0027445276893453404,0.2590339048200205,-0.08556744605001729,-0.21312031140231408,0.21151966388313176,-0.008003819155730913,-0.3535986131147423,0.13186236702905668,0.7414218563150872,1.46875
-0.7775989036891953,0.49926376460768,0.6976117561303139,-0.6552460420971121,-0.19169348026811517,0.0015244124882033863,0.16145221712591212,-0.053323823981270065,-0.13291084746405535,0.1319316891002883,-0.00517431623756852,-0.2202091021125322,0.08227016584126398,0.46229712456206734,1.4765625
0.7451774180032651,-0.4777985237056709,-0.6676512383532308,0.6275665091248741,0.182775036301805,-0.0024304003135986337,-0.15475667204142454,0.05115421475938546,0.1270782326732248,-0.12601992997230413,0.003999527335741146,0.2120706586177608,-0.07846396311790733,-0.44229868331999916,1.484375
0.3759921880280003,-0.2409439387354985,-0.3364939144043339,0.31657470162828716,0.09193750998090246,-0.0014712254656660954,-0.07805347328812215,0.02581080833498217,0.06401261188625088,-0.06346803646269399,0.0017751940313835944,0.10722855200107342,-0.03948826946883762,-0.2228022388840322,1.4921875
-1.313238299152948,0.8428058346188203,1.1780459083525077,-1.106414034853373,-0.32351217786366493,0.0029162063972114085,0.2727500864202433,-0.09009104389485197,-0.2244384396104063,0.22268200724574408,-0.008401675051417732,-0.3723371081017518,0.13881839300207618,0.7807986778757081,1.5
-1.1394092531019901,0.7311751221467189,1.0219866040595438,-0.9599011776383417,-0.28077188359738026,0.0024645701615355915,0.23664193466299402,-0.0781483076076278,-0.1947644755578562,0.19321888976483112,-0.0073535721183127034,-0.323001923768966,0.12046315652525277,0.6773689353205052,1.5078125
0.7751077508858248,-0.49722973584683233,-0.6947477292540152,0.6529914940297625,0.19005409864179187,-0.0025080866128116743,-0.16094045192033363,0.053224757001974654,0.1321404394565627,-0.13110741173849405,0.004182243690728185,0.22046796667883284,-0.08163395017060686,-0.46023293530493226,1.515625
1.440521207241032,-0.9241234514946223,-1.29144598809094,1.2135432942868014,0.3537228507772133,-0.004236532648120773,-0.29913885642530036,0.09888597692709851,0.2457836347892229,-0.2438283268115537,0.008192193657444283,0.40935471479949276,-0.1518815277829233,-0.85567923101814,1.5234375
0.4633657333798571,-0.297119392399798,-0.41545725980361653,0.3902446532043801,0.11347441083779392,-0.0016989566096687417,-0.0962664992954074,0.03185075870431578,0.07897917638630425,-0.07830598714891977,0.002304871712996646,0.1320203856871532,-0.04873986837783984,-0.2752691091023182,1.53125
-0.01356558916796557,0.008909576377497288,0.011979712158402867,-0.011708061888625684,-0.003769823552083517,-0.00046050954832101317,0.002730020494333496,-0.0008589723571557342,-0.0024209523973415864,0.0024709585242645576,-0.0005691282872007302,-0.003271768592976206,0.0016073335821901553,0.007961294534657368,1.5390625
0.2884569856276537,-0.18485507632113296,-0.2588102558587368,0.24264330237181558,0.07050580499862259,-0.001244828716141809,-0.05997839389770435,0.019862649860656216,0.04915507167237082,-0.04870059695931582,0.0012509323779544713,0.08248801542074786,-0.030274386746630435,-0.1714666558688499,1.546875
-0.0353831823539834,0.02297406089388333,0.0318929282599081,-0.030105519573852588,-0.009155051033239528,-0.00040345487823778873,0.00732359479593727,-0.0023800836579262164,-0.006151006050226421,0.006167241402790637,-0.00069952373732573,-0.009517487633406513,0.003901883451614009,0.02111019237923874,1.5546875
-0.7549872315233064,0.48478506273634714,0.6775634252237218,-0.6362610351716405,-0.18613732647306216,0.0014656205486477543,0.15678911859167716,-0.05178360738667644,-0.12903069659702698,0.12809887651415935,-0.00503663782985492,-0.21384441261491385,0.0798706008325003,0.44890961112406097,1.5625
-0.6103172119120126,0.3920538090995901,0.5480417702301703,-0.5144516407718185,-0.15056925269849025,0.001089869565370203,0.12673311094513903,-0.041872172433060406,-0.10433809149209508,0.10362272972907562,-0.004168231635000148,-0.17272520699212657,0.06462829346397043,0.3631816261592644,1.5703125
0.06341167899607533,-0.04025876828925456,-0.056217204841586536,0.05305622639186153,0.015105472613065192,-0.0006598343152447532,-0.013195003006550396,0.004361484734861539,0.010681833083620959,-0.010511902045653585,-0.00010990928996611078,0.018585452034330204,-0.006477923278264395,-0.03706642754924368,1.578125
0.08430153968068711,-0.05380178514235123,-0.0751729606767814,0.07077849747497282,0.020228461920931595,-0.0007139794944273467,-0.017524182550108465,0.005810568367905911,0.014230556958933176,-0.014081913095341571,1.8493079176991448e-05,0.02447386535777296,-0.008703702433276552,-0.04963925548340099,1.5859375
-0.47574201214160144,0.30546422133029755,0.4270251144895811,-0.40077521119867954,-0.11752982130706711,0.0007405559749270884,0.09881299432547418,-0.032614120946293415,-0.08141291462242571,0.08079253002694523,-0.0033539171947207205,-0.1346083649844702,0.05040096428774119,0.28298163159921463,1.59375
-0.6920360140239459,0.444277018806724,0.6211499474638679,-0.5828326674914396,-0.17076491989241635,0.0013024393334678324,0.1437705038290956,-0.04746864141233315,-0.11837190707929783,0.11747772230601071,-0.0046581465376408044,-0.19607375921531994,0.07324833023885115,0.4115706934558764,1.6015625
-0.1850067223473586,0.11892442326268865,0.1665030362899595,-0.15569625570014178,-0.046089247706703626,-1.4136741279414972e-05,0.03849011459753777,-0.012681397851494981,-0.03182043082469795,0.031595635316856364,-0.0016039475662503028,-0.05214331261422715,0.019732207959165478,0.11041118097273304,1.609375
0.6515313345427436,-0.4179423123497424,-0.5838466818255161,0.5489281246401002,0.15966998204259641,-0.0021868015246494063,-0.13526431710878875,0.04474015930404871,0.11103239406350943,-0.11017261438792761,0.003438142780011016,0.18537435635969,-0.06859613944121312,-0.3867291215440962,1.6171875
1.0558218879179568,-0.6773572346809075,-0.9465919799350194,0.8893279881572649,0.2591377487204883,-0.0032371533558046566,-0.21926963982018544,0.07250120406113107,0.18011128575545166,-0.17870452763561065,0.005875398115987094,0.30022180992302094,-0.11128512192416556,-0.6271044497050303,1.625
0.6753260280645387,-0.43306004829111233,-0.6054815802749353,0.5685532623118736,0.16558340902088772,-0.002249045659146285,-0.1402696940375059,0.04638878886403539,0.11517557322379333,-0.114226923800607,0.0035812907736976715,0.19228711902071163,-0.07109991491443816,-0.4010386130197944,1.6328125
0.2247016812532569,-0.14380344492470679,-0.20140538780225375,0.18880371787661585,0.054784523035286595,-0.0010785409638033039,-0.04668388673856531,0.015458028924770268,0.03823860569863105,-0.03786448560313502,0.0008642322945393566,0.06439826958418339,-0.023518495526910387,-0.13325069518114255,1.640625
0.41197116770117553,-0.26398675624705015,-0.3692744820310536,0.34661717655183216,0.10087503731488766,-0.001565050660409063,-0.08558553529593466,0.028312543427987332,0.07022157566514235,-0.06960559880454525,0.0019927184848481786,0.11754524875470311,-0.04330040495272013,-0.2445820936022929,1.6484375
0.4966442174395001,-0.3183483674179086,-0.44511197473465164,0.4180539917201122,0.12170994443566364,-0.001785379081813291,-0.10319474971012928,0.034129547547643836,0.08469387760326705,-0.08396207435156997,0.0025037911931177245,0.14156278619731733,-0.05224665386357777,-0.29496919276654143,1.65625
-0.43529801140169133,0.2796665962911417,0.3906036963433066,-0.36701431128132694,-0.10750816912994518,0.0006349411252537655,0.09034079729697492,-0.029826617216910056,-0.0744351774068608,0.07393926708930584,-0.003111554849952529,-0.12300050186382157,0.04614332810057488,0.2588031100217889,1.6640625
-1.4725780359835994,0.9452382713239378,1.3207365633389592,-1.2408346039626312,-0.36263064425175645,0.0033291999399749635,0.30578058504884414,-0.10101759244315915,-0.2515712785852555,0.24968235398521696,-0.009361845163956599,-0.41748952140878887,0.15564497817044215,0.8752163725377314,1.671875
-1.1956091517517744,0.7674079594183157,1.0724305277443396,-1.007384374339035,-0.2945192426554724,0.002609916283846129,0.24828138435977767,-0.0820163897955199,-0.20430120767662074,0.20275107174518348,-0.0076922633753387665,-0.33894416667483296,0.1263885083399101,0.7106750715502468,1.6796875
-0.07924354286923437,0.05092509194803047,0.07144603358139781,-0.06673996884981773,-0.019977561313598256,-0.0002897589147099743,0.016435034577584197,-0.005403746170407331,-0.013693628063159336,0.013614152903988626,-0.0009642312516086207,-0.022119144983845984,0.008522172997570243,0.047324181054217894,1.6875
0.4111076295080499,-0.26380752832588766,-0.3682886884917111,0.3464452034876586,0.10059758468236427,-0.0015634301645417138,-0.08541431831207089,0.028256334756262925,0.07002853437737298,-0.06945731720075081,0.0019912555482033863,0.11706445802511745,-0.04324230350207418,-0.24407078612883418,1.6953125
0.1204185222903591,-0.07723918655678755,-0.10766879668603926,0.10153479450650248,0.029095700801863227,-0.000808193302465644,-0.02503676548263389,0.008311750736131943,0.020386228203404057,-0.020207476512395208,0.00023914398206542877,0.03459463473738423,-0.012543182982927037,-0.07134367474860076,1.703125
-0.07673688325747825,0.04943734874898411,0.06926687990914783,-0.0646186954751619,-0.019406169374685197,-0.0002956507126830892,0.015957986851055424,-0.005234798457136506,-0.013291949642267192,0.013204815580497142,-0.0009504753681066105,-0.0213365486146986,0.008287822437270647,0.04591178375139291,1.7109375
0.095553401813773,-0.06092508096318952,-0.0849561206623338,0.08046055502099438,0.022932658462014612,-0.0007426648678363803,-0.019756915548959388,0.0065606256728340815,0.01611346418196944,-0.015958756771340413,8.620519291334127e-05,0.02757749328337024,-0.009880651434310779,-0.056257767752328415,1.71875
0.23429093340888146,-0.149821469721117,-0.2092468625095202,0.19721519336977403,0.05702641744650589,-0.0011027177943613632,-0.048542493434458545,0.01606890929911419,0.03980727174696258,-0.039439322266110265,0.0009212447880522671,0.0670070911061598,-0.024508347284719505,-0.13852404509609267,1.7265625
0.18902423560810847,-0.12071495292452682,-0.16880049351738688,0.1589054280300742,0.0459093116785162,-0.0009851183662338294,-0.039174297933999375,0.012972853628963622,0.03209913142367306,-0.03176082886848395,0.0006473802226012476,0.05425175704396625,-0.019715193000183324,-0.11161613551718444,1.734375
0.2805313628715469,-0.1794537700283183,-0.2510976192282278,0.23591034616117829,0.06846455826861543,-0.001223043568350972,-0.05823483372380358,0.01927000728320156,0.04774166051789245,-0.047272318720992614,0.0011981023862978094,0.08027065975350267,-0.029376652683933874,-0.16614832477527056,1.7421875
0.6225563466929831,-0.3990784119981439,-0.5580129755126955,0.5241349385894759,0.15263547301148872,-0.002111913003921074,-0.12931394938076504,0.04275926313756862,0.1061548891053628,-0.10525450271409968,0.0032606417357944604,0.17731361657425837,-0.06551512985424801,-0.3696260046675808,1.75
0.6047865289232359,-0.38792450740699236,-0.5423461380854628,0.5092961890311052,0.14830997530564544,-0.002066387979291354,-0.12567555936012306,0.04156588355520792,0.10314645065573766,-0.10230391581301496,0.0031572048337217655,0.17222297827797792,-0.06368946770829816,-0.35930180951504004,1.7578125
-0.20571302887652707,0.1319863543045231,0.18414581675371625,-0.17349315872940743,-0.05099745953206481,3.8343093462104526e-05,0.042591818871753416,-0.014029055006768357,-0.03521551243542397,0.03497037416188888,-0.0017239607692068838,-0.057843462991664145,0.021844416740733986,0.12216124936505995,1.765625
-0.7852501648961012,0.5038896259632742,0.7038025382081056,-0.6618041045869018,-0.19354114811298728,0.0015436208404263913,0.16294175744743125,-0.053802108851894966,-0.1341706166154698,0.13316840080041192,-0.005216503259246741,-0.22235246908592618,0.08303923205490418,0.4665383936476135,1.7734375
0.03582757382957385,-0.02284416761592556,-0.03207170968166033,0.02986879417229727,0.008348795414130855,-0.0005886916312057162,-0.00751245129420443,0.0025112973717082293,0.005994646577250831,-0.005899692728593097,-0.0002712486626133771,0.01068478068846549,-0.0036082118845454435,-0.02119851559664434,1.78125
1.0343691988176544,-0.6635209817470048,-0.9270440584370614,0.8711424099875686,0.2538938975935864,-0.0031819673567517535,-0.21481328170211642,0.07100767513911715,0.17646125125100753,-0.17505536463724206,0.005744088174219314,0.2940964818698948,-0.1090098568777542,-0.6143691895274729,1.7890625
0.12543245905432027,-0.08031487880151726,-0.1119429378527817,0.10551882681928881,0.03034486992683256,-0.0008210339890563204,-0.02602916041224463,0.00863128624791106,0.021243804798510835,-0.0210662370933521,0.00026733286534530513,0.03605022370348639,-0.01306412926978965,-0.07422232805965788,1.796875
-1.6148101968817872,1.0363471481979816,1.448420695940591,-1.3604526785977755,-0.39765513049213597,0.003699011638110665,0.33537145317978995,-0.11078783586078944,-0.2759144639853554,0.27377774988300924,-0.010218097838047887,-0.457989066766474,0.1706483075761412,0.9598082897190029,1.8046875
-1.2736717304268004,0.8175300695627598,1.142640142096514,-1.0730225589776632,-0.31378318245197817,0.0028130679998992856,0.2645449965712528,-0.08739095811486546,-0.21767937840604495,0.2160104863848369,-0.008162769425076256,-0.3611850944524828,0.1346514325818295,0.757133326254699,1.8125
0.6024532274732951,-0.38627059265785985,-0.539479634175445,0.50753517685265,0.1476077872140747,-0.002059679667135874,-0.1250509246813743,0.04134485585667402,0.10266371090985339,-0.10183337561881549,0.0031414742450993722,0.171396149826578,-0.06339761022911626,-0.35758443471642476,1.8203125
0.7214013194346172,-0.4626367003821798,-0.6462451593594033,0.6077900255316947,0.17686947086744734,-0.0023685036816912747,-0.14975465947720515,0.04952124291528558,0.12298309824399861,-0.122001303650531,0.003858480906527503,0.2051989496293211,-0.0759664268501665,-0.42826793641178523,1.828125
-0.9217929672631082,0.5917555638780728,0.8269641613287643,-0.7765071415755039,-0.22724285590819482,0.0018994188172571553,0.1914753894890944,-0.0632222649974178,-0.15757765869046114,0.15639217610151165,-0.006042666606762237,-0.2612090552825035,0.09749819663670357,0.5480747963933211,1.8359375
-0.9806707772578528,0.6297126163851852,0.8798232900238302,-0.8262493683616855,-0.24172883653545785,0.0020523414012615137,0.2036909751156751,-0.06726951284060191,-0.16761542766738363,0.16641125911865848,-0.006399434407322365,-0.2778505260905051,0.10374461751705837,0.5831677609715848,1.84375
1.02485066424854,-0.6569650096654162,-0.918308560571042,0.8630695126283107,0.2515069962143888,-0.0031565855578335024,-0.2128220454010465,0.07033887532378862,0.1748488617850979,-0.17333358507415114,0.005682407909599546,0.2915534340242525,-0.10794004931312133,-0.6083112006033083,1.8515625
1.8346670684028645,-1.1766179548900337,-1.64461108072934,1.5451804696773086,0.4507096363701883,-0.0052599741754337966,-0.38104127603537624,0.12591986704135655,0.3131524902992355,-0.3105731116664428,0.010562518762585897,0.5214931685118105,-0.1934442129257703,-1.0895235061985429,1.859375
0.3611118119064344,-0.23131773162316718,-0.32371019164889814,0.3038358505338882,0.08835596369430981,-0.0014329401426962179,-0.07505971491945329,0.024831290488036204,0.06156085860683112,-0.061002753460652,0.0016870018674884784,0.10317247692558519,-0.03793366679467889,-0.21423798699646707,1.8671875
-0.6403125864015711,0.4110381242763778,0.5740786535665167,-0.5397342414891926,-0.15791740872451746,0.0011677909065728792,0.13290837531640004,-0.0438721403617968,-0.1094418249399221,0.10861652632843392,-0.004344667605919316,-0.18116775677419436,0.06775436259606973,0.38055888994119375,1.875
0.2838352660730098,-0.18207815332227234,-0.2544554406307306,0.23883777875647874,0.06934983419765058,-0.0012326032095444658,-0.058995615240633806,0.0195373714993245,0.04832661280033556,-0.04795121192798597,0.0012240110759392973,0.08110378545213548,-0.029807428392957552,-0.1685672647714861,1.8828125
0.9897559373001649,-0.6351405516871313,-0.8874147304861154,0.833579306646787,0.24296202125108934,-0.0030661444245442147,-0.20559857293569153,0.067971553471862,0.16884403351673166,-0.1675555658225894,0.005478190056567818,0.28142976755996324,-0.10434190781543823,-0.587985976970885,1.890625
-0.1518234699428558,0.09728611100921604,0.13602138299560715,-0.12805389359588948,-0.03777068820558552,-0.00010135022935865472,0.03145675510765783,-0.010358570316948128,-0.026071807390066874,0.025833313101830443,-0.001398813494918751,-0.04268281941995975,0.016146557674518825,0.09021413692596138,1.8984375
-1.512712792909091,0.9705574863523899,1.3562684010232229,-1.2744809276282663,-0.37246275642322957,0.003433015080055398,0.3140763793979813,-0.10374095951470419,-0.25843116969604507,0.25642020470697907,-0.009599387379511912,-0.4290127298857007,0.15981908929659802,0.8987407559562255,1.90625
-1.1273641335946731,0.7234705227467196,1.0111040744451665,-0.9498686905838837,-0.277744995198593,0.0024322455471462714,0.23409437523671173,-0.07731653439255592,-0.19264811720119826,0.19120406334553575,-0.00728068966961459,-0.31961057903783024,0.1191873081546336,0.6699220297196432,1.9140625
0.2763430325487375,-0.1770542841119444,-0.24707248139771446,0.23268760704154237,0.06740562318543886,-0.0012130276107031803,-0.05734552406535306,0.018976002583040594,0.046995659243961374,-0.04656260750668492,0.001175016811862289,0.07885592823419312,-0.028958279453629457,-0.1638296067646795,1.921875
0.7606779943699614,-0.48772530741798625,-0.6811239650906764,0.6408315076774128,0.18648358509554264,-0.0024703459053496807,-0.15787200790554706,0.052192605356538364,0.12966428957840828,-0.12861771524899035,0.004093483489441197,0.21632353541587948,-0.0800843895120666,-0.4514221334594162,1.9296875
0.040968396959077585,-0.025811788765753133,-0.03581291245646399,0.03462969910213577,0.009477782485554111,-0.0006007774644608557,-0.008392484047457443,0.0028052038756377516,0.006769647313302405,-0.006686283632916284,-0.00024332617993121826,0.012033934853114103,-0.004105291462875905,-0.02378477526147872,1.9375
-0.5710960178752406,0.36704486272573317,0.5128920687446812,-0.481053827740704,-0.1410517918211537,0.0009888388142607599,0.11869637744882858,-0.03919042379729611,-0.09772404288828586,0.09703448670372253,-0.003933047315774079,-0.16165081030333728,0.060531678035962114,0.3398613786524564,1.9453125
-0.2756267057829855,0.17745739855485398,0.24777391981331184,-0.23232477613078317,-0.06837535239921223,0.00022123673642014124,0.05728822582426755,-0.018908067363770268,-0.04724697137582406,0.046984195475019815,-0.0021530146127252724,-0.07771511335612714,0.029349614943171384,0.16430839599002975,1.953125
0.3221341333722026,-0.2062673461944929,-0.28853946354516274,0.2710897085448346,0.07869445745447003,-0.0013314987512921073,-0.06692006931043988,0.02213152452664488,0.05485698473468588,-0.05433823012282163,0.0014513566562069037,0.09201357164304455,-0.033789166653717194,-0.19093773867159794,1.9609375
0.3450469125753455,-0.2211320586714699,-0.309409700906312,0.29026432959726167,0.08442348217622839,-0.0013912052710313703,-0.07173756229097973,0.023732831553206997,0.058813780603165715,-0.058292860786595534,0.0015917406218747315,0.09858312837402215,-0.03625572113595419,-0.20472163341956925,1.96875
-0.050398549518868345,0.03259458674765817,0.045075514926473485,-0.043033761154508944,-0.012772139958554075,-0.0003642040785170946,0.010379531460832068,-0.0033904906226511124,-0.008679335554398345,0.00866886273783797,-0.0007913115598580196,-0.01359158533356405,0.005474873317286533,0.030142336939399182,1.9765625
0.0005938460768776333,-9.661773108921254e-05,-0.0005338723651319302,-0.00014565634425476435,-0.00024255021505487613,-0.0004965860155582989,-0.00018123339179007325,9.818114575025716e-05,1.92737852648352e-05,3.8003246628945126e-05,-0.0004848345531527079,0.0008857050254454217,0.00010095187528684397,-0.00011751883344303908,1.984375
0.5998434582589923,-0.38467960092474446,-0.5377380749078855,0.5048954212434529,0.14709014081413685,-0.0020530904612585605,-0.12462322607617327,0.04120747754135464,0.10230685723189537,-0.10146908655593248,0.003126910025235583,0.1708777193570491,-0.06315775404470415,-0.3561474011427306,1.9921875
0.7989458691010916,-0.512533438879417,-0.7161944325242173,0.6730112784978545,0.19601847631738856,-0.0025705720879811785,-0.16598715019547958,0.054870878013184396,0.13627511110479373,-0.13518159486849576,0.004327772927610899,0.22725551137042332,-0.08418038512383971,-0.4745141749641791,2.0
0.09560373821859257,-0.06124741929085491,-0.0854393423614126,0.08073458335090937,0.023010821199498308,-0.0007440985760834494,-0.01990956178746313,0.00661076017061854,0.016166994277413433,-0.015993601781062107,8.93348526510739e-05,0.02753284308981905,-0.009925653417652943,-0.05665754416211613,2.0078125
-0.757426743540364,0.4860934206550342,0.6795337209306476,-0.637862208518077,-0.18680235826690655,0.0014714367268430447,0.1572759869698863,-0.051926477660162305,-0.1295000373121252,0.12854235199066785,-0.005051431706841755,-0.21462838351977756,0.08013157444634478,0.4502143570362967,2.015625
-0.9193005330193783,0.5898767860560119,0.8247318029294063,-0.7742371814792095,-0.2266202198880781,0.0018919508231625252,0.19091058859661536,-0.06303986911584984,-0.15716313490657105,0.1559532954007713,-0.006026536952753942,-0.2606160071229323,0.09721443311557329,0.5464035236314174,2.0234375
-0.41797187931747504,0.26816046971748275,0.3753163367549023,-0.35187656299628334,-0.10334038467736399,0.0005900006817474254,0.0868314581439485,-0.02865139027209178,-0.07158946381920112,0.07100573675443748,-0.003005324714800634,-0.11837061410715809,0.04428960764965278,0.24848978625624252,2.03125
0.33800224491522746,-0.21676834616671992,-0.3023557421585489,0.2848831401565441,0.08253642870744428,-0.001373073007415384,-0.07008117449246257,0.023201078275518577,0.05747720744472248,-0.05704865931235164,0.0015492982170252493,0.09620538205391875,-0.035495184687541634,-0.2006613306000664,2.0390625
0.8460580023400663,-0.5425215071067698,-0.7578810864818348,0.7125685785694504,0.20745558987678497,-0.002692089877583175,-0.1755457127580709,0.05804808613538599,0.14424567791031356,-0.14308855416316688,0.004609378819288947,0.240523030773805,-0.08909759180549234,-0.5023706319417865,2.046875
0.47723024873323555,-0.30570927171774076,-0.42745410354707336,0.4014514875492826,0.11679856445260381,-0.0017338875440180306,-0.09903950153350868,0.03274989251676009,0.08132485332874607,-0.08060351767497759,0.002385530136115595,0.13603071838990993,-0.05014654242351025,-0.2830247276257539,2.0546875
-0.5217427115208039,0.3352870464438766,0.4678924801164314,-0.44035200288933773,-0.1287728558658431,0.0008605799473433102,0.10827511693746866,-0.03576888916251088,-0.08918773381223499,0.08859758344566915,-0.003634950063163422,-0.1473482797420148,0.055298743187879605,0.3105898078215644,2.0625
-0.7809808724246822,0.5015676934974943,0.7001749705820512,-0.658661647075122,-0.19245366448028187,0.001533649475906982,0.16206339216579724,-0.05353419168364962,-0.1334296054337349,0.13247106067886769,-0.005196747775047567,-0.22088396848826436,0.08263828442141422,0.4644675331684174,2.0703125
0.01593664714659443,-0.009792995740429052,-0.014276181722595543,0.012963388576780257,0.003524170570113274,-0.00053628127744657,-0.0033859348485624405,0.0011505002882315901,0.0026230119479811057,-0.0025477397908597824,-0.0003936637595133514,0.005245955686111885,-0.0015023725769124127,-0.009219047004737399,2.078125
0.33257993212952675,-0.21293740603500896,-0.2979988231342927,0.27992505119130695,0.0813428155211107,-0.0013586717198835112,-0.06910658403224246,0.022863823815579998,0.056658220835133395,-0.0561551499176869,0.0015145045979508092,0.09502572311609353,-0.03491581529968113,-0.19733955610855494,2.0859375
-0.35645403216726795,0.22915121698558333,0.31998998153988917,-0.3004391292532671,-0.08815397517475915,0.00043094524406097094,0.0739912202798448,-0.02442847955244619,-0.06101346356006679,0.060616768461312365,-0.0026378513030043452,-0.1006240788338555,0.037835304569368615,0.21221589280897163,2.09375
-0.4451634105707103,0.28592614161694424,0.39968172001653274,-0.37500254743846434,-0.10999391182796774,0.0006611413663208814,0.09244058256675237,-0.030516538836415107,-0.0761742190598606,0.07564316024506738,-0.003171253286610517,-0.12587427830514145,0.04718424056404493,0.2649431062535613,2.1015625
0.5035761248499014,-0.3229690903412942,-0.45088564645172613,0.4244872140236869,0.12330177238628894,-0.001803328805681819,-0.10454407838028948,0.034584661993545505,0.08580540465687615,-0.08510515107691652,0.0025477562917123903,0.14332880918295074,-0.05299197895322287,-0.2988906670942439,2.109375
0.6990489514542234,-0.4484075962495205,-0.6261655153011826,0.5892302194601859,0.17134650149728725,-0.002311137738292491,-0.14513526778244304,0.04799190394031676,0.11916902586942693,-0.11820454230800774,0.0037259261290428485,0.19874311510887993,-0.07362053865268596,-0.4150777927149406,2.1171875
-0.14049985049592578,0.09029370764991176,0.1264631932388176,-0.11819755861878109,-0.03511648725706762,-0.00013055262050388797,0.02918576895337793,-0.009615522165954838,-0.024179879141711106,0.024050083402108995,-0.001334303214463987,-0.03955506365614418,0.015022620658774525,0.08375955364486423,2.125
-0.02469539756559626,0.015873649076180215,0.022463377066066603,-0.020808504227120883,-0.006588518333581701,-0.00043156820557385407,0.005121796983307018,-0.001651380334042217,-0.004387315692138605,0.004396759456252493,-0.000636303335718475,-0.006629314006150702,0.002782139843121157,0.01478266751112522,2.1328125
1.0572530346826676,-0.6784974914129382,-0.9477751952398927,0.8905906797965635,0.25953986757254055,-0.003242034594936049,-0.21956457577405644,0.07260757498258753,0.18037243320303137,-0.1789689950741269,0.0058852624874376576,0.30051714804304125,-0.11146810887765676,-0.6283091384703754,2.140625
0.7068616403984345,-0.4536588833411263,-0.633750179716334,0.5952830089333884,0.17337908274971547,-0.0023317076359400633,-0.14680697011453936,0.048562612449921445,0.12054895190894317,-0.11963330553299958,0.0037749037040659466,0.2010725302579479,-0.07448889564212201,-0.4200900876912311,2.1484375
-1.048041233070524,0.6725255983133029,0.9396046334392286,-0.883311578609972,-0.2582077930198646,0.0022270335504736413,0.21761219872438636,-0.07186706203069702,-0.1790977538645216,0.17769594179876774,-0.006800846535584977,-0.29701238178944933,0.11078735468664377,0.6228609013391191,2.15625
-1.417543441373603,0.9098113396017131,1.2709742143429348,-1.1946771499019977,-0.3490842077848451,0.0031871214609067856,0.2943347253134549,-0.09722814081545139,-0.24218478725996462,0.2403264824549299,-0.00902965149316334,-0.4018109691803282,0.14982493344085585,0.8425741661960118,2.1640625
-0.07042872015766323,0.0456492357184006,0.06346066916085678,-0.05974544231818615,-0.017813778071049072,-0.0003118033484452137,0.014595074686450592,-0.004802074143892498,-0.012168970811568548,0.01214260703733911,-0.0009151223105270269,-0.019363371501295808,0.007654578227583703,0.042260905002704706,2.171875
0.37311865559742197,-0.2387557089312119,-0.3338766350873245,0.3139536657031807,0.09122823514356483,-0.0014636594835424472,-0.07747779289942822,0.02561109943980488,0.06354935929621719,-0.06295657806854953,0.0017549465138293342,0.106551835994569,-0.039135849721258026,-0.22107598181633556,2.1796875
-0.4903215280206595,0.31535181920417416,0.44040765025261525,-0.41349027178063497,-0.12112663943634179,0.0007793199490937339,0.10186763847208981,-0.03365236638484711,-0.0838915650802144,0.08333855547083485,-0.0034485700710146536,-0.13854804900947507,0.05201438613268289,0.2921300329231642,2.1875
-0.3078099653913981,0.19818791529711935,0.27669582303187745,-0.2597037531857913,-0.076217015635696,0.00030513045276997025,0.0639711263154944,-0.021122013709365523,-0.05271377358031766,0.052399091681986976,-0.0023473459371652246,-0.08674573556685171,0.032722852567382575,0.18361805873169035,2.1953125
1.0523396356716395,-0.6746666611611155,-0.9428999431390839,0.8863044044321589,0.2582942731733126,-0.0032281899092762635,-0.21851099923950704,0.07222616152706267,0.17954735364280155,-0.17804195295658828,0.005850196588718823,0.2993191740176347,-0.11087803030103933,-0.624735181034659,2.203125
1.0231288269459347,-0.6560801094031589,-0.9168405455194706,0.8618384734890648,0.2511004846966384,-0.0031526498736031434,-0.2124725136202939,0.07023548884127594,0.17455934012985605,-0.17309574029664396,0.005675708862641106,0.29097044631742597,-0.10780376157817809,-0.6075140004874316,2.2109375
-0.6815646580310214,0.43750053939050876,0.6112808963313281,-0.5742140463452577,-0.1681155445142586,0.0012748928075062363,0.14150510260973836,-0.04672007412834213,-0.11651890571591399,0.11566726989085188,-0.004593528207196965,-0.19299242634785332,0.07212163043729514,0.4051783798495922,2.21875
-1.3417769287995065,0.8608693030773299,1.2028972076765414,-1.1303303698083895,-0.3304370399406543,0.0029893496075983524,0.2785687327908727,-0.09199884038307854,-0.2292464084142443,0.22745931599729685,-0.008568685050055124,-0.38046765094311513,0.1417762317557641,0.79715258539698,2.2265625
-0.0846102305101804,0.05405925564762548,0.0756891619889306,-0.07109474142816735,-0.02126062235991463,-0.000276263425022173,0.01748258542058452,-0.005724666317817114,-0.014599762809992391,0.014462335066029775,-0.0009925402249203908,-0.023678105968536506,0.00905264327513102,0.050011729513865996,2.234375
0.8589312874097954,-0.551363763971921,-0.7700179890848428,0.7238619193446819,0.2107305338673307,-0.002726780588389441,-0.17840940457693952,0.059002207802837194,0.14647078645222855,-0.14535792120372185,0.004691568222151098,0.24409918426648278,-0.09053306943157692,-0.5104926899804306,2.2421875
0.37973101720093566,-0.24378762251464645,-0.34013353753764175,0.3200519269492436,0.09284327078964036,-0.0014816624494305322,-0.07882081349753722,0.026096376057076515,0.06462148939179405,-0.06415624888686815,0.001802571170371014,0.10807963263464727,-0.039929583404312824,-0.22557828419202947,2.25
0.008861729497415736,-0.005659401667845304,-0.007598494395130124,0.007385174171713354,0.0016508716284777398,-0.000518111507517744,-0.0017816751774188764,0.0006393932130400096,0.00131045117359506,-0.0013254511001336998,-0.00043354730298719653,0.002898956394392328,-0.0007686344390195148,-0.005120529093379632,2.2578125
0.5530877027987935,-0.35463132304745015,-0.495544796520302,0.46565019624279214,0.13551501896949908,-0.0019315061453567157,-0.11483074202502296,0.0379801729530965,0.0942722172733419,-0.09350403383787684,0.0028433795142047166,0.15751659181410607,-0.058196671445670575,-0.3283096449808779,2.265625
0.8002967031726324,-0.5129856462518734,-0.7170080071242496,0.6737504523361327,0.1963096460812037,-0.0025733654451018623,-0.1661902266542921,0.054928295344232644,0.136510841086686,-0.13534452166901273,0.004330336921737849,0.22778854004467355,-0.08426203592345113,-0.4748931329485789,2.2734375
0.16672380787456528,-0.10626264051010172,-0.14875873064133782,0.1398929436524119,0.04049797821605968,-0.0009276486921798002,-0.034616312090118416,0.011437996175086205,0.028346502174649867,-0.027988026202391846,0.0005115454169844564,0.047987968974042075,-0.01736263772822412,-0.09828060880414975,2.28125
-0.47157914362247044,0.3033187223768647,0.42351844344931866,-0.39784191129325386,-0.11645910942761815,0.0007300848531260637,0.09792650622841592,-0.032356954155955304,-0.08063384834936586,0.08014126135217242,-0.0033341617809298663,-0.1331885435557926,0.05001656081676294,0.2808866086583911,2.2890625
-0.798911435481845,0.5132194887786599,0.7168604201909975,-0.6734609516085777,-0.19695287171891418,0.0015800962908431662,0.16587516673636035,-0.05480092750145411,-0.13653187313395718,0.1355811579899625,-0.005305462191259573,-0.22612536970322283,0.08455877525945917,0.47525682464406915,2.296875
-1.1749769078872192,0.7543646160661901,1.0539391562423683,-0.9900900428158831,-0.28945577564039715,0.002556814388095739,0.243963278086501,-0.08059583143507787,-0.20076247142415896,0.19927766439600733,-0.007569970497015654,-0.3329312192881803,0.12424097125578784,0.6986691244420994,2.3046875
-1.055418406932778,0.6775134845952806,0.9466011378270084,-0.889245914092301,-0.26006334871091785,0.002246180434373254,0.2191460559312925,-0.07238420597401972,-0.18036177530417744,0.1790016961483013,-0.006847592694614125,-0.29905477785048346,0.1116010577865279,0.6274847687822582,2.3125
0.11922103256202755,-0.07635120195668962,-0.10684039980050618,0.10040333439770127,0.028824988302201347,-0.000804988134856503,-0.02478629269529948,0.008236642118822067,0.020201491378057004,-0.020021951453472346,0.00023208997961599118,0.03433314477730967,-0.012415400133796401,-0.07077452558847254,2.3203125
1.1596076602912098,-0.7440643857600209,-1.0398305373301455,0.976954248037334,0.28469492183884665,-0.0035074072584431954,-0.24084561834238297,0.07964338950953467,0.1978439999805414,-0.19629031220978208,0.00650215532264552,0.3296054368882971,-0.12225696294800019,-0.689171189708038,2.328125
0.7031672820223416,-0.4512192461005621,-0.6305004183306688,0.5924450489182366,0.1724330945423206,-0.0023218544301210797,-0.14604340167001192,0.04831533378063614,0.11990213092346005,-0.11895755415167387,0.0037521221346378635,0.19997866855191224,-0.07407978909945935,-0.4179111371419036,2.3359375
-0.37053621443929297,0.23782011217016294,0.3324045391548499,-0.3122091905917137,-0.09164371595514362,0.00046717026414619904,0.0769651929717236,-0.025385864609448045,-0.06344567381671941,0.06296302564941883,-0.0027186727322325447,-0.10481655286615109,0.03927844292261889,0.22025568727321151,2.34375
-0.36018168180296806,0.23126576415001635,0.32325988655981586,-0.30365692052809024,-0.0891133011856853,0.0004406678218267582,0.0748467446188448,-0.02469100817983171,-0.06169701019259545,0.06122724382723829,-0.002658577734725872,-0.10181570318335563,0.038211685233129525,0.21426056820814077,2.3515625
0.45642637781593143,-0.2927122708453685,-0.40887851334751724,0.3842085916035938,0.11172534667248381,-0.0016801342117749186,-0.09473101633100939,0.03134465101710771,0.07773653167727478,-0.07712235253406567,0.0022605376029162876,0.13005356364365248,-0.047987645529798575,-0.27086372303336403,2.359375
0.5781030207526952,-0.370814848588754,-0.5179563301033757,0.48677521282521086,0.14168421946288481,-0.001996474030176489,-0.1200289347959937,0.0396993312211481,0.09853905374650257,-0.0977576704613443,0.0029946564920654184,0.16458975415868302,-0.06085626247248106,-0.34314872422076814,2.3671875
-0.04378464334856827,0.028246019628919306,0.03968730913834711,-0.036961878346684914,-0.011241289939961997,-0.0003818144379152319,0.009071471573806125,-0.0029704627165400553,-0.00762415537518701,0.007596092484215114,-0.0007509678238863298,-0.011986114239644243,0.0047802505942011716,0.02629662245268405,2.375
-0.15378719188054843,0.0989235383008718,0.13843411805024144,-0.12947008918180297,-0.038324631957557906,-9.635097049191605e-05,0.03189198441960266,-0.010517345274442078,-0.02641064201034841,0.02626058552631691,-0.0014141387206181154,-0.04321871141325489,0.01641766438732073,0.09162288447761806,2.3828125
0.4111643825061169,-0.2634283547845337,-0.36796332282730493,0.3464575516590887,0.10058410314030998,-0.001563413920199789,-0.08542044597325363,0.028242670733891653,0.0700496365489173,-0.06942204550774686,0.001987965504515748,0.11721148040332198,-0.043188692357126864,-0.24392558656372318,2.390625
0.44551916204935915,-0.2852985466811453,-0.3986998389848979,0.3751813221709765,0.10904767730406525,-0.0016521963269744819,-0.09253919375920976,0.03058471573659758,0.07593566514769116,-0.07523595038176926,0.0021933194038251565,0.12705042017217785,-0.04680692939995122,-0.26410473124159883,2.3984375
-0.3266308483859709,0.21025571143078733,0.2935555287240322,-0.27553157370285464,-0.08082469285594072,0.00035358896477657493,0.06781716738097177,-0.02241004095880971,-0.05589098024506689,0.05557780167112119,-0.0024597614285366996,-0.09208210956825233,0.03470307773901306,0.19480693997579454,2.40625
-0.5573094085228593,0.3582167783428962,0.5002172951653328,-0.46993770948585006,-0.13756624924574964,0.0009529120533332807,0.11573026433968077,-0.03823313697307794,-0.09529333801537407,0.09465755838210535,-0.0038493418971803036,-0.15756378891724643,0.059057785402228835,0.3317887374099385,2.4140625
0.2664317935589986,-0.17051054541019378,-0.23860552578577515,0.22398507412905594,0.06501024797388402,-0.0011864514910186056,-0.055325048194895844,0.018306766231974445,0.04533964382090614,-0.044920239708201616,0.001115283554421546,0.07624150703783604,-0.027909664305788093,-0.1578361197541671,2.421875
0.5646452227918645,-0.36204645908026906,-0.5062616850091765,0.4751650285522816,0.13838659007488882,-0.001961151900097586,-0.11726694851830927,0.038785443561506476,0.096263879564607,-0.09548475378569447,0.0029138456766131834,0.1608650055463701,-0.05942130245574081,-0.33522349866594947,2.4296875
-0.5922703799482009,0.3801057280345303,0.5308432901212423,-0.4993382257792411,-0.14609515384190713,0.0010431325306318661,0.12295919928260833,-0.04058179456967668,-0.10126777162647961,0.1004893439312505,-0.004055550334241683,-0.16759669267727548,0.06267627538361606,0.3519393175612674,2.4375
-1.4886992750582897,0.9550979725152453,1.334507981948103,-1.2541648143452027,-0.36655812273399313,0.00337081162445854,0.30910831337997374,-0.10207007988795924,-0.2543405097979294,0.2523584499818022,-0.00945536544254301,-0.42215427384416104,0.15728604042636682,0.8843133473164249,2.4453125
-0.6403951966269505,0.4106741751530415,0.5739410116601639,-0.5392466559703872,-0.15796400044471556,0.0011673567528465677,0.13295856489475086,-0.04385182626716439,-0.10950799253640488,0.10864876330620728,-0.004342503226863872,-0.1814310301696949,0.06772419303022509,0.38019683441574464,2.453125
0.4719283726958032,-0.30291189194466495,-0.4231267573579791,0.39776525499812926,0.11555313954872835,-0.0017213732590344289,-0.09800986370632452,0.03244913625372888,0.08041394232144883,-0.07977594365062866,0.002359329265470296,0.1343065272420992,-0.049680476560835324,-0.28047861111574934,2.4609375
0.12348297672809914,-0.079044120201833,-0.11022085109998908,0.10401970345397109,0.02981245722795905,-0.0008160172506355094,-0.025620711906017685,0.0084966309807286,0.020909086453724836,-0.020701685867522277,0.00025701015119154643,0.03543332248518043,-0.012848844276053773,-0.07307312249271833,2.46875
-0.4991254959032823,0.320617436150638,0.4484000406473735,-0.42061580865347664,-0.12332833530823309,0.0008011897248696337,0.10369924844772606,-0.03424843287960336,-0.08541096297687166,0.08479957668609381,-0.0034969566900293417,-0.1412598616964072,0.05290985060873277,0.2970468028570301,2.4765625
0.27177325633074517,-0.17402497338660203,-0.24279699308735686,0.22872954114754343,0.06629675371566893,-0.0012010381720766337,-0.056391729176024974,0.018654327940777315,0.04622448959748098,-0.045825790244453005,0.0011475326073635548,0.07762246298106817,-0.028477021010969543,-0.1610323138912552,2.484375
1.3621785366646073,-0.87361423934656,-1.2206238046128002,1.1472290862188104,0.3345045472274458,-0.004032941582086943,-0.2828580486675946,0.09348037414150381,0.23242547548807482,-0.23056979222300872,0.007717078580959791,0.38721916337934764,-0.1435894642304164,-0.8088995612951033,2.4921875
1.0947227075017232,-0.7018381277193321,-0.9808307820622727,0.9218930369354703,0.2687146154352744,-0.0033378857349788144,-0.22733367758320916,0.07511940382869833,0.18675960514654755,-0.1852261477885612,0.006103826092149572,0.3113526406372852,-0.11533003375652133,-0.6498021265027973,2.5
0.27494134015756083,-0.1758150086694438,-0.2458477029651173,0.2313227713001993,0.06708047049814113,-0.0012083787499578419,-0.05709314449495601,0.018868812952263402,0.04677759144838934,-0.04632768879659735,0.0011642592313724784,0.0786631434787475,-0.02878313378850041,-0.16260903775855498,2.5078125
0.4093907392247113,-0.2622680164119611,-0.36668930175779424,0.3445882636636619,0.1001799569080977,-0.0015577398765992032,-0.08502792754426054,0.028117140507480716,0.06974913271215581,-0.06914503939301589,0.0019769314834259546,0.11682841303822424,-0.043014049264422136,-0.24265590677779397,2.515625
0.858798497005413,-0.5507471609747706,-0.7699071344761536,0.7232011154332139,0.2107504652128894,-0.002725572931414694,-0.17839102708890808,0.058975554539935963,0.14651316138264214,-0.1453079101044559,0.0046866165330986045,0.24438443712208274,-0.09048474655520833,-0.5099346149136323,2.5234375
0.13712464560055007,-0.08768350149833504,-0.12285036820462888,0.11539698066251637,0.03326057538943039,-0.0008517210313652347,-0.02854817698790404,0.009460182361173436,0.02329644388354147,-0.0230251008461129,0.00033817753510365144,0.03946668485483693,-0.014295929102467618,-0.0812770377863349,2.53125
-1.4560068696069968,0.9344253634842752,1.3055866551623938,-1.2265113886566263,-0.3585633604346364,0.0032859907987525055,0.3023002718313568,-0.09985368922545693,-0.2487482450995985,0.24687204630347184,-0.009260061771881925,-0.4128605549340532,0.15387197166182723,0.8652312849286995,2.5390625
-2.2714542754276628,1.4574156748447777,2.0365919592281116,-1.9134318558577046,-0.5590928483049802,0.005404077795987277,0.47166550368047505,-0.15579855056421066,-0.3880054519361402,0.38497373341151664,-0.014171222494868869,-0.6443968242068605,0.23991601110580554,1.3496384275701871,2.546875
-1.5256301591410812,0.9788235024398634,1.3678907473580344,-1.285232529780372,-0.37566148435052593,0.003466966497080624,0.3168039019982883,-0.10462366884089966,-0.26065832203902034,0.25861184195508985,-0.009677552882701944,-0.4326719587802238,0.161180384094461,0.9064698628032396,2.5546875
-0.10848657963339665,0.06972895385558477,0.09753488415418468,-0.09150787326520582,-0.027174986112435722,-0.0002138038109945709,0.022530880345792578,-0.00739791077994742,-0.018672516726899634,0.01857550243476912,-0.001141340890762899,-0.030343914362870927,0.011625470810811849,0.0645523944237539,2.5625
0.5705459254159391,-0.36582933688581526,-0.5111465113041932,0.48040515892489116,0.1397901005439857,-0.001977211999015135,-0.11846118532305397,0.03918627940240325,0.09727321784885197,-0.09644281152441461,0.0029490425575776193,0.1624491575781939,-0.06002794223272375,-0.33882506184221656,2.5703125
0.29212798828976755,-0.18720050078561043,-0.26161399321021445,0.24570605452688532,0.07132111064651521,-0.0012536534040582556,-0.060633291430181445,0.02007839532499919,0.04971991292951088,-0.04929998177975437,0.0012722488793492693,0.08342366194973047,-0.03064268971117045,-0.17337705797859085,2.578125
0.2100650033602125,-0.13449505615365262,-0.1880204108406929,0.1764784965886125,0.05113964831248576,-0.001040339887744135,-0.04359770796060917,0.014434157752589232,0.0356972646807849,-0.03539453143898166,0.0007772360427441315,0.0601220228105211,-0.021972891586631477,-0.12452640495165386,2.5859375
0.9884979927712498,-0.6338457565609731,-0.885780574220134,0.8322824959404559,0.242576058674705,-0.0030623793196450973,-0.2052679527926594,0.06783656719242079,0.16862750873491117,-0.16724317105423048,0.005466193510963058,0.28110820278311094,-0.10412984726218513,-0.5869223278851224,2.59375
1.6936675427230976,-1.086323395384968,-1.518035490353241,1.4264430697848176,0.4160223641818285,-0.0048941370815600025,-0.35172201143221665,0.11623449987738609,0.2890559348553027,-0.2867184758840137,0.009715551571604636,0.4813267537048389,-0.1785830932767556,-1.0059214314906129,2.6015625
1.3200885348579863,-0.8467325760175874,-1.1832582486249899,1.1118640820675316,0.32416964135188137,-0.003923698239906135,-0.27414453076342515,0.09061821781612174,0.22525880488355163,-0.2234543021654014,0.007465556572430998,0.3753051514072006,-0.13917056070735484,-0.7840091749470848,2.609375
0.17908145356167396,-0.11462156573290522,-0.1602135443201928,0.15081722026486238,0.04353592041008563,-0.0009598286863032831,-0.037187015242920694,0.012323017230856428,0.030397583453818117,-0.030128236487330137,0.000589502876082492,0.05138104818263844,-0.018714427991711326,-0.1059604001956586,2.6171875
-0.9790227700173151,0.6285344373101998,0.8783339341249675,-0.824656645937204,-0.24130606323388085,0.0020481605846763657,0.20331776536884796,-0.06715334902136702,-0.16736213707848582,0.16610799855341069,-0.006389770283679252,-0.27740767797173327,0.1035523535672675,0.5822904494075871,2.625
-1.6802093855154743,1.078433997253821,1.5070688508160124,-1.4153475667453972,-0.413728733793723,0.0038690611814958978,0.3489240353187022,-0.11526476747415632,-0.2870704154409234,0.28488491318911047,-0.010613837108420204,-0.47645155897881997,0.17755691982394572,0.9988833158005251,2.6328125
-1.286222377012781,0.8255905284110749,1.1537616712594707,-1.0835510832823962,-0.31681253829742606,0.002845573988972935,0.26709848077633097,-0.08822934996752559,-0.21978816276543003,0.2181066734441463,-0.008238847563012455,-0.36460508748944115,0.135955491490868,0.7646855426158398,2.640625
0.15620470182533985,-0.09993526115412137,-0.1395097951540385,0.1315326030029231,0.0378995341668385,-0.0009008051041138493,-0.032446067489677606,0.010736802642155036,0.02648921203543022,-0.02625800016652232,0.0004521492512754861,0.04480528238047289,-0.016294523461442015,-0.09240446716982073,2.6484375
0.9395808216474633,-0.6026312075569958,-0.841964637679889,0.7915233649510567,0.23053446520799534,-0.0029356619100872213,-0.1951350057658168,0.06449503032062542,0.16025334581797257,-0.15896797908708732,0.005173168371110827,0.26711133869186304,-0.09898587829668333,-0.5580130696991232,2.65625
0.023951058364536548,-0.015222239756183649,-0.021300067589214135,0.020156944922765173,0.00538443528964758,-0.0005579832983575107,-0.005011870700561481,0.0016932810064631473,0.003954900878900844,-0.0038698896570407214,-0.00034142546107570823,0.007195501747684339,-0.0023546856017126936,-0.014262798950986304,2.6640625
-0.7396485123146873,0.4747289610542556,0.6631221327805686,-0.6233298567059217,-0.18236801820120985,0.0014252023353300315,0.15354612398872625,-0.05068872816947593,-0.1263897270688054,0.12548136713659375,-0.004941823985084048,-0.20947807268120033,0.07824188920125114,0.4393651199466627,2.671875
0.32701387621919425,-0.2096341675002453,-0.2932251017196724,0.27503204267588754,0.07996307458444613,-0.0013447499437164144,-0.06795778841874661,0.022493488330262563,0.05573599020754603,-0.0552176309426816,0.001483313107819338,0.09340104464968205,-0.03434542147453826,-0.1941743238495949,2.6796875
1.3196958751011403,-0.8466307651405687,-1.1832201167334158,1.1112938592629071,0.3240890368266771,-0.0039226673720122035,-0.2740898786296243,0.09060480837139243,0.2252077760128838,-0.22339974911064245,0.007463749275398889,0.3752048887652328,-0.13913926619273384,-0.783835315425455,2.6875
0.05192307689662599,-0.03324435879380037,-0.04656506031211075,0.043423000488594994,0.01230171639704879,-0.000630000171879616,-0.010802367489025393,0.003620808160835261,0.008720933913229988,-0.00864063364078994,-0.00017417731027571647,0.015281221305466044,-0.005324470368212552,-0.030678888978447214,2.6953125
-1.5725188743392635,1.0091666323816504,1.4100077680807004,-1.3250259955059163,-0.38721646108720287,0.0035891321004762194,0.32656234784347743,-0.10785200002853489,-0.2686600415775093,0.26657425431759885,-0.009962566581642792,-0.4458771619014999,0.16617096007276225,0.9344342954912117,2.703125
-0.7480319073875981,0.480302282277301,0.67099870011658,-0.6305165236325083,-0.18446478572174368,0.001448049431549972,0.1553679428889888,-0.051298758509761934,-0.12789177736829396,0.12692400763059433,-0.0049967145094227915,-0.21182581501452055,0.07916396603961147,0.444682606828637,2.7109375
1.0852465095102382,-0.6959859807395475,-0.9725658815215275,0.9139400255415352,0.2664088119842899,-0.0033133615357902857,-0.22534375521512554,0.0744873487840328,0.1851364431587888,-0.18365010056010175,0.006048998568059165,0.30858813475016017,-0.11436337481830411,-0.6444543308917801,2.71875
0.8355728716444527,-0.5357801968297542,-0.7485761552063769,0.7037387603098715,0.2050167112483771,-0.002665177441646243,-0.1735149218861297,0.05735218977439275,0.14251567193744272,-0.14134233948917327,0.004545206557470834,0.2376972217654419,-0.0880156239696596,-0.49603778485700595,2.7265625
-0.763588387486721,0.49048558828459193,0.6854796063006673,-0.6434151278204406,-0.18829839014756292,0.0014881523901474592,0.15857677944396043,-0.05239557477905104,-0.1305351136735637,0.12961656950930245,-0.005091585390341315,-0.2162517168282101,0.08082284572042503,0.4542736169441276,2.734375
-0.8136911376938466,0.5227999859905217,0.7305693299625101,-0.6856439331189979,-0.20066965577646603,0.0016185159870155238,0.16900786166916215,-0.05584756595041785,-0.13910134986728218,0.138135143120708,-0.0053953575365158135,-0.23044106930762084,0.08614496469509804,0.48419431354301284,2.7421875
0.6116984003253109,-0.3919137248689911,-0.5475678067845482,0.5152875048384554,0.14984687983330597,-0.0020834883656495073,-0.1269777797889608,0.041972588004698344,0.10426382891978209,-0.1033600216628808,0.0031942779779457987,0.1741717736369833,-0.06433348314260316,-0.3627662257242715,2.75
1.2292945418999188,-0.7885265417649409,-1.1015947134953241,1.0358070319488382,0.30171860304321785,-0.0036877759320265023,-0.2552394035446644,0.08437615810652727,0.2096963348300179,-0.20802224234616035,0.006918976499104869,0.349390152998801,-0.12956816733025167,-0.7299109323645613,2.7578125
0.7266706588425121,-0.466308071171414,-0.6512290004670144,0.612437331862158,0.17811959708695518,-0.002382628424971991,-0.15089273380437312,0.049904920973527556,0.12385859388494146,-0.12290045487130577,0.003892513944622352,0.2066228247849892,-0.07653901883605914,-0.4314576284309537,2.765625
0.37946465556375797,-0.24366407184207903,-0.34027471068375814,0.3197558308472938,0.09279553759903762,-0.00148106534609007,-0.07883886425977403,0.026099489685535254,0.06458826178744115,-0.0641239471192181,0.001800585990129525,0.10809631100830475,-0.03990661500906517,-0.22536320000198642,2.7734375
0.006651326731638728,-0.004450059604333,-0.006322045855041948,0.005478472197559775,0.0011949477581373717,-0.0005128892212376186,-0.0014640473916420903,0.0005393715619111493,0.0009780650358444326,-0.0010093450769153608,-0.00044549189186646063,0.0023720220248262787,-0.0005700633973965388,-0.004046181495449347,2.78125
-1.2263128094231495,0.7868228859488832,1.09918736952358,-1.0332917817165281,-0.3019952406287282,0.002689580208862835,0.2545759448043419,-0.08406453211654394,-0.20950828202199615,0.20787787195656676,-0.007874268138686882,-0.3475859895166643,0.12958565548228124,0.7285175751331423,2.7890625
-2.219144316588491,1.4240922900151451,1.9896915040382035,-1.869719777768347,-0.5461850714948269,0.0052685353288132964,0.46079082222264867,-0.15221572379961332,-0.3790264169114604,0.3761231464312033,-0.01385758883990351,-0.6294433108808214,0.23441688352362983,1.3185727973469823,2.796875
-1.3661769428330597,0.8769516258179358,1.2251637628656848,-1.1512593317046038,-0.3364267811255939,0.0030532397367924423,0.28368968306651726,-0.09370669445258578,-0.23338791004463572,0.23163669551033464,-0.008720073872571125,-0.38728741225715396,0.14439786802139423,0.8118826598838017,2.8046875
0.37453179056023195,-0.23988402983287746,-0.3354836041149571,0.31501976152316574,0.09168369009569682,-0.0014680227725182094,-0.07779802857243022,0.025733699575717087,0.06384711828262059,-0.06327929166014022,0.0017671463445867815,0.10693710244476996,-0.03934908780952682,-0.22233828078411977,2.8125
0.8098990679730731,-0.5191518708603293,-0.7256907583484417,0.6817170901013896,0.1987529962588642,-0.0025988209413664904,-0.1682160708335905,0.055601722435785095,0.13819803350622933,-0.1370250596033027,0.004389693413082739,0.23057491572097505,-0.08529718052955393,-0.4808884621064399,2.8203125
0.16934730441177076,-0.10807038902208913,-0.15116884946687265,0.14214045639868989,0.04118077893231946,-0.0009349173737474076,-0.035187028247416374,0.011634469939759294,0.028815687245257376,-0.028455560530823862,0.0005293075035790156,0.048702485035432876,-0.01765662023809953,-0.10011073071322746,2.828125
0.47644257866774165,-0.30513140531756544,-0.4264976953356176,0.40091674413766965,0.11665700691389888,-0.0017323982253045335,-0.09895019826531185,0.03269956829250549,0.08122888717140717,-0.08044572074736703,0.0023795521341657727,0.13581348478670963,-0.05005959311138322,-0.28251335678922074,2.8359375
1.737571883989325,-1.1144355053874477,-1.5573892590263951,1.4634056928061,0.4267768829776186,-0.005007958591016764,-0.3608310309438355,0.1192382277333231,0.29653962574628434,-0.29410342404015954,0.009979602978312851,0.49375823234422045,-0.18319445660595257,-1.0319110490057575,2.84375
1.8423571084201416,-1.181820807565117,-1.6514266891942835,1.5518842920530291,0.4525198229456449,-0.005280125937507152,-0.382555682161781,0.12643215370140043,0.3143946387892822,-0.3118740949663216,0.010612733391338313,0.5234245653018191,-0.19427628539073244,-1.0942722306582602,2.8515625
0.23702495247220892,-0.15194585590618895,-0.21205484411696662,0.19985210546931328,0.0576896879160771,-0.0011105648006100003,-0.04914349301438717,0.016284926546703445,0.04024174868574702,-0.03992723938159793,0.0009411660364272421,0.06762343805112803,-0.02483510967765088,-0.14050978351205443,2.859375
-1.2259637413804283,0.786600418946165,1.0996286204606742,-1.03235713381232,-0.3021093133463721,0.0026891728831858757,0.2546633601154699,-0.08408580088402816,-0.20958178328280808,0.20789116009587894,-0.007873311437828816,-0.3476989393802879,0.12958220717667043,0.7287047153115609,2.8671875
-1.3170330010872158,0.8449608645560545,1.1811588723188273,-1.109097968857659,-0.3244714657568665,0.002925604873693577,0.27353052208501244,-0.09032017560347701,-0.22511690408204832,0.2232845016870368,-0.008422002888431604,-0.37348352989773176,0.1391827225008163,0.7828180693521316,2.875
-0.7638722616435468,0.4901191823234154,0.685166558099616,-0.6432992621523609,-0.18839035020136044,0.0014890209341795351,0.15863747585962742,-0.05236737672125082,-0.13064727958007313,0.12956938454638486,-0.00509019824592897,-0.21638664240412825,0.08079482525903887,0.4542038337824411,2.8828125
-0.4001694454749614,0.2569550848121608,0.35918954871907943,-0.3371253002377719,-0.09892804796928846,0.000544668287029554,0.08312443737455169,-0.02742884903923395,-0.06853821666096414,0.06798899917988847,-0.002901050247607359,-0.11311001622494743,0.0424282551500803,0.23817122033709584,2.890625
-0.14514331288076976,0.09349199701718666,0.13057731147434815,-0.12250147981372557,-0.03619536650949379,-0.0001176997553138981,0.030148457249878687,-0.009937196323437363,-0.02496488604460826,0.024814577950237865,-0.0013657736173663857,-0.04067309392450287,0.015532862310315145,0.08664997944551456,2.8984375
0.06240661102011384,-0.03965964590796718,-0.055705435834617734,0.05217320998488121,0.014894447820175294,-0.0006572057320134657,-0.013028721409848239,0.004319843109975985,0.010533315499798593,-0.010361606000553946,-0.0001138564519080606,0.018301561648844677,-0.006382078875411001,-0.03679182169563262,2.90625
-0.03606193892547693,0.023430808205078677,0.03236435797129164,-0.030805005482091467,-0.009267864061943921,-0.00040198411395269996,0.007358488892759713,-0.0024171021630453034,-0.006233587593246635,0.006279133736856755,-0.0007045658954873532,-0.009646124176546096,0.003982201320981176,0.02151741283569137,2.9140625
-0.3285102150517134,0.2110485410855294,0.29463068212686216,-0.27712333521999094,-0.08118145019721605,0.00035735375256586437,0.06811259096035699,-0.02248496907150271,-0.056160623391402834,0.05581171329285664,-0.0024658912098925213,-0.09270714868170496,0.03483800632636673,0.1951945498833457,2.921875
-0.29462260349804364,0.18940486514914248,0.26444774815703903,-0.24862870139531917,-0.07287572451365995,0.0002693746774677337,0.061137923842121425,-0.02017363575128892,-0.05037082039424319,0.0501023489288097,-0.0022628188815314748,-0.083090929853992,0.031272448614776266,0.17514045537498152,2.9296875
0.39372853847502726,-0.25219095050363544,-0.35274800623016295,0.3311473903308721,0.09639487329312511,-0.0015183561538700547,-0.08178692691574492,0.02705765607494262,0.06717932195356555,-0.0664892530316032,0.0018845387763926134,0.11235827940257631,-0.04138170061119579,-0.23379209871313567,2.9375
1.3918773658935342,-0.8927128797040816,-1.247881457318573,1.172044284070563,0.3418638603334096,-0.004110635424536047,-0.28908061908353627,0.09555687610193642,0.23759555323197018,-0.235608069299973,0.007899987222830574,0.39571365705755435,-0.14675471377838725,-0.8268997119626053,2.9453125
1.6407203025204316,-1.052491075947693,-1.4709663137065292,1.3818411305954057,0.4030222211098967,-0.004756584032029231,-0.34074413042923046,0.11262624806783748,0.2800182739854806,-0.2777861786514241,0.009399206572579479,0.4663059841414172,-0.17301962775424434,-0.9746911690601588,2.953125
0.4512693482921922,-0.2893029682479697,-0.40420807647691215,0.3799667996592707,0.11042943807347168,-0.0016667894104225533,-0.09369283273491082,0.03098794696795807,0.07685284831091413,-0.07624989377650178,0.0022297640255480567,0.12861646003504967,-0.047433226631459505,-0.26767215018785906,2.9609375
-1.126571389356095,0.7231235084417172,1.010700382594728,-0.9491030418785927,-0.2776625963339759,0.002431664787119207,0.23400312982783375,-0.077292899355964,-0.19259706879287855,0.19110357636877973,-0.007279369353674023,-0.3193168810111557,0.1191457918628477,0.670087562991067,2.96875
-1.377689029726088,0.8841803834425249,1.2358777294735823,-1.1604273473300637,-0.3394329007513035,0.003083977134263028,0.2861645833444369,-0.09452358715772254,-0.23550170680876575,0.23365150003549054,-0.008791863826840706,-0.39068659320679694,0.14564538489980688,0.8192572394852601,2.9765625
-0.5341333609015102,0.3428186841596366,0.4795828236782617,-0.44959879972140077,-0.13196430480268048,0.0008927392973289612,0.11099732215236745,-0.03663965913695027,-0.0914869693210402,0.09071215264451654,-0.003707464643380729,-0.15133134829371309,0.05657804428973522,0.31781368534449167,2.984375
-0.28089744598213545,0.1803319016142577,0.25257677643455706,-0.23629467635841206,-0.0696595866067622,0.0002345275934134323,0.0584060520451102,-0.019260811090290417,-0.048223097887655136,0.04779340473103451,-0.0021808948225535293,-0.07944801160144094,0.029836516247358176,0.1671960716292999,2.9921875
-0.6466433296587936,0.4151077321424251,0.5803611770593181,-0.5446509157971794,-0.1595720895998668,0.0011842602670377644,0.13432550450746,-0.044346699818414194,-0.11060714819930592,0.1097575428643908,-0.004384622069828706,-0.18315455539932732,0.06844605547300989,0.3845122309851395,3.0
-0.08444082521612938,0.054479177715217916,0.0760499312156149,-0.07129527212859262,-0.021276205196321493,-0.00027571562877041464,0.01753500073209165,-0.005761180857382375,-0.014563846131364811,0.014509192418627817,-0.0009970028344015714,-0.02344891781571994,0.009101974006117597,0.050512059374146635,3.0078125
1.2934329421600606,-0.8295558030281106,-1.1594221980601374,1.0893195629432968,0.31761127492204494,-0.003854304224237546,-0.26861853242160955,0.08878334177040723,0.22071770237333652,-0.2189293331047897,0.007305329914842331,0.36772050224439956,-0.13634733462048612,-0.7681965206883403,3.015625
1.5896362896064669,-1.0195998733813891,-1.424978112837038,1.3387825146712717,0.3904863451404221,-0.004624018186786878,-0.3301421433539164,0.1091133569738506,0.27131601985407866,-0.26910995744150096,0.009090068607280045,0.4518220836220119,-0.16761950357604347,-0.9442816405951868,3.0234375
0.4404024622456193,-0.2822614824921129,-0.3947371148789333,0.3705523459165764,0.1078867413118786,-0.0016396700351238732,-0.09152621526623111,0.030278929437980828,0.07513180537244525,-0.07441677733645478,0.002165681501032147,0.12565146294012464,-0.04631454388520541,-0.2615391503309186,3.03125
-0.44015228324173306,0.28267352975634064,0.3945244609488555,-0.3713449164324208,-0.10865305523969901,0.0006473044714285709,0.09129331611940414,-0.030126132379153146,-0.07519852670168425,0.07474778124559006,-0.003139702660797607,-0.124269059699744,0.046632125438454776,0.2616265085480736,3.0390625
-0.22444521643266682,0.1442977502208089,0.20112426947482084,-0.18962707600659676,-0.05561170624125239,8.734730791642471e-05,0.04650616993116318,-0.015336216704766946,-0.038385184594689536,0.03819911108917307,-0.001839929249185305,-0.06307763506764782,0.023865005029921033,0.13347988065002622,3.046875
0.0687915620837439,-0.043763083776641745,-0.061577218144727525,0.05752605074094119,0.016489321026276312,-0.0006740808259259476,-0.014348156691995283,0.004765715976428607,0.01165840030416185,-0.01146862818072504,-7.331625916234489e-05,0.02009434690376981,-0.007082875950058767,-0.040746484968493986,3.0546875
-0.31228739759615776,0.20074059281134055,0.28021438845692126,-0.26335024937703905,-0.0772454388840305,0.0003157446276718678,0.06480594669774696,-0.021385452456065743,-0.05343421194866366,0.05309387448406843,-0.002369878944802209,-0.08811268234472733,0.03314888940774149,0.18567053110908457,3.0625
-0.9120117378543829,0.5853882124522742,0.817940862043288,-0.76840766392964,-0.22477233096454513,0.0018736106288593578,0.1893502718061922,-0.0625359826381785,-0.1558890739308806,0.15468450891723992,-0.005983732632321514,-0.2583995554104554,0.09645973443478678,0.5420593207334321,3.0703125
-1.3033474912638696,0.8363352091055781,1.1689862806986577,-1.0978313754780487,-0.3210809981231142,0.0028903864223008553,0.2706670307605072,-0.08940568638032667,-0.22278924373104664,0.22098805535948832,-0.0083414905955712,-0.3696069931396336,0.1377713328160741,0.7747091516222329,3.078125
-1.5195460331034065,0.9750369334278175,1.3631286322498648,-1.2797285743852655,-0.37431601891170113,0.0034521629965278597,0.3156518278815839,-0.10426351172342477,-0.25975767569168134,0.2576465277470632,-0.009643801615326074,-0.4310952113989468,0.16059314290025076,0.9033038285032405,3.0859375
-1.1315035918169944,0.7261110431117361,1.0153214910420112,-0.9528713983129299,-0.27890256530041496,0.002444325046425651,0.23510567260812984,-0.07764197547056066,-0.1934900550434691,0.19193015034310007,-0.007306089607728748,-0.32092866368767514,0.1196331647146157,0.6728371078715548,3.09375
0.5525456272634263,-0.35436465425844943,-0.4947010079210466,0.46548118189003973,0.13528693449519574,-0.00192973102055785,-0.11465524597499088,0.0379197391181084,0.09410838813287876,-0.09337482237969448,0.00283967257911208,0.15725011560660065,-0.05812900254146803,-0.3276847356289557,3.1015625
2.90820708826632,-1.86571991681206,-2.606844712508175,2.449645943778836,0.7146604636963889,-0.00804820406702973,-0.6038942271275473,0.19956063548322808,0.4963888418339501,-0.4924648017497479,0.01703251078098206,0.8260762199549699,-0.3067887925621544,-1.7272816335920884,3.109375
3.9118517182708454,-2.50953811331417,-3.506716474179165,3.2950753347359965,0.9615293018081649,-0.010655220978991181,-0.8123337880470279,0.26843369920982335,0.6678138734455905,-0.6624919546356056,0.023080248939960777,1.1110483515801914,-0.4127376804305045,-2.323696518819467,3.1171875
2.479002733024731,-1.59010824761953,-2.2222358591421485,2.088028028711323,0.609190720738217,-0.0069341017410058,-0.5148117862080837,0.17013925715862438,0.4232071046196644,-0.41974545595073404,0.014447982006491914,0.7043413280727575,-0.2614925526192655,-1.472601913182826,3.125
-0.07198628351738828,0.046620899486826226,0.06459360779977256,-0.06105112693890799,-0.018145424524414044,-0.00030875716714647,0.014878599658259547,-0.004877140578789167,-0.01234797145113531,0.012414932453407699,-0.0009217060045648725,-0.019795819439991164,0.007789418405324867,0.042864764255618734,3.1328125
-1.8214966389545564,1.1690719743557685,1.6329964083262343,-1.5349416249596535,-0.4483989321550747,0.004235271727401473,0.37815884598618155,-0.12491983355196264,-0.31108932754486734,0.3087855590646152,-0.011462627527024837,-0.5164507950355828,0.19246912656326262,1.082295883826252,3.140625
-2.4695750463680888,1.5848706894777633,2.214125861865193,-2.080822407241257,-0.6077781575525107,0.005918781953975063,0.5127621397386914,-0.16939680750896652,-0.4217747421144453,0.4185536313522774,-0.015367246552093159,-0.700453112404307,0.26087334761032194,1.4673639384485289,3.1484375
-2.652534528776632,1.702233261320619,2.3782365226685007,-2.234784228701602,-0.6527539873095453,0.0063940893704272595,0.5507734488513297,-0.1819480643756506,-0.4530322989749377,0.449520860458592,-0.01646955426802293,-0.7524142362358268,0.2801730066116459,1.5759905956748488,3.15625
-2.2796113736424815,1.4628625507631206,2.043878084373938,-1.9204839288933853,-0.5610445935196936,0.0054254900054117264,0.4733274327658466,-0.1563557840979211,-0.3893796451870567,0.3863302400315096,-0.014222593258531709,-0.6466001697895563,0.2407994333179744,1.354378099171089,3.1640625
