AF3,AF4,F3,F4,F7,F8,FC5,FC6,O1,O2,P7,P8,T7,T8,time
0.009930388408949423,0.531243390515293,0.029426463245139686,-0.23471747925092284,-0.07367727305686984,0.36809142770024705,0.08514835521775338,-1.8988671743408532,-0.3785283927776513,2.397472009186359,0.06901481505566841,-0.2660578190471691,0.4956719891139518,-1.1336195338314536,0.0
0.017480781191920154,0.426723170313296,0.05161707259907535,-0.19118094968950833,-0.04767112452493496,0.270570497464758,0.03726692190692774,-1.7910884456233434,-0.24212336049326863,1.516325801048165,0.05343563522037036,-0.1898110088110951,0.30395865676794376,-0.21409895322179837,0.0078125
0.02532456540156075,0.18561409349024505,0.07475941764455094,-0.08822124338996412,0.0008628179413187193,0.07083866099981541,-0.04179343024258982,-1.2784349812902032,0.01049467639484457,-0.10710506702881051,0.019550466049542133,-0.03804841896266007,-0.04329317804722542,1.2109745807714152,0.015625
0.017628350238993985,0.18205493542684625,0.052236052626345765,-0.0845451550670413,-0.007680943459346236,0.08833340339002362,-0.017500149510423498,-1.0538769442505505,-0.036319774374189075,0.20366430689913606,0.020681835728021666,-0.05536637554746336,0.028641694685505953,0.6635505987441941,0.0234375
-0.005184584186673794,0.1264640454437354,-0.014568153465428226,-0.0539844092625176,-0.025514203124219554,0.10703698443209698,0.04437801804628823,-0.2472361675783606,-0.13772238107158516,0.8877504255117774,0.017901356186602525,-0.0822575275129136,0.19087439061578404,-0.8064939817495622,0.03125
-0.011633802690227282,-0.10837425551454644,-0.033329339525823,0.0501577770954004,0.005197653159126847,-0.05027864116433049,0.013188359133570868,0.6473668678223635,0.016759965454183873,-0.08659964799336892,-0.012247365561420611,0.03005565599524209,-0.008907328645601982,-0.4510051384731802,0.0390625
0.006503303436106444,-0.15322111982784506,0.01984825250473813,0.06462518101707301,0.033894832923726886,-0.1312056678562169,-0.055762449901828874,0.27636870297554483,0.1717905798683601,-1.1054975938117366,-0.02194593532532747,0.10016742454819062,-0.2377434849028512,1.0309953794419975,0.046875
0.005544152029183188,-0.0036985676835777936,0.016946905985906487,-0.0002826894016991172,0.008364572275329822,-0.01767683301422371,-0.019360949483640248,-0.15199330365341557,0.04066048040830862,-0.2686649458217563,-0.0017039347378978934,0.015822577461588806,-0.060605633170388494,0.4355062612166225,0.0546875
-0.03142388867578863,-0.0962085311091945,-0.09135066499327818,0.050398710582053204,-0.02014540450390358,0.010841265971223275,0.08044757361766354,1.1626337330978593,-0.12142166574638953,0.8254335077212074,-0.006559024014088462,-0.026625323338482595,0.19995721542106656,-1.9354224778493245,0.0625
-0.04730824581164845,-0.341671112429113,-0.1377732312207737,0.16184479005096244,0.001159851994357495,-0.12957234491798045,0.07760768703677713,2.353319416587512,-0.019125086838182963,0.19996629678597116,-0.03621363320900602,0.06771520417389265,0.08141869942210737,-2.2300236782935974,0.0703125
-0.006132268048890193,-0.23409061327134062,-0.017173058195858446,0.10337158378728653,0.03216857622089316,-0.15784493552191714,-0.03254993439471321,0.8754529396214961,0.15750579935449371,-0.9936499418732134,-0.030190956462088834,0.11237807151038964,-0.20358252248082123,0.3939230444261371,0.078125
0.036737072280047335,0.09064291190691351,0.10826200702200463,-0.05026792605869238,0.02974489397505108,-0.02935993870228534,-0.09995659686040112,-1.310108194693262,0.16347292843745556,-1.1025914062089872,0.004584558216008029,0.04246394664062521,-0.2619477496744881,2.37582288047742,0.0859375
0.02660478518925078,0.10270480789528205,0.0785447156590652,-0.05268854907518865,0.015817221779248967,0.006233134432781705,-0.06429077803654094,-1.063209821253661,0.08767845562470393,-0.6021892621971275,0.008249838189579844,0.010418942321838131,-0.14860074770546983,1.5932083954825644,0.09375
-0.004773935576004892,-0.014566531922735453,-0.013355792553241154,0.007310100721533045,-0.002052143113656823,0.0015910675938535794,0.011775952164372864,0.1708584116619704,-0.01742355938454381,0.12117002062695713,-0.0010896580898235551,-0.004299721024377597,0.029120046743477634,-0.2828178325176286,0.1015625
-0.007612250201290551,0.23454881902452912,-0.021811607251845434,-0.10050196762858585,-0.04603169734272141,0.19403829753272595,0.0763413819084622,-0.5076014833135714,-0.2441493588780433,1.5714227270793955,0.03289097066564658,-0.14793180713847842,0.33628663586412144,-1.3685236522028779,0.109375
0.005185268092243845,0.5019607161981348,0.015551185306521106,-0.22083329126928142,-0.07458806582514832,0.3590819885384858,0.09412562408545996,-1.6793102793592125,-0.3851316390137354,2.4467060002777345,0.06616991965368495,-0.26229362320748134,0.5098677389698019,-1.3790056466049727,0.1171875
0.0009895195783806126,0.16451285378320193,0.0034629572042179963,-0.07260135180920411,-0.024492793409772333,0.11957011325894684,0.032830493326572084,-0.5358809977564268,-0.1301339581857001,0.8266036210825743,0.021804125374971388,-0.08803216985896492,0.17281943382384068,-0.49557132018157063,0.125
-0.01121006239066838,-0.38152383908527254,-0.0319555456174094,0.16910056579869676,0.050276545381306596,-0.2540222991343318,-0.048846955356662995,1.46691088633089,0.24800876210019182,-1.5616912204414781,-0.04896133826250211,0.18055288624344487,-0.3192581437266436,0.5422486319504882,0.1328125
-0.009315574965125495,-0.3408501406634423,-0.026404795016036077,0.15104237601596326,0.045952921317104656,-0.22898523637956128,-0.046048859952140246,1.2909485056940009,0.22678700664413154,-1.4268284850433441,-0.04394165487616471,0.16326303118639107,-0.2924026475602959,0.5399135800566564,0.140625
-0.0008979577684634504,0.03287362463229522,-0.0019393290234463803,-0.014369099099356656,-0.005141318459292183,0.026454974266244595,0.009650583880579721,-0.08233815611538393,-0.031275980260507194,0.2039905504358866,0.004485671115101438,-0.020308087555907767,0.04384869089648282,-0.16317015706774837,0.1484375
-0.002197237291445318,-0.030952581341318768,-0.005716349449101463,0.01366645797466411,0.003634466697355379,-0.01746550862405742,-0.00018269000090741355,0.146364052756115,0.013435878424884702,-0.08074203472334283,-0.003742758610921752,0.011164654855855388,-0.014588338850409593,-0.032648434116190804,0.15625
-0.004605138115315808,-0.3146341701905088,-0.012630680067866629,0.13818732601690684,0.04709747565476351,-0.2219746491924295,-0.0553935042184218,1.077134859386996,0.2350989315499192,-1.490335495440585,-0.041315331945533676,0.16046520691776575,-0.3089729154159465,0.7935386622356201,0.1640625
0.0101005354519127,-0.04454311101312322,0.030285085050028342,0.01653183211260864,0.02048492999357419,-0.06023602968816281,-0.043380071071370596,-0.15308392373769686,0.10444455710768133,-0.681663475939346,-0.008195156327241031,0.04974061120659598,-0.15150457742412857,0.9136950422466724,0.171875
0.031621377234689996,0.5346925870840357,0.09300880982773935,-0.24217372170722723,-0.048636635224362235,0.31348608921895105,0.01522689245450099,-2.5157029440672116,-0.2409240337671017,1.4840272393210927,0.06505544503179875,-0.21325124878298793,0.2856305853510655,0.4375008944733066,0.1796875
0.026356373181959436,0.46337083199825163,0.07762913902951332,-0.2098881286103514,-0.04332951921551007,0.274641846267674,0.01661684426075862,-2.1532959500308073,-0.21556968810011914,1.3313211201765913,0.0566410264579351,-0.18756907286424027,0.2578358886495403,0.30236115733685354,0.1875
-0.00963149617667569,-0.21036739585372663,-0.027438269529350693,0.09393238897824609,0.024094837825446525,-0.13103975459001024,-0.015847877697507312,0.9003916167242699,0.11500437592654016,-0.7158027141678961,-0.026288422666072866,0.09069294640383724,-0.14253697233921125,0.0544229278251435,0.1953125
-0.03342611290839733,-0.4460836763520026,-0.09703921873727926,0.20353275846691085,0.03456386181116724,-0.24366710167804204,0.009207422556139532,2.2829532072763596,0.15810919738187823,-0.9518343087013456,-0.05304894188160188,0.1598583661528006,-0.17231431631092894,-0.8482954073718294,0.203125
-0.01817401516934415,-0.011353809363234107,-0.05259558333196698,0.009695113650077821,-0.01830773686011122,0.03906416109040221,0.0560869802391712,0.5354124239073452,-0.10695418762796373,0.7110867449992128,0.002101101677033213,-0.03983752961435717,0.1646296971380186,-1.2697938031951927,0.2109375
0.0019451342732848638,0.1599554990847258,0.00627869864499007,-0.07077935244384775,-0.022562204138225322,0.1135108830724101,0.028676829949938216,-0.5483865132468765,-0.12001594569283021,0.7606291147076693,0.020983575315675254,-0.08305379503108017,0.15852239321333883,-0.40732096431273146,0.21875
-0.007157284746810398,-0.2952320840209147,-0.020126682569808117,0.13023583408665484,0.040896784856849125,-0.20052512473428236,-0.0427418819643858,1.0892698450022416,0.20203125747480274,-1.2763994256726094,-0.03815716233162352,0.14329426555654098,-0.2618061568372413,0.535255779706666,0.2265625
-0.017347549192590576,-0.48731162422479174,-0.04989131466700132,0.2169259377115215,0.06020046654970526,-0.3163853844547039,-0.05223206753165041,1.9583413408459376,0.29687193867187134,-1.863090281361581,-0.061847217863404844,0.2228965865777907,-0.376764495377133,0.4696352985367903,0.234375
0.004589683311675756,0.10831526778244593,0.014044809638829741,-0.04896132979440307,-0.011060669213087276,0.06828443376896833,0.008578629276514703,-0.46478691598291766,-0.059420876496656845,0.37293142166222015,0.013479735888569279,-0.047981460016536304,0.07424647840413509,-0.033885699114338516,0.2421875
0.02847049171740116,0.6870899889279908,0.08369971041444114,-0.308094882871388,-0.07727609576012387,0.43534226503713225,0.059327505118039935,-2.891354002616354,-0.38906540196845646,2.435666534235209,0.08617523596402087,-0.304821977909507,0.48731338839210403,-0.33587679603519527,0.25
0.015917484498527052,0.5284101775209866,0.04699419677489238,-0.23531207496052192,-0.06618090671815964,0.35045872172930015,0.06498231444966909,-2.058295904784982,-0.33760176614177434,2.127964312957421,0.06747495783851408,-0.24959406914782775,0.4334113355545767,-0.6901438270184339,0.2578125
-0.0072893732476130265,0.12776650733868686,-0.020807868805612296,-0.05393105784930169,-0.02819734985004957,0.11381333337153893,0.05161936116896245,-0.19203682427414673,-0.1526099397948189,0.9857961450487686,0.018503406072884216,-0.08861036549585441,0.21354368979203808,-0.9657281699223245,0.265625
-0.002914949176826462,0.05470067305216825,-0.007937449098621594,-0.023227306237096186,-0.011121328292779835,0.04793029575839095,0.02113936560290981,-0.09218955605045931,-0.06299043369775716,0.4069745706605192,0.007802662890643747,-0.03747042504236379,0.08854401231440867,-0.3869270403777376,0.2734375
0.007002992357916348,-0.09178957589688058,0.02126498625767338,0.037784807390440524,0.024477314507261698,-0.08696258241444446,-0.0437704801468907,0.07609408498141626,0.12393606581781008,-0.7999996802425571,-0.013843830461079568,0.06781198221641925,-0.17383495019168554,0.8527335253212585,0.28125
-0.010987349352421235,-0.6083475339576228,-0.03111837978731776,0.26797884560768936,0.0875263472497256,-0.42321738232937756,-0.09996154099759205,2.149139643598292,0.4396065481417734,-2.7818574508415197,-0.07937085422512873,0.3053650338230281,-0.5756891041136047,1.3621316898573126,0.2890625
-0.030549906907250818,-0.7846595229340132,-0.08835638473932257,0.3503286646388993,0.09321558028662666,-0.5026591999560235,-0.07537459795601403,3.2316171746352436,0.4603467695925869,-2.8822494013282203,-0.09899396208855914,0.35258194133897464,-0.5802650693690804,0.55735454748768,0.296875
-0.011723265856078104,-0.16147558659773345,-0.033576849259200056,0.0733441087836745,0.013769532489129847,-0.08937683563720811,0.001789223038435728,0.8109719870095462,0.06082068864664495,-0.36761958960050795,-0.01933524987776152,0.058691567294959855,-0.0672074851419476,-0.2679945374694469,0.3046875
0.02430509691868455,0.456849991112566,0.07162714921418607,-0.20631320038528592,-0.044598173496882394,0.27500245922987654,0.021801449077175003,-2.0753988741011526,-0.2232510376030946,1.3828660195354865,0.05615448889086821,-0.18916795583199097,0.2705955635801904,0.17823190833760122,0.3125
0.029025529539286526,0.3316190070887759,0.08552067632839837,-0.15295324923884482,-0.018618511311437432,0.16952543769571307,-0.021414826638178702,-1.8264927943642209,-0.08800360276031893,0.513034527414849,0.038399614714552235,-0.10867937198268425,0.08368736696912897,0.9644557482765749,0.3203125
0.003919520920455476,-0.004287789632406617,0.012133773384733777,0.0005225220099874282,0.0065286801329106185,-0.013859867675587867,-0.014268679272555618,-0.1038907454450694,0.030404228389725858,-0.19916779216873493,-0.0014828496079845987,0.012018573969461684,-0.04518296958575163,0.3178196231116229,0.328125
-0.01111724083170692,0.09519001354645094,-0.0319849087594922,-0.038841758835356004,-0.02747642660269845,0.09974302399985562,0.0568362198587137,0.013445505864661037,-0.15022834496356768,0.9776269817211355,0.014945472684899836,-0.08041191993042543,0.21462341513644276,-1.1318514211522306,0.3359375
-0.004454571508302759,0.22312669268675642,-0.012526411681330663,-0.09665753301110966,-0.04051500958113804,0.17738511452463815,0.06361760375136911,-0.5622228235021132,-0.21426963508773045,1.3731406860108102,0.030761023037738377,-0.13377198526399067,0.29242090223082245,-1.0986469237728846,0.34375
0.0016070031159498136,-0.053947442128739725,0.005395882289105755,0.022539318523246008,0.01184872253999002,-0.0443665499077907,-0.017640580579819,0.11060248784316161,0.0566182054254855,-0.36594937229109986,-0.007605811483436056,0.03323856808067476,-0.07769701808423675,0.3219878215166199,0.3515625
-0.0007497449075809608,-0.2273072736486044,-0.0014085601218296899,0.09895256769146572,0.03741336094484586,-0.1670567043408815,-0.048530093934757636,0.7042358868071679,0.18647091635733598,-1.189271076806945,-0.030388192641193367,0.12231567763401864,-0.24878863166204077,0.7631584217640323,0.359375
0.003548416947415853,0.07807410935900568,0.011025170944493656,-0.03541440321075261,-0.007268138789609156,0.048409351040855586,0.005203561557364402,-0.3431304097495562,-0.040840817920926795,0.2560455405619606,0.009628354718943067,-0.03404521260290457,0.05069883355578469,-0.0010413965844318584,0.3671875
0.012778320641966521,0.26369609325871124,0.03797271584382454,-0.11899981467710144,-0.02665194023714683,0.16208721127016062,0.016327716111519005,-1.1648791883024199,-0.13605842822279646,0.8504221137658127,0.03261217344990776,-0.11243216451030777,0.1673950024855672,0.016675946770028753,0.375
0.0037196462592817415,-0.07070558674839915,0.011605997205150946,0.02943629330136955,0.017178204540216277,-0.06239018959490924,-0.02841916667584578,0.10437731232206596,0.08509772296465563,-0.544563101073694,-0.010344191222746206,0.04790954988060063,-0.11801502531610027,0.5363580829588928,0.3828125
-0.022356220363247845,-0.30836564470072103,-0.06467833623822301,0.14045360792513426,0.025161224488065976,-0.17035081841634836,0.0037660210479808455,1.5547009660574544,0.11494487335267878,-0.6932137979137815,-0.03685319473061589,0.11237565048559074,-0.12709011707583226,-0.5268847134968324,0.390625
-0.03086132529435492,-0.00021579040305642829,-0.08976028449174824,0.008343843941118596,-0.035148777599208085,0.08083938340975923,0.09995090151990851,0.8550113095265278,-0.1980609141310356,1.3150509522726168,0.0062003083132092145,-0.07787411367507549,0.30214717286327525,-2.2354752024791367,0.3984375
-0.009120563222958842,0.28731670824608024,-0.026200130786157176,-0.12325591953319569,-0.056421773847190076,0.2371540965201596,0.09303293382912453,-0.6266683423593491,-0.29795510884409715,1.914782943776257,0.040297686361619074,-0.1806054814276827,0.4100876701907003,-1.6643148662995395,0.40625
0.009842545465647261,0.041729626731303225,0.029490211560873753,-0.02133745597566129,0.006001691779826956,0.0047555393334947444,-0.023294701892808568,-0.409531181281552,0.030100356816742127,-0.20955953700452917,0.0034864101125185857,0.0017533114953157591,-0.05191664266514796,0.5868743170663592,0.4140625
0.0027875834489332224,-0.3247498836292162,0.008998004628421487,0.14070075970877485,0.057490959371408835,-0.24900541892655342,-0.08177619719608817,0.9023049465998105,0.29088209860573905,-1.8613932841184664,-0.04421573215102501,0.18479589791496562,-0.39303348491930357,1.3666066241039179,0.421875
-0.005969380969624241,-0.2888815413285354,-0.016669258020967824,0.1275395687167357,0.041355304913418864,-0.19935514906366203,-0.045327337245226085,1.0381514468891508,0.20440232493028418,-1.2941620322741643,-0.03762070193099281,0.14308336771458463,-0.2667787771814318,0.6018157082477174,0.4296875
0.007315399974901635,-0.016754022820419233,0.022146658774304506,0.0049590896801931655,0.012638266181109884,-0.03208752868534652,-0.028133747771208306,-0.1606714647177848,0.06327170072673123,-0.4126785803654829,-0.003845495151631163,0.027406001533750602,-0.09304325631991502,0.611206247225399,0.4375
0.023212845946517915,0.11437382133454307,0.06865825375088579,-0.05681834797879657,0.009947162274192326,0.02364735402613286,-0.05074181334947685,-1.0039402097829,0.05671647122148998,-0.394262294844564,0.010495690806900182,-0.00449533906439521,-0.10269353501647627,1.3077068169244719,0.4453125
0.01719204298416393,0.10464542412648777,0.050970252713537736,-0.050889032825056614,0.004379251874714676,0.032404013718110844,-0.03325413963257341,-0.8062953434241396,0.025499275903659385,-0.18636978019880318,0.010432079637614911,-0.014445221669002755,-0.05384390934449748,0.9007919891635674,0.453125
-0.00046157169164384005,0.12628348449977267,-0.0008052795655831041,-0.05535602662768646,-0.01996611791154635,0.09494142497783953,0.02907960071296227,-0.37875831987954783,-0.10737764168836253,0.6857165195750983,0.01694692027161809,-0.07074876523574977,0.1446772272857076,-0.4646698231869211,0.4609375
-0.00983671418101446,0.19029246399737187,-0.02829020628559845,-0.0806678576165894,-0.04141116977116665,0.16705371530659652,0.07383403533229244,-0.31123466044494885,-0.22171262135112196,1.427021439719035,0.027438412671999125,-0.1292192183831352,0.3087154349383256,-1.3738529937830142,0.46875
-0.008992681268073004,0.19509292756978153,-0.025787936137161276,-0.08302452391812896,-0.04117096852702234,0.1683438235093882,0.0721193422804993,-0.34927193369770165,-0.22012826493117313,1.4159741302020366,0.027900686739642445,-0.12953640195478697,0.30555243545929756,-1.3289702693310723,0.4765625
-3.6724751373006046e-05,0.08852044978159664,0.0005191087733043795,-0.03905366618168882,-0.013261900167996965,0.06569159643952287,0.01926556296869786,-0.27580115932367116,-0.07291188645460335,0.46481361003468386,0.011794268660033686,-0.048680918551838155,0.09782307076053731,-0.3003681904050902,0.484375
0.012398615473312655,-0.06704413926666646,0.037050429968568124,0.025308953741695103,0.02672663025596555,-0.08252148261605287,-0.05575929325801708,-0.15099534068012233,0.1378341952356524,-0.8980972260303524,-0.011576206826138342,0.06763468281965805,-0.19898078742676634,1.1560499781452205,0.4921875
0.007181775766440678,-0.17003191844795298,0.021840026313226752,0.07168047593510356,0.03737884849165615,-0.14537127416532974,-0.06165356727782762,0.30784910491,0.19030028607632501,-1.2240673073308592,-0.024314273132627018,0.11087463293719581,-0.2630812257574462,1.1398006736563329,0.5
-0.020153362926240415,-0.2243307108173709,-0.05823684671580089,0.10306671032641698,0.014060177162368586,-0.11388626152400705,0.015220915260601736,1.2379797927014098,0.0586080872278985,-0.3396771238473813,-0.026044559997031504,0.0719284337474247,-0.05479438960658245,-0.6637327264789632,0.5078125
-0.026343940674981345,-0.266533156497215,-0.07638911168718372,0.12334977879456933,0.013691739749794096,-0.12898040993151916,0.025951478971523115,1.5405302917170494,0.0537336854399134,-0.29826142927933885,-0.03048267314541803,0.0795415661085679,-0.041123604753114086,-0.9670106715311522,0.515625
0.015258687337307864,-0.19038297297311393,0.0454674237498755,0.07864000298957464,0.05032798298735188,-0.18193208785507295,-0.09256002795556266,0.14625359306983313,0.25979327124677243,-1.6796533928642023,-0.028794497227989636,0.14256029907100037,-0.3655359681212066,1.803045792188215,0.5234375
0.04868394669291106,0.05629064196069784,0.14330030247047687,-0.03830204189876756,0.04947895039531144,-0.08672778357787275,-0.14655873293678995,-1.5388677263851893,0.2703474415816378,-1.8005044139508515,-0.0025426961459764546,0.09158310982470619,-0.41836525563843463,3.375032560827957,0.53125
0.014026696254454052,0.2218598109948457,0.04165291269190311,-0.10100072626299128,-0.01842239777855701,0.12753426570890267,0.0030361967421703483,-1.0741413455578925,-0.09286026152778687,0.5726520859685482,0.026771118661522667,-0.08642535700383756,0.10854822876847575,0.2591373750180479,0.5390625
-0.043236305947368665,0.11664435711677151,-0.1261181390169553,-0.03930829781745403,-0.06880950870982748,0.20032436924077623,0.1661019789606707,0.8462414112844155,-0.3764953159427375,2.473050447420762,0.02441068612172669,-0.17311745753900462,0.5548150549057088,-3.554719990901131,0.546875
-0.040885694256221225,-0.0010308653368176308,-0.1191760936828956,0.011292979487180214,-0.04686279328772375,0.10688605349384066,0.13240177619111182,1.1380452995336978,-0.2631395833534753,1.743364585643549,0.008176164868981407,-0.10281960242925188,0.3999744310512618,-2.969663345033328,0.5546875
0.0004553219886516672,0.11880175492554156,0.0019187069010439411,-0.05239919844222794,-0.017646920907704713,0.08695735322694831,0.02449642096005717,-0.3820875658096946,-0.09513710872223345,0.6040600606819697,0.015766908524544137,-0.06424097091410534,0.1270969653256832,-0.37111824083063194,0.5625
0.0009869374178325741,0.2306514245338109,0.0034252227889388543,-0.10113842558850743,-0.03521477857871522,0.16837104157669525,0.04754065148616675,-0.7365077632831944,-0.18474245089769523,1.177516220701065,0.03060358064502496,-0.12400727647812793,0.2470829433071429,-0.7232810364934923,0.5703125
-0.031627145546525647,0.06866586539106805,-0.09205243294096113,-0.021319444301952033,-0.04721824427505861,0.13378157762599907,0.11763088426490845,0.6682425233765554,-0.26048978260525624,1.7159190653922536,0.015540988980987677,-0.11742111654090986,0.38667762697577596,-2.5323514828089397,0.578125
-0.024080484056395204,-0.13517130131108618,-0.06980341051755466,0.06533849402405455,-0.005100122089806651,-0.03738048824493577,0.04780635518892108,1.0765718264990198,-0.04132730611078521,0.30427781342629384,-0.013284949190077302,0.013125755307770572,0.08389924460797112,-1.2635735380447342,0.5859375
0.02203777282451247,-0.10068274081701577,0.06534134477978008,0.037244396496293936,0.04360000670458493,-0.13298368330162755,-0.09458048336753494,-0.3183323654467876,0.2284577272029404,-1.4938814633521784,-0.01804584464730563,0.1103926814860248,-0.3316888660496566,1.9804856835191798,0.59375
0.038624991632049625,-0.0025938576548534837,0.11388072320351818,-0.010198235505435782,0.04714846080079278,-0.10368777748975642,-0.12680999033574594,-1.079930873953934,0.25382477971991274,-1.6818655509583282,-0.008296844955006074,0.09855769982921353,-0.38522655778811365,2.843845599014513,0.6015625
0.018757922612818598,-0.08854993064441356,0.05568385743037976,0.03294672557180197,0.03778644607647361,-0.11523677981750743,-0.08134032970483,-0.2619053170887283,0.1969667428837568,-1.2845637611490581,-0.015798808214246094,0.09561358655329387,-0.28600943889023256,1.6951506625464516,0.609375
0.015260547422305896,-0.21519741156186498,0.04549628933819572,0.08930164891976874,0.054361740178870584,-0.2001931246423348,-0.09812724728716156,0.22161084574428375,0.2802416425882507,-1.8101906988736196,-0.0320861336834323,0.15605332793951338,-0.39347783162972927,1.8873418719885053,0.6171875
0.03298158156927224,-0.11604601714424383,0.09736832922139842,0.04119404313659579,0.05907182979340456,-0.17333076130809008,-0.13372631875837365,-0.5757307912538827,0.31216428072651403,-2.0445380160426248,-0.022421362565566757,0.14632866710240117,-0.4566894080506507,2.8336399253570663,0.625
0.03117734474684679,0.16035000484328477,0.09192578426398954,-0.0789179617820792,0.011802125853236053,0.03667056281035799,-0.0663965607012607,-1.3665322824912798,0.06928814580380786,-0.493001986404998,0.01500720696325674,-0.00950451916102026,-0.1290083354905695,1.7271531307323371,0.6328125
0.009178438069058586,0.3080929296938278,0.027399246612060026,-0.1374151100700625,-0.038277478808181456,0.20441754183491434,0.038060739735285516,-1.2014369045108104,-0.19682783394063913,1.2403218746090348,0.039336843621543445,-0.14574152705479024,0.2531699688390361,-0.40185146595421567,0.640625
-0.003965955489047688,0.1477684927951861,-0.011000450634505483,-0.06390598664445322,-0.027593123156396594,0.12002049467439335,0.04527860956392609,-0.3468386076350786,-0.14774815284149523,0.9478317883866569,0.02055825317416472,-0.09105882620940167,0.2028924076854933,-0.7952275975563498,0.6484375
-0.013185664152281796,-0.1343310796588411,-0.037876094954925915,0.06191316325284204,0.007628932206474563,-0.06531034852991399,0.012650559009653497,0.7689795342404222,0.0287387480980857,-0.1623530327849929,-0.015388676093438013,0.04015193801049816,-0.02228931137788231,-0.46962337658584985,0.65625
-0.03189301670054259,-0.2088133756731013,-0.09270795843506803,0.09986169670624842,-0.002246723269720385,-0.07145406972252281,0.056930934518544606,1.5192904274115633,-0.030074957150625456,0.24694797532046797,-0.02158820750241841,0.03374666741234517,0.07863023579308888,-1.5719911005885432,0.6640625
-0.03950684527295333,-0.08656183903092786,-0.11510679855164381,0.04858421787393072,-0.0312084692669383,0.0395198484175159,0.10876843613699878,1.3608937802597132,-0.18187148881558868,1.2306394785232921,-0.00364364168386831,-0.052480071268765825,0.29046079992445023,-2.563286935671821,0.671875
-0.026871595986344216,-0.08587611362659466,-0.0780419111153043,0.04449170846544954,-0.01646145142034329,0.006917552403093462,0.06778579646641747,1.0051622450059108,-0.10078872291071189,0.6913896507687682,-0.006097371088716898,-0.021054661504861426,0.16652534917733652,-1.645836726076518,0.6796875
-0.02236956928067486,-0.20574979455777592,-0.06474054786459266,0.09546635937463012,0.008425165387442092,-0.09408899912942581,0.02657936223736195,1.2431764838915047,0.028713556748629826,-0.14561703496726947,-0.02307680206611982,0.05606846374011656,-0.012210810994539887,-0.891501031966801,0.6875
-0.02967393906377514,-0.06588907617179617,-0.08622122837021876,0.03665024191341592,-0.022974280853478475,0.028759614814242034,0.08144825457451826,1.022107650651154,-0.13551184613346942,0.912187180800847,-0.0028629778988250336,-0.03876625862732586,0.21645665068642306,-1.915797166227032,0.6953125
-0.016196084850042165,0.2984612829558613,-0.04695535781546566,-0.12601631886898604,-0.06656659589031487,0.2638836081155877,0.11846358832489023,-0.4621237461010919,-0.3532141990399175,2.2788711876786487,0.04321314774551982,-0.204379033963507,0.4919134008547608,-2.2201866174687788,0.703125
0.010970052251270172,0.3276450071251227,0.032603124801344835,-0.14647938495580817,-0.03938160583354853,0.21429670891414435,0.03651610708877293,-1.3102493495585965,-0.2020423408876844,1.2696471404533984,0.04159766875778709,-0.1521030779613365,0.25717405417677447,-0.34351597985418825,0.7109375
0.009427320702755086,-0.030151798260871502,0.028260521219963138,0.009986687725163602,0.01715930301957502,-0.047250845479794454,-0.037868665589235885,-0.17951644493836422,0.08715507796244579,-0.5735171523954747,-0.006034327599516231,0.039876714065260804,-0.1281360019231115,0.8074384049894583,0.71875
-0.00829301655763718,-0.07950876004652141,-0.02362858492747087,0.03664645492073633,0.00441505319831445,-0.037418377280826115,0.008867848119511409,0.4660576204535313,0.01395395592184544,-0.07746663109976433,-0.00905506344305754,0.02237703343917838,-0.00872881571394269,-0.3086337375918141,0.7265625
0.009317966655856312,0.3662096723638993,0.02776801987451117,-0.16250260691722065,-0.047435431442560724,0.2470388722472948,0.050461060646589444,-1.3807541961029308,-0.24436049390990955,1.5431053147408127,0.04705089496006992,-0.1771966859929474,0.31685746839861856,-0.594393287235187,0.734375
0.05296894178187428,0.49677497742564186,0.15563997597649595,-0.2316259216175199,-0.017279886244398766,0.22906067420762855,-0.06269518238463803,-2.997757835196574,-0.07044564350625296,0.36497485925509865,0.055621596988637896,-0.1386916659854312,0.03281063311955111,2.131941174768767,0.7421875
0.06900832048875127,-0.1265379479650188,0.20299938638663437,0.03565838539522927,0.10322635685400142,-0.27595602122573404,-0.25331799706773483,-1.5518755290896915,0.555039276500973,-3.6486750380982302,-0.03116954857479949,0.24299162738576568,-0.8234641276472566,5.503782317281395,0.75
0.05281002600140342,-0.721970867432234,0.1558716540096945,0.29976820280169586,0.18122103756672178,-0.6753747198085082,-0.3327867459028776,0.7104300162068918,0.948075128000641,-6.129074676489731,-0.10762516875375946,0.5281850099419444,-1.3307832042112038,6.422515909072986,0.7578125
0.03753186731171516,-0.5248210603333578,0.11099166357670481,0.21798110608100335,0.1310867532015286,-0.4886732492131079,-0.23926451488279316,0.53846051258254,0.6838349060773815,-4.421119400675559,-0.07807163225382924,0.3817264354382348,-0.9594245163421271,4.6087155632965935,0.765625
0.027070179563950227,0.028626011787773565,0.08000313531809881,-0.0204864929299687,0.028499358225024366,-0.050127848783786934,-0.08228450383358699,-0.8510439630030944,0.15284347255525502,-1.019481501744396,-0.001777284079114769,0.05231871329327612,-0.23642853573458947,1.8896058099400939,0.7734375
0.008757252163975491,0.12959181875799208,0.02625556772024934,-0.059404903536349155,-0.009597384602817957,0.07305333000890568,-0.00020535933096158592,-0.6463637013797582,-0.05021388132620872,0.3059744523661097,0.015494551879653066,-0.04913767291326078,0.057121143860554925,0.19689318682432097,0.78125
-0.016476569060559023,-0.13155492689554987,-0.04754994396767806,0.06151168803059138,0.0032169283955592537,-0.054439733748561314,0.02393756218232227,0.8524215470251446,0.004852293089122085,-0.002253951358102756,-0.014329182073159587,0.030221835810425444,0.013130062128124571,-0.7228217465201477,0.7890625
-0.054114629034263666,-0.11589787888814897,-0.15786221186357569,0.06520127999744917,-0.04368556824087508,0.05621499210614725,0.14985662525870885,1.8575292067982052,-0.252219323245578,1.6992947277866626,-0.004546423318152431,-0.07318923278289739,0.40126782738817446,-3.5268516456249093,0.796875
-0.10445551024725529,0.245716167667906,-0.30561599791023125,-0.07837990471876681,-0.16198649403792537,0.4571525925376794,0.393984193334408,2.1664011408916455,-0.8810760340263648,5.791476473080161,0.05416649833327512,-0.3979638294816931,1.3022347317077292,-8.479550162705703,0.8046875
-0.12834234348243914,0.4356627207116972,-0.3757368432172387,-0.15451827553654165,-0.2211462608026512,0.6610484785480674,0.5139740723258075,2.2565015277913636,-1.1947697304467972,7.83045044623643,0.08449192793685069,-0.5620910950513086,1.7505812277412474,-10.893760236604866,0.8125
-0.09292982674663397,0.23090845164224486,-0.27182008969175836,-0.07515666536788818,-0.14602752567865854,0.4158328727246021,0.3533014536732233,1.8881039928922358,-0.7939668136938656,5.215675648173735,0.04983904315392671,-0.3607500094502169,1.1725885033199173,-7.5848248781499,0.8203125
-0.027555776098898286,-0.019941467592092192,-0.08007833228379588,0.01601143897039176,-0.028025726016265833,0.05743218624780564,0.08479222002038729,0.8231226547135602,-0.16051921819540232,1.0679209247170123,0.0028667310112503877,-0.05873017286453351,0.24755557836807787,-1.9253056725730378,0.828125
0.025317365771604143,-0.04153625330211254,0.07486474547900034,0.01082290769854755,0.037868131410648154,-0.09791471793170195,-0.09216525468772978,-0.5885518979959453,0.20016113297229793,-1.3188369571432634,-0.0108587669523926,0.08622883812907495,-0.29759888844742427,2.0128241903774056,0.8359375
0.06439478218611774,-0.061447104075613754,0.1893877406665141,0.00867511194317797,0.08720071553776026,-0.21555688136865306,-0.22383560645321549,-1.6201764352612316,0.47015689548804535,-3.103023256797903,-0.021515298546302526,0.19552999093272722,-0.7049448338067922,4.9367990932902,0.84375
0.0911877004314718,-0.3029800402182058,0.26808364299651416,0.1063789666034106,0.15817484382264296,-0.46525214885079974,-0.36471240007226013,-1.6352584121297338,0.8459993210490478,-5.5420849536859125,-0.05932654670975532,0.39536298502145295,-1.2396509142973473,7.744184617276934,0.8515625
0.09041703209128503,-0.4348200986692031,0.2659425679344604,0.1639147802077932,0.17875946211157012,-0.5610195929821049,-0.391484463275326,-1.213033787094605,0.9514095187787415,-6.212824422161063,-0.07682602359150029,0.46578892493842566,-1.379959867107012,8.151917173987732,0.859375
0.07407753988757454,-0.05964018882926334,0.2178341776493699,0.004883091866616163,0.0982872035399768,-0.23947699488291832,-0.2549449134035026,-1.896835188660866,0.5316657926620165,-3.5100116839465585,-0.02322631874182846,0.21924687151915095,-0.7985600456335141,5.635058040871395,0.8671875
0.06542321668567994,0.49897729864419604,0.19211330121553732,-0.2362314984944511,-0.003059329260207069,0.19812674566870872,-0.10264361561317116,-3.3538165195360015,0.008105744934356722,-0.15826675625795755,0.05341652325869731,-0.10858802608539583,-0.0869985651941954,3.0320642445270747,0.875
0.0435099507179135,0.5736417145459458,0.12784024631827592,-0.26275905577423886,-0.041098708838384554,0.31141895688813165,-0.014656284563269934,-2.969143028307728,-0.19659207788016012,1.1810961257138601,0.06794870409368424,-0.20482510466925272,0.21284047647664778,1.1676038900597545,0.8828125
-0.01552110027230271,0.1585183677193807,-0.04489335652214833,-0.06537741753276234,-0.042974490606434726,0.1585751014897986,0.08531780671439242,-0.056834983838709975,-0.23188573872280935,1.5017588210363235,0.024388960614932533,-0.12617517127653147,0.3290066225299092,-1.678330029140306,0.890625
-0.07266513927128572,-0.18242379940055414,-0.21214036747986725,0.09932973761119006,-0.054692007314829594,0.05555402241719546,0.19554121289303653,2.5781282098211595,-0.3167123206170342,2.1379041232450873,-0.00967786249336951,-0.08330535748612693,0.5093789776244785,-4.646269118189709,0.8984375
-0.0793104737030298,-0.23513412388207677,-0.2315940312701983,0.1243786301083226,-0.05389685117302428,0.03365071779132801,0.20538417274837012,2.9248211288717654,-0.31546070510673374,2.143697154167441,-0.01543192587542556,-0.07118112100858233,0.5155945232517748,-4.9434733010717755,0.90625
-0.053394380329778196,-0.2266969518888586,-0.15569095548428907,0.11356664604520185,-0.024713946648039404,-0.02825733693258994,0.12286149187446774,2.1749657560150406,-0.15470601515794377,1.0774902805598283,-0.019604263797940304,-0.010620716064357587,0.2700886474362377,-3.080901150612089,0.9140625
-0.039380717581082525,-0.23094465423773342,-0.11466299652356284,0.11150122840276322,-0.007488155018838102,-0.06812069689766614,0.07627175536461998,1.7969364319335053,-0.06055806631225658,0.45463167871299526,-0.023044067721854505,0.026962578577744367,0.12755510026320394,-2.0443879330475188,0.921875
-0.040728415346181726,-0.17808648496877977,-0.1186502698538948,0.08883700172861446,-0.01767738772158204,-0.025271107383208372,0.0923535370861887,1.6746376599683375,-0.11340945209494911,0.7952223076210732,-0.015698274347108146,-0.005364377535352444,0.19988836933193205,-2.3300251778741274,0.9296875
-0.03392969955741591,-0.1510572391281776,-0.09871325360226713,0.07509849430971839,-0.01409864282090711,-0.023084132991127253,0.07626228655328836,1.4013692474005037,-0.09176658527463191,0.6460403127245028,-0.013430634188112266,-0.003096391808262438,0.1630367347702781,-1.9280627773427896,0.9375
-0.0075971677429952636,-0.1305767769674569,-0.021525456277489384,0.05858956077552076,0.013518624793987407,-0.07704981814856339,-0.004753570901556526,0.6007848157988039,0.061508737068350965,-0.37881756140402,-0.01598975306884172,0.0519518852519743,-0.07316469394713097,-0.07780426931227784,0.9453125
0.02767469882568154,0.09332192172143208,0.08172722308845257,-0.04909689642764772,0.01853191193454844,-0.0035323767680271504,-0.06973562286806394,-1.0667262438219849,0.10227681885162507,-0.7018922641560121,0.006840667359618802,0.018299579200402608,-0.16948617185767553,1.7053689255784372,0.953125
0.04467974735357648,0.4020604426710218,0.1313935001495709,-0.18840164440072352,-0.011735131641642492,0.18081198383309463,-0.05657750068299638,-2.47967813566951,-0.04588570115759936,0.21433060037100654,0.04470028418540854,-0.10772212846044876,0.008767470412163615,1.8567647243852243,0.9609375
0.028695610184838592,0.38642453370013286,0.08456157484979529,-0.17689613312862248,-0.027973168557056866,0.2110492372475861,-0.008111685043233511,-1.9845216937727026,-0.13600222470816006,0.8181842960453987,0.04582977281856609,-0.13938949836036432,0.14842287478988145,0.7471073922459637,0.96875
0.006705583185403154,0.09313105561571801,0.020271498706394733,-0.04278983665247137,-0.006064896296125119,0.051140799720206326,-0.0016559084742707993,-0.47834884446587717,-0.03290295236077112,0.19840662497204917,0.011018270592094924,-0.03431481376147849,0.036434981362531066,0.17831774008809773,0.9765625
0.011500706062244096,-0.03303351573347323,0.03438448838628257,0.010824758853340125,0.02015754559162272,-0.05503637861759404,-0.045254975564306466,-0.22863662192395204,0.10369324464956665,-0.6804987578758015,-0.006871688160183785,0.04682525257698733,-0.15206681560534566,0.9728570415073332,0.984375
0.027625653620961737,0.04415392833459876,0.08161106839651583,-0.027296856343651196,0.026628314030872315,-0.04017459510806299,-0.08067724711185838,-0.9131521790039338,0.1438080897527242,-0.9606286936294913,0.00014839219345408227,0.04530484685456689,-0.2245679830500953,1.877393002347047,0.9921875
0.02179475269254105,0.01804622051073644,0.0645604993741225,-0.01416251168480705,0.02405770751660283,-0.04432028681837569,-0.06758359444448235,-0.670663616247696,0.12825559452291913,-0.8484740903444233,-0.0021676333658563205,0.04492534539555249,-0.19655066161467635,1.5455807684212073,1.0
0.0018973609663708569,-0.08056225343889048,0.006302281766620888,0.034379203729271286,0.01664711293974181,-0.06516148316806993,-0.024674415085609597,0.18428943246414858,0.08180065865200223,-0.5196549679973207,-0.011282236439052249,0.048653144489383786,-0.11093234484118732,0.44177179182458276,1.0078125
-0.00454542171309291,-0.062247095621866144,-0.012610758524298339,0.028063495665893872,0.005999253379860602,-0.03452302492877664,0.00046410535051374376,0.30810237439745286,0.0242709538600953,-0.14562095127495747,-0.007487285246257966,0.022349756267406203,-0.026739689938128038,-0.09496014490346269,1.015625
0.0016201229554765487,-0.07480764975589076,0.0054493824181250355,0.03179044788044429,0.015311262236116318,-0.060077696618824034,-0.022396630746698235,0.17469684546372075,0.07443964525751048,-0.47704620027130135,-0.010455992725212544,0.04485433853003986,-0.10151926303688505,0.3976436606503104,1.0234375
0.0030292492555070625,-0.2272445993872646,0.009655029048289533,0.09792911800593981,0.041863271230235005,-0.1769850395860528,-0.060913612587796984,0.5996126313854462,0.2111398403201149,-1.3491990688549733,-0.03119978231171612,0.13185090734723165,-0.2862656669515072,1.0380679365423826,1.03125
-0.006166603348498223,-0.23032236732574052,-0.017299219795334934,0.10177814623652999,0.03150827058951418,-0.15496081288939953,-0.03165544017941942,0.8655088730081721,0.15406721917032853,-0.969856932599604,-0.02970136542734901,0.1101942787879862,-0.1990231887613865,0.37732548399851407,1.0390625
-0.02315697129812462,0.03938998294199939,-0.0672371475181248,-0.011254656895205628,-0.03255324328208204,0.09013966355948459,0.08365570116522103,0.5191948223737409,-0.18191952480455162,1.1973522665065173,0.009974121816370618,-0.08033733288780008,0.2708371558929295,-1.815322950879843,1.046875
-0.038388443498412146,0.22372462876408306,-0.11197209205907468,-0.08739234545940709,-0.08056028602626703,0.2670686546625532,0.17421631566752485,0.38455621912451765,-0.43487295490253175,2.833320925282511,0.03778614280064869,-0.21945785850705496,0.6275625867952742,-3.5774901168356013,1.0546875
-0.03490637510400936,0.10423614492317446,-0.10171124325568723,-0.03606847629327943,-0.05690062498267398,0.16907539957569834,0.1362541825838002,0.6520542060676027,-0.3120801070641089,2.0466953546450863,0.020991325076894586,-0.1450980700084865,0.4590844899169582,-2.901196363189294,1.0625
-0.009915202288544138,-0.08451479131231049,-0.028364752941266676,0.03936284134646796,0.0033716847819558675,-0.036874685739089426,0.01290643596991141,0.5280716671221634,0.00801011707485051,-0.03276024496004226,-0.009442950845043752,0.021151537837984662,0.0008962983239411005,-0.4110429057219014,1.0703125
0.016403002715343958,-0.1322068499065377,0.048831135474160084,0.052666095797722134,0.04212483542308668,-0.14149582281793419,-0.08330282358463438,-0.06407454057370068,0.21852169045643952,-1.4185404052218182,-0.021153558427901564,0.11339932507147911,-0.3119711171926082,1.6786765386987574,1.078125
0.024396272704735697,-0.07226969073397123,0.07225479975710565,0.02415041760467587,0.04172376235398966,-0.11800241781930035,-0.09593054491663189,-0.47126690768826296,0.22021372972793127,-1.443679298164482,-0.014697282218546201,0.1006595283527914,-0.32324830297596996,2.052238031231824,1.0859375
0.010289041564112705,0.04263798403561848,0.030821400537253085,-0.0219122099576452,0.006380949079187408,0.0043530694671666086,-0.024521282191782637,-0.4255216269515308,0.03270186461333949,-0.22473423427311634,0.003547974032216736,0.0023121730544999686,-0.055265178392771834,0.6183884727262118,1.09375
-0.01246530887573657,0.13529166626180458,-0.035951920786604814,-0.05574493618998434,-0.03548988311751779,0.13285800580369117,0.07004277673727927,-0.06949606573469937,-0.1922927540825144,1.2474102108216318,0.020542284529871,-0.10559698828569201,0.27256165364380686,-1.3693199994434975,1.1015625
-0.014943298869771948,0.09506724841264973,-0.04318025110179228,-0.03747169971388248,-0.031832827322969395,0.10942497616041029,0.06917332645754075,0.12216431821629514,-0.17472424115577376,1.1387111354283737,0.015651442150343798,-0.0897789853586942,0.25169717234861166,-1.4083074934988218,1.109375
0.01372455805854121,0.02153601838581612,0.04089716932808823,-0.013520711811176906,0.01392704263161685,-0.02051857545606387,-0.04043630725859642,-0.4564047832418107,0.07259589373189657,-0.4849427554513559,-2.6031363699230304e-05,0.02265552348005391,-0.11299405819627432,0.943707002258425,1.1171875
0.0344891150348674,0.08264252488421822,0.10169842517670664,-0.045999330121504825,0.028415459616468533,-0.029674804222357958,-0.09447603976713151,-1.2224969397251488,0.1559938180151317,-1.0490281040407505,0.00392042791689661,0.04150594267454769,-0.24888098584470653,2.242836671212476,1.125
0.012181253969217596,0.12625807571631725,0.03627996318479774,-0.05874738228506464,-0.005021825207447847,0.061367797760186166,-0.012193787606687758,-0.7314768762278773,-0.025234847241312388,0.1432673593635043,0.014315700218204183,-0.03856440819677507,0.01974443979979673,0.45939902248056974,1.1328125
-0.016070941380929345,-0.013094284734749157,-0.046420726384040614,0.009858351997875695,-0.0156486193777986,0.032187886997314646,0.04889552463781673,0.48063297504756686,-0.09189376373181113,0.6125370248695664,0.001454399877618612,-0.03356757778110794,0.14191916801883012,-1.111155408943197,1.140625
-0.0025047201511225847,-0.07832044192609697,-0.006620506854812878,0.034405238937285434,0.010966099823621114,-0.05178352450823183,-0.009676178834529824,0.2989471136630752,0.05061920194968581,-0.31923812206839286,-0.010018863382393788,0.036134109763559054,-0.06462581777051954,0.1096267051734651,1.1484375
0.01778407167688273,0.06992034394355755,0.052718585804415526,-0.03588809403611191,0.010770669887402811,0.005115917771166513,-0.042853804219868036,-0.7173043651370419,0.05822921152466323,-0.3988791538024974,0.005667106472397466,0.006085929326265758,-0.09833868156823103,1.0666630951473608,1.15625
-0.006630605098822759,0.009621562545935124,-0.018823235690958274,-0.002684593460509653,-0.008113451509173194,0.024588266159013595,0.023118788606696482,0.1503275058141775,-0.04950981772875684,0.33011410248926526,0.002516072358145497,-0.02223449418813913,0.07435269428922951,-0.5041787235138561,1.1640625
-0.034437471382763894,-0.386746490787221,-0.10006644715598685,0.17788855920383517,0.023721832140342704,-0.19668540004277713,0.025609297912082565,2.1321369064672817,0.10173181919841823,-0.5896529826108092,-0.04491187117664681,0.12478587637195684,-0.09602167427744132,-1.135616719004244,1.171875
-0.002456342038147089,-0.43927630707772913,-0.0062730834469238664,0.19173455720993746,0.06993174904977555,-0.31988034841093155,-0.09007457011531725,1.3961975094948786,0.3528318692175043,-2.2454183203851152,-0.05843552613123238,0.23401952915250912,-0.46978520986363753,1.38531019432316,1.1796875
0.048812159870268754,0.16567235634811445,0.14364807205162566,-0.08639017841180655,0.03172526028272754,-0.00557437601940589,-0.12258920528533805,-1.8762969133489653,0.1791681103045736,-1.2226288804471621,0.012166243543019133,0.03196198694512049,-0.29689478273028036,2.994315796651354,1.1875
0.037727497754328515,0.6270316902842306,0.11089755208305073,-0.2843650188969722,-0.05652969149212345,0.3661224904715823,0.01591410015308676,-2.9682078270960073,-0.2783840515973544,1.713788491669221,0.07622749029577065,-0.24843188865785193,0.3290805048131281,0.5576163803756191,1.1953125
-0.021587779874348362,0.2943683387259144,-0.06275080734010183,-0.12270136223120416,-0.07219663212855025,0.27515914036817896,0.13512861476013024,-0.2988005788789288,-0.3845253644844185,2.487113564161582,0.043765114574697124,-0.21568358219166744,0.5405761792376494,-2.5986386150156418,1.203125
-0.052500298469667285,-0.30016762553269766,-0.15300370461036172,0.14511614745733242,-0.011701127940087902,-0.08492338156631708,0.10377604343665967,2.3720392051700006,-0.0876716553043751,0.642966601608083,-0.02956364157193268,0.031890437048723234,0.17912918545780226,-2.757057754133183,1.2109375
-0.03648462670873707,-0.4274736355300891,-0.105982784302292,0.19614780188606343,0.027949846999984578,-0.22161911335432438,0.023358234004752617,2.311304037093802,0.12270770278720575,-0.724591014300655,-0.049893024744488604,0.14195503048715966,-0.1212119975382697,-1.1375790683827194,1.21875
-0.011145565381273342,-0.20917621257730232,-0.03184764737011377,0.09399986263533955,0.022235265194957242,-0.12633517295641009,-0.010738157744353561,0.940064559124509,0.104575316710725,-0.6471088143164434,-0.02585077308340459,0.0863446872141779,-0.1264886967471009,-0.05732546839037916,1.2265625
0.0050325990699443485,-0.05633165388211969,0.01544793886479112,0.02297479490873415,0.01636645607969013,-0.05553470050662801,-0.029519590050429353,0.0237333931078345,0.08158274890450945,-0.5240538957566042,-0.008706701312548087,0.043371155092824645,-0.1147839474041203,0.584157182822828,1.234375
0.015958435520875308,0.04588496709505205,0.04737995853672098,-0.024586152074536533,0.012565926876590073,-0.00843163388531614,-0.042361585599767736,-0.5923687468991397,0.06667780936300405,-0.44757473548374993,0.0027490052164794885,0.014809647278750851,-0.10774975857592559,1.02102404695645,1.2421875
0.016126355855958247,0.20165254394456228,0.047787415123362535,-0.09259983256832403,-0.012640113438323549,0.10679852242166459,-0.008271536697624732,-1.0707796787609636,-0.06262483419956044,0.37450737249623695,0.023593998364681484,-0.07005326807794474,0.06523409366649906,0.4837601058745881,1.25
0.005961622513913666,0.28300079333389483,0.01796904910963505,-0.1253520233749782,-0.03792575984527902,0.1940361335988504,0.04288124755252632,-1.0341873102447965,-0.19655426323571237,1.245093344041622,0.0365854158039202,-0.1400944374225148,0.25639840120519797,-0.5468906588074797,1.2578125
0.005044563179356259,0.2492334072738721,0.015299238015504741,-0.11047267273023963,-0.03354319984796007,0.17151860411681888,0.038343528230837746,-0.9060919804822716,-0.1744153108308116,1.1064386854844817,0.03226470485569757,-0.12389055168644132,0.22761535428816695,-0.4972862237660016,1.265625
0.018681264239889656,0.2281336430041508,0.05526682166801297,-0.10510761675398975,-0.013997808707958607,0.12008496132765219,-0.010714369933963916,-1.2231686695190032,-0.0685914432102073,0.4081615764748645,0.026666019865698484,-0.07810502068588171,0.07000209599805172,0.5721662392956633,1.2734375
0.022645827110613328,0.18081843911998888,0.066915538656342,-0.08563363142917778,-0.0015509278935848243,0.07464977851488612,-0.03404741349651645,-1.1903187927544978,-0.003347087798627027,-0.0171767220518074,0.019537955865688968,-0.04237399969721828,-0.021723365347835165,1.029649554560244,1.28125
0.0009562209560080168,-0.052248250527312176,0.0034915373297730343,0.021909241670602958,0.01086342291358645,-0.041158362929723115,-0.015123840776282068,0.12390199071424389,0.05108780001009325,-0.3297538286197252,-0.007227622593179568,0.03053968375294035,-0.06925222624571033,0.2679872013634085,1.2890625
-0.02539895155513416,-0.3697846438801947,-0.07355781114181781,0.16767289984204745,0.03151337991971588,-0.20757889674609017,0.00013664387863223168,1.8255299501617799,0.14594781916428592,-0.8896767972896602,-0.044382610516628555,0.13813030391843373,-0.16575623317883767,-0.5369575584224003,1.296875
-0.024418864485284016,-0.4499607437574476,-0.07063168760242902,0.20254096214026396,0.04577242581950427,-0.2699683050229575,-0.020959863561864283,2.04255358813438,0.21955696277687364,-1.358581691059587,-0.05537148013482076,0.1846919465039166,-0.2655302799894561,-0.1809138742676476,1.3046875
0.0023617738100507393,-0.21634458604382345,0.0077158372036280395,0.0933861285124013,0.039332394630183766,-0.16717949648252095,-0.05632407244960867,0.5848922501696318,0.19790013098256187,-1.264153443469969,-0.02959216062145534,0.12429524076605741,-0.26761046437112057,0.9525674148781869,1.3125
0.018441201387186513,0.0019414822336122632,0.05470383883690745,-0.006380922135420024,0.022689498303763992,-0.047256157649856884,-0.0601427702215256,-0.5282150171768019,0.11942861068202416,-0.7914990935303368,-0.003616572671849815,0.04518515462666953,-0.18124786555794353,1.3557364538047356,1.3203125
0.001985779884827335,-0.0653468553165674,0.006537887814737913,0.027364381984567733,0.014202030935914685,-0.05378460041553493,-0.021434287445425127,0.13510260301485122,0.06896596535645129,-0.4439974850766632,-0.009222592800887743,0.040558832040586495,-0.09444688931904154,0.39075158348284833,1.328125
-0.019672963649488107,-0.17770404444068222,-0.056825624492508886,0.08253501145093772,0.007025789303749805,-0.0805188998133801,0.024114175097290354,1.0816669658854203,0.022947898882278224,-0.11458286655384324,-0.01986108512762567,0.0476413696304177,-0.007173706012533291,-0.790679223579402,1.3359375
-0.010766043429213293,0.05972866411183283,-0.030858519526884357,-0.023106868562655987,-0.021082395821026383,0.07196481191578717,0.04775374061323413,0.11213384677608226,-0.1174426472256052,0.768344647716935,0.010065881010070193,-0.05990257602016144,0.17086487327034036,-0.9739181393175189,1.34375
0.014112735994285313,0.46573041339569,0.04175253004997086,-0.20694113337266484,-0.05795122364639106,0.3080487755648898,0.05684500631029752,-1.8162143707831506,-0.2959220372173678,1.868300603239884,0.05934925261587665,-0.2197130061314288,0.3807112929066566,-0.5918598763198426,1.3515625
0.014951855617891122,0.459922923201247,0.04416631943154534,-0.20484152405832318,-0.05612400067787829,0.30186134207404314,0.05279679107643538,-1.8220114195816501,-0.2860974490479544,1.8058812182560267,0.05842614970858742,-0.2145516544725708,0.36606121030517813,-0.5154037219585715,1.359375
-0.0062658153256424255,0.0194919867902311,-0.01773201863459094,-0.0070550961892498305,-0.009375663617359073,0.030702139571771574,0.024066504081125376,0.10931156893115017,-0.055222676608856,0.368737173264026,0.003768877083935908,-0.026743370190702845,0.08146239389837452,-0.5114731311309285,1.3671875
-0.014672891390646373,-0.22472906467703457,-0.04218294651188644,0.10178427808530817,0.02057464272130363,-0.12868382469658646,-0.0027586964558465534,1.0863046811101047,0.09481504518986003,-0.575917590530662,-0.027240389437708172,0.08596194470197173,-0.10949314151331116,-0.2608386588985409,1.375
-0.003974534117796374,-0.000978900355000017,-0.010974186224290356,0.0011766850513725581,-0.0033126795776662367,0.00940382663406751,0.012199044971379762,0.10643929899528752,-0.023486167552375335,0.15624476226583062,0.0005857980434725217,-0.00961110754326809,0.03623817457798108,-0.27030029664290733,1.3828125
0.002488877972271298,0.20385804003324126,0.007800278188752521,-0.09017892648727048,-0.029210742895315122,0.14482480179103954,0.03675450098601481,-0.6980544097626786,-0.15406992399905078,0.9724449472694261,0.026785038209918507,-0.10560488996419017,0.20284262906263253,-0.5267710623281944,1.390625
-0.0015057222637140859,-0.016213822176449608,-0.003782919516103983,0.006745247014838812,0.0019003196157330769,-0.007975363753133272,0.000922296949333712,0.0819590302975413,0.003631773784046443,-0.029322501813192937,-0.0018539318949613436,0.004821104837017993,-0.004142582296155543,-0.044418114238735554,1.3984375
-0.0022574279562459303,-0.3525102371274414,-0.0057409649366764294,0.15371044329408473,0.05594131459565306,-0.255936580454544,-0.07136383438450782,1.1258137243697472,0.28082243609321367,-1.7932049583212981,-0.04680573983597091,0.1871902643631288,-0.3740627861902619,1.0915378671389828,1.40625
0.004758293964032453,-0.27728525847346797,0.014814941794192349,0.11915112187631464,0.052080238207122105,-0.21870672803334792,-0.07756312864081412,0.70198066647625,0.26444184827135,-1.6953891280137658,-0.038212782562917914,0.16373716543320008,-0.35945296632733426,1.343564887524083,1.4140625
0.012962113991390948,0.15761673807229515,0.03858897996068906,-0.0726945490163188,-0.00912275114242489,0.08273926944415937,-0.007717629816222212,-0.8488040387528683,-0.04578525258842439,0.27345098192133516,0.01837449945553288,-0.05386215654649587,0.04696805155917083,0.4085848064158907,1.421875
0.013816609309328143,0.32413721870738416,0.040954860422997806,-0.14551030521835165,-0.03528760644566856,0.2042500436277214,0.02646022309809013,-1.3783938944485006,-0.17962075657772616,1.1280245095472874,0.040507409612781146,-0.14308944552053454,0.22526514858137753,-0.11822631152493789,1.4296875
-0.00021275306508319926,-0.10367847851737283,7.50799158437631e-05,0.04503193891774392,0.01794926663383634,-0.07660028005608333,-0.02292133374562184,0.3149008295610637,0.08737216952708815,-0.550691372546418,-0.013981739413450659,0.055773093685438264,-0.1160384898308527,0.3676084409034025,1.4375
-0.01968321397435892,-0.5332123040795107,-0.05671525684792847,0.23776825200197452,0.06506358497660805,-0.34440947886955353,-0.05495475422243122,2.1650611510143816,0.3205705047493756,-2.007050634268888,-0.06757190650452345,0.24201725181357614,-0.4057927197780199,0.46265454310759724,1.4453125
-0.01716481405743149,-0.2379415334170566,-0.04948845370128097,0.10817102270400207,0.019846141949413653,-0.13166510995570216,0.0024551346322311818,1.1964750766237153,0.08967569278747992,-0.5404958931177288,-0.0284858344482602,0.08675080169396227,-0.09972909007454432,-0.3975687443726491,1.453125
0.010404129367125918,0.4350099009503204,0.03091604177010157,-0.19306579446953856,-0.05746076395650039,0.2955958960869368,0.06221138230231859,-1.6206783247174679,-0.2948514841040263,1.8662048473478314,0.05609278566571778,-0.21228175859813309,0.38302542798858474,-0.7618106260423868,1.4609375
0.02611272590602818,0.5541876125097136,0.07689098512865211,-0.2493278698754087,-0.05839096917575865,0.34255743981772074,0.03754408391667854,-2.422529006054567,-0.2927127465749167,1.826944801040451,0.0688499013849986,-0.2379244196331328,0.3620289821598901,-0.03350989467768203,1.46875
0.010697052575843139,0.12435856556058741,0.03197918583982557,-0.05747143551076155,-0.006436777043287693,0.06366256012153626,-0.007767761376672324,-0.6850100493377194,-0.03302437777402707,0.1943725011961357,0.014384304149180082,-0.04130853082721347,0.03226131741024682,0.36106986211314956,1.4765625
-0.006613523823878836,-0.09784656265574532,-0.018631486758104054,0.04421311062095903,0.009392027229579804,-0.05575492887452767,-0.0007716270180017688,0.4745483635986766,0.04034388255953176,-0.2478148025551756,-0.011852571065672727,0.03680567428576386,-0.04621505219798012,-0.11995984290487337,1.484375
-0.005988753974484799,-0.06450594090645402,-0.016852680271526234,0.0293705376448474,0.004643148922366657,-0.03238213644119823,0.004651042656736466,0.35575617842248985,0.016130982468586498,-0.09560613861002348,-0.007498545491557341,0.020142004544670765,-0.014912114030445359,-0.1957082208180307,1.4921875
-0.011229828611974945,-0.26161883973273037,-0.03211049013811201,0.11677135575802833,0.030582347199567737,-0.16490392332080187,-0.021994462510609828,1.101083154587302,0.14713604504346317,-0.9225580855013514,-0.03283846289980429,0.11491437360139366,-0.1840303942779583,0.11790203917324167,1.5
-0.032972748112627244,-0.4382560795565625,-0.0957136623217789,0.200006824102566,0.03378966963014541,-0.23908282472722642,0.009567495304426115,2.24569827049248,0.15441000265394056,-0.9333145089947278,-0.05208766906883124,0.15689345603292174,-0.16779676094080795,-0.841688215058514,1.5078125
-0.03558769942390322,-0.08509607607147639,-0.10358422536639028,0.04690758779597851,-0.026832651366879894,0.02985473248760595,0.09643002484889254,1.2461722811995293,-0.15768710204066133,1.062798293310693,-0.004275058169090296,-0.04309154674862314,0.2534724474675002,-2.277036064208512,1.515625
0.0008556672205733334,0.33676687285713836,0.0029442722395507702,-0.14719688601534534,-0.05265190595529983,0.24730157644412262,0.07138595147404055,-1.053721444990197,-0.2744959853678397,1.7508869262184357,0.04477930178621065,-0.18233552202885253,0.36695830545207037,-1.107786920060489,1.5234375
0.036763201056370404,0.18856725161080973,0.10825370286833857,-0.0928021185207283,0.013819260462351424,0.043056001587824605,-0.07841692233186869,-1.6071095785505989,0.08184497432262147,-0.5798735074765069,0.017624769359590377,-0.010852152763439277,-0.15282669924746745,2.0330777130949147,1.53125
0.03143728633576377,-0.0693049619259922,0.09282694542137267,0.02083471051239664,0.04956719638351016,-0.13411901929780892,-0.11826117642290263,-0.6756797404708992,0.2627419858806278,-1.727187958745129,-0.015753473693429384,0.11671201230940774,-0.38913981962811695,2.5519035346519736,1.5390625
0.005597054019150141,0.1752134797195596,0.016988799367232493,-0.07866360763408962,-0.020758014613358258,0.11554475073515731,0.02019266358716158,-0.6971958879176723,-0.10919658911037212,0.6868719465892508,0.02232745571226192,-0.08243003321545776,0.13943111146475706,-0.1983007412061606,1.546875
0.0051517483811620345,0.43688955060726686,0.01553245814011818,-0.19244711150748742,-0.06392003113488018,0.31087507426035704,0.07968509293520824,-1.4794421196229204,-0.330530162864884,2.103160245445701,0.05743441240779513,-0.22675583605997612,0.43681735718718273,-1.152897769772494,1.5546875
0.025477568617311885,0.11565497608544038,0.07527427016087548,-0.05786958111755478,0.012432054815077415,0.018692675345254765,-0.05786313234856711,-1.070795411862071,0.07023065547195445,-0.4831660771692268,0.010196337425068014,0.0005208716750206577,-0.12346035627314349,1.4669674744097436,1.5625
0.017161273997662117,-0.3700095096408555,0.0511874032506685,0.15612636145004485,0.08178202353272619,-0.31998525149171364,-0.13856404128139646,0.6369747180134806,0.4224320150901297,-2.718205205544464,-0.053146555569732905,0.2455145150556839,-0.5854224224131737,2.574062246879261,1.5703125
-0.028232387591159536,-0.4509156632752946,-0.08178400071337052,0.20386704208670606,0.04141071467885025,-0.26043564699428196,-0.008646306051112988,2.1507338805367833,0.19564312498387748,-1.2012593979745354,-0.0546615708171384,0.17536707564379134,-0.22848696242320654,-0.4559189278059227,1.578125
-0.04862975781946861,-0.2697375020754825,-0.14166782616199378,0.13055407048872064,-0.012185764976653773,-0.07225352781710032,0.09800910525326466,2.170382361244569,-0.08805276509390854,0.6409892339485225,-0.026233544896968712,0.02483997917975774,0.1754908479190361,-2.584304477091736,1.5859375
-0.006792770626004617,-0.051117841634709234,-0.019211617722833495,0.0237889895304296,0.0015343703512255905,-0.02028898501676392,0.010296164708053494,0.33767759987167184,0.0004085569592395878,0.00902578424962012,-0.0055631061756973065,0.01076361336993408,0.007971770359978501,-0.2987283785812869,1.59375
0.032391836298353724,0.21759835804226407,0.09544311707740223,-0.10402686238576553,0.003986606329438821,0.07578255208767196,-0.057675645905172684,-1.5730506068558314,0.0296196640680673,-0.2426342820005498,0.022364150383889968,-0.037482716364974245,-0.07724577184605359,1.6167514401458745,1.6015625
-0.004016800487290784,0.27166814432039316,-0.01128142606418724,-0.11726962783836044,-0.04770226728717731,0.21146678184140252,0.07279108994460846,-0.7190993093707411,-0.251503982154451,1.6090260150665494,0.037014318942876274,-0.15878797328145253,0.34194174018090273,-1.2300948301533337,1.609375
-0.06315584564604969,-0.07887825809002255,-0.18436206876309366,0.05204774090386307,-0.060291617348694336,0.1067225091059535,0.18745052106542576,1.9988233534467164,-0.34134521043183397,2.28079540503754,0.0021431087800403738,-0.11586327327591059,0.5317954361959762,-4.309882396407829,1.6171875
-0.038416041350008194,-0.2805487705733473,-0.1117306559481464,0.13285546875456225,0.0016702378801318784,-0.10789715904020919,0.06217020889701118,1.9190340280819467,-0.012357526672293092,0.14421709730079774,-0.02988016324991422,0.05683929976012312,0.06217534393430446,-1.7939400396893959,1.625
0.047975731670828047,0.11391449268975128,0.1411951101000753,-0.0634534509104753,0.039159813046368556,-0.041941059297159834,-0.13142847171938632,-1.6951077975234148,0.2171158173886087,-1.4614463639195332,0.005368580328546825,0.05836709880495763,-0.34680503293041953,3.1169792818628204,1.6328125
0.07221026561584319,0.48258100810527726,0.21196630292210983,-0.23096464226288105,0.007668944898754526,0.16826694149439134,-0.12846090690533835,-3.4922376688319567,0.06538669359937453,-0.5349778710185915,0.049820818018886395,-0.0826294760032081,-0.17237339533297635,3.5820093441678442,1.640625
0.012896177586601474,0.1740596976233031,0.03831138894269583,-0.07981939562430701,-0.01191547741916535,0.09525910217204085,-0.0039035304166365747,-0.8961471251194236,-0.06097508764114797,0.36842539664327006,0.02059962884109847,-0.06325237171956699,0.06626913137044907,0.33980450320798333,1.6484375
-0.024561512294555724,-0.29453362750342194,-0.07115529878876611,0.1348218962909927,0.020268488496000124,-0.15413465457682582,0.014003563540114918,1.5740701422872203,0.08829248338480582,-0.5215277425050425,-0.03449699197482299,0.09895253272127721,-0.08981215627282219,-0.7414596858644887,1.65625
0.0019376011614572362,-0.19944900322558906,0.006499288154579871,0.08570115372761461,0.03593220196228464,-0.15317059883350953,-0.051086635303792885,0.542948673877421,0.18039731796597822,-1.1539478132014058,-0.02711591449981999,0.11370018477543,-0.2443239611634961,0.8566115849808651,1.6640625
0.016543731365492413,0.13918527821753648,0.049127242788592186,-0.0660813307817637,-0.002033137182747198,0.059899622333619965,-0.023397329143422227,-0.8948180632398594,-0.008172827709854209,0.022591594141823736,0.015285774121124023,-0.034874162036261244,-0.008693996328036403,0.7285248263559115,1.671875
-0.015507997398163014,0.10148039087507872,-0.04480959121377249,-0.04045124987500497,-0.03358331362346024,0.11615791230688742,0.07255910197876782,0.11662407452073524,-0.18397943578781611,1.1973742544552028,0.016735079672044503,-0.09493242935579146,0.26487558479578355,-1.475445040198198,1.6796875
-0.031125466783080594,-0.12664863083594433,-0.09047829553166847,0.06360233016459195,-0.014767425477976581,-0.012283967943873467,0.07268056220396416,1.247682138522726,-0.09391701358817922,0.6526216458396876,-0.010706485697646055,-0.009310271916750735,0.16296069138087352,-1.8082973055806157,1.6875
-0.0022917723437827827,-0.08043480802654299,-0.00600415684519129,0.0353886285266258,0.011652901314921929,-0.053924458634786766,-0.010983199608739233,0.3018865297135417,0.05445916985518603,-0.33831642084059993,-0.010441850255265025,0.0380702199393183,-0.0695987604054147,0.1334590400325851,1.6953125
0.015710441160155922,0.11502973240311036,0.046646726110417806,-0.05494077454469338,0.0009732519726178105,0.043819621970985705,-0.02617172871630372,-0.7955065272274907,0.007494890067956583,-0.06979700163317207,0.012071785125723657,-0.023600920565101234,-0.02793439925359617,0.7575638243685232,1.703125
-0.0020633657032845154,0.07900105637850141,-0.005441052699019267,-0.03419632186407029,-0.014101754556420654,0.06380376430440705,0.023760875103328003,-0.1896684016265718,-0.07775383296683358,0.5001428313187387,0.010888616957265979,-0.048687483892488226,0.10718901878534969,-0.4117165387328242,1.7109375
-0.012215489886719985,-0.1772124525293821,-0.03506259092275006,0.08045716283513546,0.01571936217584019,-0.09976852726225537,-5.7957389430428735e-05,0.872689908255409,0.07068684885723055,-0.4302290862778969,-0.021366479880694022,0.06599398844033721,-0.07962658656700072,-0.24800191026485988,1.71875
0.0018345409373770527,-0.33398857185061714,0.006219753797670223,0.14484385493061372,0.057847724269965345,-0.25314251476445176,-0.08067478663263648,0.9568668342893386,0.29288684587963026,-1.868710025269732,-0.04525039023255955,0.1872634601371962,-0.3939730187976258,1.3295306059234493,1.7265625
0.005403003446918107,-0.17000101976037738,0.016596171423885225,0.07226527549190026,0.03531710379450287,-0.14074183399436094,-0.055937663228080456,0.3590333271170759,0.17875133971948612,-1.1469117784266025,-0.024006568710581426,0.10655962049745406,-0.24569501517357256,1.0098677632169322,1.734375
-0.008830350174366163,0.19806353603378665,-0.025349304023097326,-0.08416673950324945,-0.04145981619197632,0.16994991570215354,0.07215563304526118,-0.3620469314704319,-0.22160271304430829,1.4266578288552558,0.02822673506497213,-0.13076376176000665,0.30710952641257916,-1.3271877351080414,1.7421875
-0.010324646241925422,0.36144550692347144,-0.02982643015937145,-0.15487852271142744,-0.06983637780912658,0.2950763099102105,0.11335803017884677,-0.8174053976194073,-0.3680578563356448,2.3611127998773904,0.05043512051636928,-0.2240458086997504,0.505165505787912,-2.011027260920624,1.75
0.0037920069264919306,0.1127012994282764,0.011737632154715774,-0.050433170000059056,-0.012630388650472078,0.07321217961313123,0.012166342799489036,-0.456290127687855,-0.06823442134620242,0.42782668712490746,0.014234095161272104,-0.052398113648002634,0.0871299364518171,-0.10270184104050993,1.7578125
0.008179732535731963,-0.1702294657240719,0.024799891438718885,0.07157239893718645,0.03865126371691476,-0.14830185631033613,-0.0649919709472852,0.28100529844418626,0.19726881943841895,-1.268803681386185,-0.024567178827995414,0.11356641507917736,-0.2735570128475468,1.2147825630768057,1.765625
0.003458599093794026,-0.06852256610094702,0.010878239446715711,0.02854559861779171,0.016468625756125347,-0.06025621101600583,-0.027061076846639446,0.10386190588368231,0.08161125798110098,-0.5222167262056134,-0.009975916507904149,0.046079552556180924,-0.11299471961054963,0.5106972422080365,1.7734375
0.008657886220532714,0.17771470715303733,0.02592971092985274,-0.08028074425827478,-0.017580854411047078,0.10897142305282309,0.010720441770898762,-0.7901547713037845,-0.09114941909977892,0.5687014422681975,0.02197296156102545,-0.07564337932799577,0.11217103011785833,0.02052232551782887,1.78125
0.015922485337366243,0.11397896374691463,0.047257849913545806,-0.05471971180275184,0.001352463074088685,0.04269673272979008,-0.027032561506490565,-0.7998356324834516,0.008768669918256193,-0.08322784085381056,0.011987025522862276,-0.022593756257070836,-0.030632551428502724,0.7731518845285479,1.7890625
0.0058855297342503745,-0.1168089326410751,0.017988719176516618,0.04855994267118567,0.027152916677177126,-0.10207696331135557,-0.04558099675865157,0.18244526317223644,0.13680386326624114,-0.8835964759837207,-0.016880263440047394,0.0783828050005761,-0.19053103515999978,0.8529378004691542,1.796875
-0.009599616880687646,-0.08424210038885156,-0.02743520254484329,0.03886340685044429,0.0036293776278700104,-0.037203636047290045,0.012038555416383476,0.5172755092602015,0.00962876065731099,-0.045263796520882624,-0.009409476243484548,0.021627822836661887,-0.001586382605516622,-0.3906021246798818,1.8046875
-0.005852426995064638,0.14655166809886563,-0.016610004699847317,-0.06253721178836305,-0.0295430535453866,0.12406065772301528,0.051042586360096856,-0.2882517176116709,-0.15884464428624162,1.0247513429381618,0.020694396978600905,-0.09517424762269998,0.22011707477091014,-0.9283164464337936,1.8125
0.008195454320562795,0.17153196660945225,0.024567353684298483,-0.07735633833860417,-0.017063736247476743,0.10552799584756956,0.010848449260612583,-0.7572536371132855,-0.08872329389956203,0.5547518199501555,0.02118632575077275,-0.07349685740183959,0.10961519640830927,0.009527104030996499,1.8203125
0.0036918303193470025,-0.08814311083506761,0.011553759656764398,0.036966700071770525,0.019932590689046462,-0.07538165720470019,-0.03210438884304596,0.15695974142211253,0.09925001109172112,-0.6372916150922612,-0.012641280626570614,0.057216190038760904,-0.13702435495073886,0.5963461648920364,1.828125
-0.01729025936687332,-0.3355012646144912,-0.04979384549388384,0.1507202004926654,0.03553034706189996,-0.20386851212524956,-0.018683963069954,1.4949884465642251,0.17031885307801814,-1.0563548369198403,-0.041497508256218577,0.13979673492260605,-0.20726502565726815,-0.06103499588961496,1.8359375
-0.025528352806503073,-0.3121843754586744,-0.07396421234463992,0.14302175862459096,0.02205437016333825,-0.16500985922572584,0.013280138552495846,1.6549268195211673,0.0975759655813205,-0.5783629601382,-0.03672627384216016,0.10641799252068401,-0.0998764980216125,-0.7428558015609398,1.84375
-0.014292410050201343,-0.05005259283277429,-0.04117854912671408,0.025567510905999773,-0.007423633147786417,5.70811836431204e-05,0.034838184309562134,0.5446325694048846,-0.04894137231546617,0.3380074992944821,-0.003907617050730462,-0.008701517265370088,0.08281518584021415,-0.8489210560925702,1.8515625
-0.004128418008371742,0.17473486331999308,-0.011507525867995463,-0.07545069347112938,-0.032120508276933045,0.14032803051444512,0.051652303509141545,-0.42290820656044137,-0.17134343910211491,1.100836791173319,0.02416227157536275,-0.1062201028360045,0.23427753397132428,-0.90256823467835,1.859375
0.00010832119022842037,0.16307673113783935,0.0008983150558327911,-0.07155680012442557,-0.025258097769001658,0.12050867402626636,0.035336295036247745,-0.5065005402511937,-0.13438097328777887,0.8559665098934319,0.021750314457269472,-0.08927517382103005,0.17981433412505493,-0.5516765677761857,1.8671875
0.013499769968651798,0.07156076987433749,0.04016000710504517,-0.03521738588464647,0.005454187043090938,0.017210925630897052,-0.02853120680415818,-0.602717390940834,0.02884227389631915,-0.20786475468255278,0.006732919238243273,-0.005468440871654442,-0.0541332725277961,0.7506952246629806,1.875
0.029875704551185062,0.1267752290528928,0.08810970611295797,-0.06378428166075083,0.015794685757523495,0.015154832654896557,-0.06962072698271016,-1.227501425578749,0.08888929338661417,-0.6162392158168484,0.010757390040695414,0.005649197164205525,-0.15369768797405473,1.7507619676959096,1.8828125
0.02411162853625674,0.19547306753593482,0.07120675546635176,-0.0922531103700172,-0.002171017578808507,0.08148909407317603,-0.0356764177029358,-1.2745513256042118,-0.0057125356995357856,-0.0018761539390161953,0.021139274901116667,-0.046357148627544746,-0.020514363274601283,1.085562088900868,1.890625
0.0006247952905786463,0.05758832125551523,0.0024853307869789013,-0.025719672713388993,-0.007391808897807289,0.04095046541316831,0.010150437336345991,-0.19942562540106915,-0.04254690234456261,0.2712562981176911,0.007494836804308441,-0.030048509003285477,0.056174625943409454,-0.14267325585019255,1.8984375
-0.009944561126153797,-0.14387987784041384,-0.028377778236666533,0.0650596145295927,0.012945685607013036,-0.0809102209030337,-0.00013407866503994454,0.7073661290596717,0.05729416911546781,-0.34874934718962836,-0.017308236027794285,0.05345214162039018,-0.06507979304040036,-0.2023787121659445,1.90625
-0.004277677032294442,-0.2012503317259688,-0.011761023504936434,0.08851146155323439,0.02893853926648304,-0.13838946359556725,-0.03129307977462619,0.7230993362033595,0.14190107018761078,-0.8965629818427114,-0.02615050075899093,0.0990398292917137,-0.18493195034660267,0.4131330755181837,1.9140625
-0.005428444732988721,-0.20370225673286319,-0.01513530427326809,0.0898275682841956,0.027980378788854784,-0.13700444752379812,-0.028099284013980992,0.7631796168696775,0.13658533235132259,-0.8597555733685068,-0.026255509914246956,0.09762101437612931,-0.17650889802673475,0.3358828954896919,1.921875
-0.011835735030548201,-0.17681582645880495,-0.03390719472328524,0.07982410638316886,0.016069998008069745,-0.10011331663723085,-0.0012619099409064648,0.860651151099726,0.0726620668512892,-0.4425295504444153,-0.021342457737203,0.06689898555326602,-0.08340823197895132,-0.22698767884579152,1.9296875
-0.0042265875287405275,0.06861650652670342,-0.011736124879541596,-0.029187842453495084,-0.014945477067197933,0.06189369223728712,0.02850648334010549,-0.09836922692108868,-0.08323170607095126,0.5383572870164872,0.009985873006928244,-0.04843917163234532,0.11679869242374735,-0.5348934313706006,1.9375
0.004946196112232093,0.38010202839929913,0.014959052871738859,-0.16732245641262702,-0.05489105801062548,0.2687599924620773,0.06782517951684502,-1.3013991302140975,-0.2840677939713601,1.8053206145613963,0.04981707820694095,-0.19609457528563537,0.37555003135516457,-0.9610166829976219,1.9453125
-0.006954941802023502,0.29860401149019944,-0.01988096759971764,-0.12842612001577489,-0.05561911513480238,0.23955533824525446,0.0884343727246663,-0.7203937735259659,-0.2928378739200567,1.8812875844312378,0.04130417815454548,-0.18141706335583982,0.40122639443059127,-1.541766863893905,1.953125
-0.0185232852456811,-0.09600933878738223,-0.05356020928617355,0.04664250523158484,-0.00493066771108531,-0.022734401545991274,0.038440267412694754,0.8026184920448245,-0.03801481170136931,0.27301146665738496,-0.009184789269408657,0.005728414369005011,0.07281517640074799,-0.9969170450927225,1.9609375
-0.0007515402309626855,-0.2235258650618462,-0.0014138814317251904,0.0971420809438687,0.036781851107757044,-0.16400091630247388,-0.047715762189439605,0.6931084092939377,0.1833796781938184,-1.169281915399341,-0.029871225956736778,0.12041265394169065,-0.24493329580377857,0.7476680642160053,1.96875
0.019246179520205853,-0.004354402837458069,0.057055900929249975,-0.003859531879875731,0.0246131858189234,-0.05403845027824849,-0.06414608408246272,-0.5321452288573447,0.12967117089882474,-0.8572943736200029,-0.004606018827939188,0.05071015701806983,-0.1960410782962255,1.4351139590901114,1.9765625
0.005588180586096183,0.08755665500013088,0.016980421642938656,-0.03995415570929776,-0.006458888547157427,0.049907614047489106,0.0006842582086953895,-0.4293959191256388,-0.035431849231240715,0.21979791250719183,0.010466567628303213,-0.03408406413296497,0.04143349719035824,0.11603977944924602,1.984375
-0.012445878685691178,-0.05869780659425013,-0.03577929925408466,0.02878216140972034,-0.0038736575139157537,-0.011220296498712876,0.026897896442570485,0.5192891871952322,-0.030051787424647668,0.21291244139995266,-0.005436051854957974,0.0005348661737951307,0.0549731697421972,-0.6847112808147963,1.9921875
0.003832319841652519,-0.13190132035437846,0.01196051518079775,0.056017787071013195,0.02722845508162354,-0.10823141253753316,-0.04229676769070928,0.28633362531839646,0.13635503257336945,-0.8774804398034844,-0.018538807407221282,0.08156109439218598,-0.18734585421744726,0.7601877048644952,2.0
0.02214900126025121,-0.0952643679146934,0.06561092765375097,0.034971205430241514,0.042852384838904724,-0.12919274621410085,-0.09374439901618378,-0.3371498129826343,0.2244985912342531,-1.4684501686497367,-0.017378139815052627,0.1076462062512401,-0.3265074026482752,1.9684436331969744,2.0078125
0.003028972289466587,-0.10859688500537588,0.009601574537766938,0.0462396980092699,0.02253233158125844,-0.08890553906798603,-0.03450050598543549,0.23827653306927046,0.11212724442208089,-0.7182115921297957,-0.01528750040569915,0.06690587246097608,-0.15318710589628945,0.6214257062925627,2.015625
-0.01833959199744279,-0.05596352379280315,-0.05302380789249639,0.029222856556811345,-0.01122257436265778,0.006345211295781854,0.04669664307613022,0.6755918123441004,-0.07033777782929626,0.48003694154303284,-0.0038585264273632413,-0.015683271901624298,0.11601249327320186,-1.1241851447343318,2.0234375
-0.002912408128794902,0.13901144143806235,-0.007916868960820026,-0.06024039908446729,-0.02488226590175276,0.11059583806439943,0.03979670264977549,-0.3492783433596682,-0.1337548631276809,0.8576111243692305,0.019164565098080937,-0.08368925687219309,0.18254820596108315,-0.6871474602754065,2.03125
0.012918263161686061,0.188601423473066,0.03843544763674796,-0.0863526169565361,-0.01436595468171547,0.10585543707986057,-0.0006777023370283199,-0.9432138218415339,-0.0727310417295969,0.44293603672486376,0.022597907633343867,-0.07102869648528243,0.08239024466145879,0.29304106305800387,2.0390625
-0.005238628868979358,-0.00021594779041686588,-0.014678715069604269,0.0010770064716043078,-0.004967022080905413,0.013497772425049159,0.01647250257534729,0.13907790938191233,-0.03223105347825397,0.21621705212641165,0.0009754558847163065,-0.013245759777139534,0.049582720069347365,-0.36660661512368903,2.046875
-0.017409417827677492,-0.05877229414797735,-0.05031935971874563,0.030059548473624836,-0.009705137437607177,0.0020917761753737702,0.04303934008964778,0.6585594852381511,-0.061993180766139515,0.42655442039181596,-0.004424426190136106,-0.011720194263615336,0.10361602799530392,-1.0493794485903565,2.0546875
0.005495227125362008,0.12464560654780539,0.016694123610871178,-0.056258805080360706,-0.012584045460425653,0.07798959227160626,0.00924415591325065,-0.5392354123137929,-0.06706724544521042,0.42033903119309124,0.015469996979321438,-0.054560235534502274,0.0836477816537446,-0.024006878738023534,2.0625
0.018427330365540867,0.17301883352132022,0.05456739244995484,-0.08090357917194171,-0.005240330583388439,0.07975148382640217,-0.022041485287890513,-1.048682101829673,-0.02376760815759855,0.12198686534894165,0.01932831421906744,-0.048655408072195455,0.010772464817764157,0.7515210531420716,2.0703125
-0.006796834100982021,0.0011898607951099024,-0.01924840611508223,0.0010997306529304087,-0.006968463646701727,0.018409987253649417,0.021891396483334956,0.1786504966671016,-0.04343631237303337,0.28893266750302005,0.0014547890468650552,-0.018118600498644215,0.06661081310301435,-0.4827199164639883,2.078125
-0.025344374923359884,-0.03532744653520563,-0.07359047152653878,0.022210827327627452,-0.022878247851907483,0.04008023629340443,0.07408218892741465,0.8089894739362914,-0.1330755002667064,0.8917294526773208,0.00032365285798126596,-0.044713386238624406,0.20807446357827672,-1.7090487959010605,2.0859375
-0.007010231485225462,0.06379022026043087,-0.01993815709925485,-0.02613645443996897,-0.017433001977075504,0.06549395362912641,0.03641497053869275,-0.004512057896424698,-0.09725407812165299,0.632953756908962,0.009847267329583853,-0.05274573213509042,0.13859237674822916,-0.7207393464540288,2.09375
0.01598350505028732,-0.056656458932255516,0.04751420439808301,0.01990869504179305,0.029301749513642512,-0.08438493431691732,-0.06510490755300666,-0.2819196077658595,0.15241684338439543,-0.9983050229440518,-0.010962825459827609,0.07103282539963486,-0.22255510477614152,1.3838868456172904,2.1015625
0.020231350017793387,-0.28392085210433715,0.060116856279806265,0.11771346957599109,0.07135311723262597,-0.2642542881694728,-0.12937474316772055,0.2894010913833188,0.3699850105237819,-2.393168917922184,-0.042243104895633606,0.20603415814334441,-0.5190146447954304,2.4956262212673237,2.109375
0.017587309305086965,-0.206235060882235,0.052343012540691146,0.08449540440238597,0.05555181505541766,-0.19954972587333425,-0.10355626383792046,0.12711799274675226,0.2878795812300746,-1.8640364767331923,-0.03127885750284869,0.15679394204561883,-0.40610591738671376,2.0267956449567324,2.1171875
0.004386891074998028,0.018338481233403595,0.01353139259083742,-0.009721865393394282,0.003376840568199279,0.0019351742648428965,-0.010733804751312056,-0.18622626451291394,0.01463120276569917,-0.09915654024606854,0.0014915808369296436,0.0007044196981171207,-0.024448456738643824,0.27075121735472124,2.125
-0.02606477162230694,-0.01674638106654964,-0.07569438776366268,0.01419064514219026,-0.02675636617401826,0.05591583333779432,0.08060917101077808,0.7720568133234794,-0.15321395317179798,1.0202780224124508,0.0029795104251536457,-0.056568339673600615,0.2363204766377198,-1.8267219560800956,2.1328125
-0.03853423786413972,-0.09107995479555925,-0.11221106037629092,0.05020858712464174,-0.029299698914449612,0.03345431601779235,0.10466147355692618,1.347160685557641,-0.17193497869904417,1.1598351761508918,-0.004459134738862705,-0.047174527040753415,0.27584572570514615,-2.474834768643976,2.140625
-0.007526434844823439,0.13980015078900462,-0.02149746544784154,-0.059083846365158905,-0.030415770932844827,0.12333436968011081,0.054942650611265555,-0.22108877028662738,-0.16437203938498696,1.0622306416757026,0.020141278206280255,-0.09561921541954879,0.22898517080692113,-1.028337494120201,2.1484375
0.022852116397448174,0.28953407249042207,0.06745084439256475,-0.13295798618528712,-0.01906503490944758,0.1546536962450288,-0.010700705079833445,-1.5258993547031916,-0.09282779417827731,0.5571421016959182,0.03402987176941248,-0.10127501324649894,0.09739888955062459,0.6598326483131342,2.15625
0.007498520503501292,-0.01879157730504659,0.02267952939956915,0.005627489655269516,0.013107274275555074,-0.033895941007580206,-0.029161452763694466,-0.1603175245182688,0.065766711150864,-0.429949113692318,-0.0041089305924360735,0.02886986667644535,-0.0969585063110109,0.6284934614492965,2.1640625
-0.01952223556112653,-0.254265406610258,-0.056354112741429034,0.11585316857950387,0.019681756562789907,-0.1376984794127366,0.006517110906446026,1.3106674010424828,0.08778682692449004,-0.526944967477146,-0.03013944396312084,0.08987987274097575,-0.09465696641165287,-0.5114677506615735,2.171875
-0.0044946876003375295,0.08831018358619187,-0.012552792062128825,-0.0375685867969446,-0.01844936935727068,0.07712213140616535,0.03368611634531474,-0.15016138349195962,-0.10139501624998601,0.6551196993449079,0.012658731843345537,-0.05980226134763688,0.14133988747608664,-0.6229500262691211,2.1796875
0.03593899617480943,0.4727012920237119,0.10569549055221879,-0.21640998405295678,-0.03348368834055,0.256161653283783,-0.012517499496352466,-2.448828093583342,-0.1609247936282217,0.9682742605945085,0.05588776816289876,-0.1685352373714284,0.17394430425733187,0.9726071217120197,2.1875
0.045435102886125074,0.2683112078648738,0.13367705276717348,-0.13006402515234733,0.01100404077258216,0.07937755654289504,-0.08875070300944102,-2.0939418252971724,0.0715830545299286,-0.5314770020715731,0.026588468583517114,-0.03277349480743803,-0.14854153865263334,2.387812688835329,2.1953125
0.01044345899597621,-0.173005381215189,0.03140429642033116,0.0720464662181892,0.0416907223423269,-0.1562609652090429,-0.07283581027823359,0.22495874105441155,0.2138233835640642,-1.3824523124540418,-0.025368133905894697,0.12078356409596025,-0.2982529368868388,1.3904829343389682,2.203125
-0.028731410331936404,-0.26993610564311254,-0.08339062981964869,0.12531745435081146,0.01131957019796576,-0.12507678382682186,0.033116814881963566,1.6152383019952647,0.04077561281571646,-0.21461353395767088,-0.03036267386863933,0.07522491634207096,-0.020861926400850665,-1.129029631424373,2.2109375
-0.030158948201959596,-0.1411761491995725,-0.08768290572447276,0.06962721392378313,-0.011320952124198577,-0.025581519324343778,0.06630171194302059,1.2649231897131188,-0.07617074873988912,0.535039449886739,-0.012845127734968147,0.0010678041567194086,0.1373265070238192,-1.6892100022334153,2.21875
0.0006804892498187165,-0.11573809933341525,0.0027100669310223774,0.049885772939095095,0.02093559795808012,-0.08779495488722565,-0.028486133218604034,0.3262707415094543,0.10284327654529148,-0.6540407538707712,-0.015757910174661077,0.06476410454412161,-0.13830737141494887,0.47274209082089597,2.2265625
0.013217920767340654,-0.1555931357037099,0.039502274235899776,0.06379264118637007,0.042246571273309545,-0.1504565843122747,-0.07818691051657896,0.09733945045988013,0.21787320636136678,-1.4052892604719556,-0.023684494777264854,0.1181995281533094,-0.3065832724159893,1.5304244553154638,2.234375
-0.019734437130305073,-0.15481085927695198,-0.05709051961412372,0.07275169367988303,0.003271458679852656,-0.0632579990289954,0.029252492452894213,1.0163067403268446,0.003600726502248066,0.014388205306191454,-0.016863940423818627,0.03480360477229962,0.019079622971361062,-0.8772903847949677,2.2421875
-0.04960702676375299,-0.10947183798727796,-0.14467270567181198,0.06126331073491972,-0.03937615511013107,0.04902353527682664,0.13660973695445217,1.7130448138452006,-0.22838738295687344,1.5386332826417184,-0.004656654684916784,-0.06528928651800416,0.3642077026035127,-3.2197298282695517,2.25
-0.02015268300284235,0.0569387450210027,-0.058418942680204915,-0.019701779997629953,-0.031835422991807256,0.09515139771695438,0.07772557415638928,0.3828947457597059,-0.17698381786489187,1.1602438600540987,0.011671483475074611,-0.08219403279422591,0.26032355690147846,-1.6585423697652497,2.2578125
0.03383601816933017,0.28610880113985787,0.09968018772013697,-0.13467540145189302,-0.005561518606739151,0.12321975002764197,-0.04714429956167287,-1.8230819482867084,-0.01865304494726757,0.06388363400038348,0.03134309074375223,-0.07156803496750717,-0.014811711549064662,1.4748209420266838,2.265625
0.03669138307242803,0.2971668469266013,0.10801700858775827,-0.1400634573734424,-0.003964343084612723,0.12374591325677352,-0.054019404283813154,-1.936058468573892,-0.009201989640427817,0.0006899124968112671,0.03219927409867598,-0.07035910520437658,-0.03035385677289968,1.6468449283074442,2.2734375
-0.0023797114258894947,0.09375358665519382,-0.0063621977786880715,-0.040391629814710714,-0.016858743873893127,0.0753644732680952,0.028006342945938147,-0.2261043084693702,-0.0922901267983287,0.5933581676466082,0.012937281510142359,-0.05748029321856952,0.12678275102955175,-0.48603432777989114,2.28125
-0.011509791078903537,0.0004567568080250588,-0.033020050737418746,0.0026673842693812153,-0.0124681846408163,0.030123289489942102,0.037058137588929126,0.31112335730737517,-0.07348673914549707,0.4870651682533906,0.002368371334765062,-0.029528665391696435,0.11216315239098384,-0.8234292844446295,2.2890625
0.01665493969000131,0.02325886362781533,0.04951880752021966,-0.015267947214086731,0.016981216670597925,-0.026908356800115787,-0.04952548980672862,-0.5461893471648928,0.0899750425635839,-0.6012106555038743,-0.0002962050961949047,0.028893512465402,-0.13971972617497339,1.1515130173550174,2.296875
0.026369766226248596,-0.07495885054907579,0.0780128291113919,0.024823655692273492,0.044482888717505,-0.1252081809372998,-0.10294572409247374,-0.518365017423477,0.23493403042057073,-1.5425034379252762,-0.015459810549062002,0.10721565593511503,-0.3452958976371543,2.2058701177762754,2.3046875
0.007874649705130549,-0.14481202077960478,0.02383069773702777,0.06039676663383932,0.034120327043768675,-0.1282665644677674,-0.058256392435257515,0.21209784547568356,0.17318444903205998,-1.1209590117245476,-0.021062726382629716,0.09899424704016617,-0.24128390706167313,1.099744140875232,2.3125
-0.0007902889583647861,0.03516088253503469,-0.0016740568380173401,-0.01561141813001166,-0.00540959252664417,0.028150927908605166,0.00986115325796657,-0.09176377236018421,-0.03352953588750694,0.21211196885374167,0.004790004837876746,-0.02128564326076631,0.0455963436779279,-0.16901183266157033,2.3203125
0.001420320754697966,0.14395115239874773,0.004706933217138773,-0.06339293618182931,-0.0205120475479019,0.10295282073785962,0.026739437912524176,-0.48302032871689254,-0.10975683722263042,0.6996909136128754,0.018847685205194815,-0.07532560065408651,0.14557962663544385,-0.38970331762715577,2.328125
-0.012206040327878726,-0.10331554181422431,-0.035111916731332765,0.048408535263630065,0.0037583624040196067,-0.04488247869599916,0.01616387277954485,0.650086324001158,0.009187882937241747,-0.03260401862211766,-0.011537756284321138,0.025562544041522424,0.0026986246499548566,-0.5098988788883069,2.3359375
-0.029977145146916965,-0.3205603112352589,-0.08703312732684149,0.14790940138530045,0.018196607581642578,-0.15935867863377004,0.025825034174647637,1.8062612566039864,0.07577159940128214,-0.42909408387003445,-0.03696994813141761,0.09961409564501997,-0.06583821905868685,-1.0409471125439809,2.34375
-0.024616282968956286,-0.17629877235207322,-0.07135755144774943,0.08327109343480536,0.0009432024739186592,-0.06631932119602295,0.040454448181015346,1.216673646726814,-0.010271247617448784,0.10826793316063596,-0.01868262382920967,0.03415495189556025,0.042766945191390286,-1.1590057079890888,2.3515625
-0.006682094850746753,0.020246467777677867,-0.018921605548243303,-0.007398618308247693,-0.009978515267257567,0.03233484909166592,0.025722681850602464,0.11774904949872131,-0.05847668408679816,0.38591483512149477,0.003978764505481322,-0.02824472716525484,0.08645305713529046,-0.5418719581591963,2.359375
0.004527695538052559,0.059899157493810015,0.013878899276735922,-0.02775812975147116,-0.003240216601557436,0.032318719350983294,-0.0019506969443495738,-0.31615796774891297,-0.019120584490072066,0.117151344366336,0.006998154820535738,-0.021801485481440244,0.02086042488143574,0.1364272514487162,2.3671875
0.013995311814076159,0.18091786217545539,0.04157590541084026,-0.08332666666936459,-0.011838511451788878,0.09748651276687968,-0.005880833411485324,-0.9493949852496303,-0.05926942046377591,0.356888290868775,0.021334762306711788,-0.06426988420905194,0.06326231761418545,0.39721815684141937,2.375
0.01657451057842304,0.29704028269984956,0.04910703187121926,-0.13473981812126415,-0.02771201106108192,0.17693833297587075,0.011478918887674307,-1.3747282272866423,-0.1397361737497505,0.8643266195660458,0.03639225456928947,-0.12119430332691712,0.16762777627095574,0.17467145713086507,2.3828125
-0.0034749301333184936,0.048298896569795004,-0.009509452632923137,-0.020427981652042813,-0.010710997173695523,0.04466607797132624,0.02147641862263407,-0.05735973072541983,-0.0612682551012143,0.39611820430939026,0.007095081742392542,-0.03523803106664601,0.08632785445268748,-0.40670480502898265,2.390625
-0.02050765269806881,-0.2418166622433948,-0.05928456460175454,0.11103681957263616,0.0165458561888569,-0.12617209729218434,0.012537266113130878,1.301142179663438,0.07125271943568137,-0.42118387486487174,-0.02835647721337304,0.08084024570917812,-0.07061794793948602,-0.6225168894971146,2.3984375
0.002012554610155829,-0.001195932803812696,0.006568031690443679,-0.00027706120475139644,0.0038018471702939835,-0.006618662209269288,-0.007286519141501556,-0.06024719411813159,0.015624321267212044,-0.10376118837617633,-0.0006905070652666455,0.005766870674609357,-0.022685042143485615,0.16960291112573525,2.40625
0.02995282420966287,0.32682918035464353,0.0882643777890874,-0.15127671677020943,-0.016796817635745597,0.16364554869914097,-0.02542308641978955,-1.8387341257515828,-0.07819635279312966,0.44813827288816593,0.03760398311259972,-0.1036120657437872,0.06940051049797205,1.0466908485653073,2.4140625
0.008329610192347717,-0.012164232934042877,0.025089269497310107,0.0025688729534893927,0.013005733186916654,-0.031190237760199108,-0.030374527865480377,-0.20368898569939198,0.06509705480036942,-0.43043265360851996,-0.0033927110499669707,0.027374471410389064,-0.0975283977201312,0.6640518525970381,2.421875
-0.025346101895782784,-0.4777801350824934,-0.07332825257744291,0.21503209331374468,0.0492607892740629,-0.28842003920598575,-0.02416518676157282,2.1531544897800026,0.23657547090473097,-1.4683126652323117,-0.05891841037088923,0.19744820668284174,-0.2873053003708769,-0.14834371036559235,2.4296875
-0.0015244700895641376,-0.10893360681385438,-0.0037301330862975386,0.04755801660162153,0.017209398089275105,-0.077198091551943,-0.01979768881157377,0.3664752695391571,0.08263873754966516,-0.5245006783856643,-0.014384650564689846,0.055602232478110726,-0.10862894989980429,0.28982666018012576,2.4375
0.03831535507740969,0.4939473331786257,0.11265236991727309,-0.22638932534724343,-0.03411947523358571,0.2657384582656211,-0.015617458167319166,-2.578936741888228,-0.16336421005640625,0.9808430445204611,0.05823060555726695,-0.17408229977973316,0.17421927761414222,1.0694096294813147,2.4453125
0.00709210308742281,0.10291795773365835,0.021359827761041828,-0.04714516285925117,-0.007160191472542349,0.057625136529431034,-0.000802361115694981,-0.5174813978247065,-0.038395567253264776,0.2370561630027176,0.0122168794943885,-0.038769467860145145,0.043556121040768704,0.17022151666501664,2.453125
-0.053564733760979,-0.7334579571239125,-0.15588960792770443,0.33439013701542764,0.057695927078798726,-0.40379419789005483,0.010952546640829338,3.71923464037374,0.2684122438403337,-1.6191458926253903,-0.0874136495585846,0.2662260149261407,-0.296021013298692,-1.3044000884744738,2.4609375
-0.03301977081624713,-0.49148188123855974,-0.0957911170690579,0.2230805928089438,0.04243977271403199,-0.2782290655546908,-0.0021852223250942364,2.4086992177534765,0.1991064236483356,-1.2119116322736847,-0.05916090258230439,0.1855458421084696,-0.2273698354820906,-0.6580742247466915,2.46875
0.0426896414742166,0.5547669368176628,0.12545185638249426,-0.2542304590229992,-0.03892780741707273,0.29943326942506504,-0.016295789243743117,-2.8872373648796126,-0.18588918951250924,1.1167349708190513,0.06553600419510101,-0.19646606643525882,0.19908362286242506,1.17421407430246,2.4765625
0.0476643217170115,0.7675611038589826,0.1398632262001318,-0.34844400156555627,-0.06780176732220741,0.4444813501213687,0.014823146612408217,-3.672646077501177,-0.3320678423270949,2.0391262586069345,0.09301317377839154,-0.3004972393628318,0.3888260484339971,0.7834850045209223,2.484375
-0.021239943156855446,0.01701327032936958,-0.06162264016125115,-0.002029813604986724,-0.02667158549835742,0.06854067736265211,0.07249304981750407,0.5342748051450119,-0.1506870081934927,0.9958328691054613,0.006540976047510698,-0.06324008650189855,0.22690456579209978,-1.5979308456029497,2.4921875
-0.04613390656316623,-0.31332076039983076,-0.13433632481699107,0.1490419514144384,-0.002103691279962723,-0.11145573906633255,0.08010372487139353,2.2339834815642603,-0.03528381595700604,0.3020070164335576,-0.03263512237172273,0.055017914187050786,0.10173695089081075,-2.246470765902455,2.5
0.00022162265512999614,0.07409486830562327,0.0013001053430623467,-0.032647492046103926,-0.010559066560431702,0.05400612378345494,0.015138783537985858,-0.23857276277764294,-0.05884085115183263,0.37616198485563174,0.009766765949457034,-0.04008773848270403,0.07876762548761329,-0.22784043907081308,2.5078125
0.02601123219895221,0.15592076533546584,0.07679905080976192,-0.07554304022284014,0.006492867257107547,0.04699125232202803,-0.05063341932775352,-1.2076414945390797,0.039538344173883126,-0.29500127463353626,0.015447230447067778,-0.019849832278204502,-0.08350602018127047,1.3644910766585738,2.515625
-0.0019184396330723388,-0.2741416301113083,-0.004806513838865141,0.11966717436695895,0.04365572963082157,-0.19870730518261867,-0.0551484418301048,0.8796788047225041,0.2182134691799733,-1.3892302530939051,-0.036443457459534014,0.1451617661026786,-0.2899239910235786,0.8425344728419527,2.5234375
-0.01912915991993068,-0.4123061572962684,-0.05511537584023002,0.1848381519688423,0.04593262494481911,-0.25623437049162995,-0.02980872833133792,1.779968542714254,0.22276101561538136,-1.3884616124320905,-0.051429335527663704,0.17744345370953044,-0.2753015675036436,0.07752126591513746,2.53125
-0.00030836543133298935,-0.12407114486464985,-9.608927015487238e-05,0.05411762808560665,0.021180551876848343,-0.09205348300326151,-0.0271310361251472,0.37781737781494684,0.10402990621673054,-0.6604005038496583,-0.01667620048724882,0.0671337631722127,-0.13806267078084686,0.43807611179277844,2.5390625
0.010647526079090365,0.05420773108132551,0.031864873590951914,-0.026776972291530456,0.00499142772289448,0.011668903395702333,-0.02321682088383729,-0.46987883404409153,0.025468652236200134,-0.17790324782074607,0.004975687848897116,-0.0029413986197443422,-0.04608889050918078,0.6059269047600963,2.546875
0.0006432859575391952,0.1465929572681782,0.0024286493447990953,-0.06461394964217931,-0.021957725298777642,0.10713516673220226,0.029918428909690452,-0.47092897479981943,-0.1175131426815685,0.7477250864173383,0.019444339009871688,-0.07898021903824018,0.15643125471941013,-0.45745437946618894,2.5546875
-0.0008781804942348171,0.40039799570415063,-0.0021865953438209474,-0.17501279144269144,-0.06516159397937578,0.29984308419205197,0.0912771418914476,-1.2000313966281067,-0.34002563145537007,2.167107254250067,0.0537950265403596,-0.22193108907407044,0.45589018230791656,-1.4674788702697859,2.5625
0.00683707351027805,0.40063237862379725,0.020454361139815302,-0.17712263425102728,-0.056062882302884115,0.2794978173520135,0.06621710380039914,-1.416466685222382,-0.2898695741703703,1.8351193419942389,0.05223199834095418,-0.20253764451598574,0.379868476996844,-0.9026024897530233,2.5703125
0.0032713553099945284,-0.1410429847415713,0.01032735892287785,0.060262371218557986,0.02808856788359166,-0.11358477083262408,-0.042491858414793644,0.3299201559321701,0.14064982751910463,-0.9012455261338693,-0.01966118716778237,0.085188138288063,-0.19208028589865447,0.7522867686884521,2.578125
-0.0038276223396876744,-0.5557978398893367,-0.010248702144921818,0.24319275406332402,0.08735774172335388,-0.40292814584829306,-0.11153068497912239,1.7894581760918922,0.4419561557228057,-2.807328381805118,-0.07381540717716309,0.29440666391598375,-0.5868306408031702,1.699471562186507,2.5859375
-0.00173233475019027,-0.27712178911580104,-0.004258150601565397,0.12109027918166276,0.04439503819346999,-0.20151489957252092,-0.05648235793008274,0.883958128358021,0.22260923230962107,-1.411238544822507,-0.036910266363873075,0.14709890720390234,-0.29532183936489276,0.8694003064551588,2.59375
-0.0012072276407595083,0.20225514746955844,-0.002965145901839629,-0.08820103834875809,-0.03316450925258331,0.15304839083917535,0.04831000316800319,-0.5882828323395737,-0.175092177572534,1.120992464287895,0.027235522609665053,-0.11398034354167284,0.23645709488506483,-0.7845056423178867,2.6015625
-0.00043647941521748104,0.271638656317141,-0.0007345897689796784,-0.11881116484909497,-0.043595221651191035,0.20260791856535676,0.061258973047241976,-0.8213012946860545,-0.22843566024698636,1.4569539176673603,0.0364069340519408,-0.14997157413260978,0.3066278045610878,-0.974360565217243,2.609375
0.01629190940587862,0.11016821291781416,0.048369740592063684,-0.053070463945763015,0.002454508473190765,0.03877999266233666,-0.029079327331156177,-0.7981803835024524,0.014922064370876561,-0.12160585170627175,0.011364735062629066,-0.0194607928555782,-0.03893179349678925,0.8159613364920445,2.6171875
0.02531934897360809,0.036235049328929105,0.0748511594875465,-0.023262026532770545,0.0251501277218496,-0.039879075760188905,-0.07492888741686281,-0.8256673247845278,0.13531748270708735,-0.9021527187623145,-0.0003955711399627054,0.043668975238555494,-0.21057769621992695,1.7360696753790752,2.625
-0.008440576033752312,-0.06349926644615915,-0.024041422534352198,0.029618198977195673,0.0015614631499045943,-0.025142475114574223,0.01286048269488199,0.42086035980215475,-0.00018788896466224707,0.016148586887455203,-0.006858898870583998,0.013175451720246083,0.010402693125070351,-0.3766805810789195,2.6328125
-0.04801852592788078,-0.2140764430317263,-0.13994491246676202,0.10622678494582155,-0.02057429650795248,-0.03281022265206468,0.10832535291638612,1.9845676501811156,-0.13094461493501175,0.9119589249873459,-0.0189373261655265,-0.0040265764574264964,0.23170182844057943,-2.734905126325545,2.640625
-0.028654537163516892,-0.15117728963841104,-0.08321820478043628,0.07346869815375115,-0.007919979388191592,-0.037084963385845035,0.05921644836605313,1.2527846389963946,-0.057923543094546795,0.41460033384625733,-0.014486069924594473,0.010488428017009896,0.11125104014700014,-1.5425547712697225,2.6484375
0.022145842864250576,0.09508085639156852,0.06552452740751057,-0.0479066928206516,0.01192282758059659,0.012047731792531324,-0.05157695282724019,-0.91448583572238,0.06560860224647645,-0.4539023939994145,0.008087198133128633,0.003770057771052919,-0.1135983092674924,1.2976240619827897,2.65625
0.024002129815872582,0.1707929391454378,0.0708947582469924,-0.08139721554486226,0.001757541551893546,0.06340966639867113,-0.04082814931582669,-1.1961137178342804,0.014220702654940909,-0.12839912355579058,0.017842937302087206,-0.0330968670440672,-0.047030156090505884,1.1651189839369713,2.6640625
-0.012622709787584877,0.04087077079067893,-0.03639239278942009,-0.014573618238771688,-0.020307130140563154,0.06333579004092221,0.04961371376623225,0.22182646481103008,-0.11469361086898294,0.7528347422231455,0.007947526592624665,-0.05448217882476689,0.16853282913330486,-1.0503535299184779,2.671875
-0.010767523158042247,-0.001042110456500248,-0.030908475468761798,0.0032603105485819192,-0.01128031472898578,0.027179073597950833,0.03429122398173549,0.2966957498727547,-0.06737887299917396,0.4486548933285732,0.0019644076181627346,-0.02698157879303768,0.1033124401946905,-0.7645519273697561,2.6796875
0.02373254442578755,0.06251480962080279,0.07021101264982062,-0.03399164255713511,0.019074517548569835,-0.016586164873945913,-0.06394169312248127,-0.8608717285466527,0.10347770998377,-0.6959019236851607,0.0034123209074293104,0.025264078750598485,-0.16574376184661552,1.5318268486416806,2.6875
0.01588156685191041,-0.02126337446177689,0.04725473014656776,0.004579542588228149,0.023439983587896087,-0.058005717002885177,-0.05698312031686125,-0.38677834237463465,0.12256732878451788,-0.8053674750511176,-0.0062049621123191024,0.051493532058062036,-0.18240465857898808,1.252277793843133,2.6953125
-0.02926724231150725,-0.21755251078964913,-0.08498370196317936,0.102499656026673,0.002136173126187164,-0.0846200524097539,0.04646813136886119,1.4714083171479226,-0.006359817461887344,0.08862076730848277,-0.023234983514890787,0.0451315625736888,0.042861938659926754,-1.354516347104901,2.703125
-0.03124130876902999,-0.21455391435668897,-0.0907787489879793,0.10166058813148612,-0.000685562431659753,-0.07708176262535453,0.05359637370919031,1.5170022806003212,-0.02186825285843009,0.18999566845335567,-0.02239375868536809,0.03831619127542459,0.06604672281015564,-1.509574982647597,2.7109375
0.017881256795327455,0.024149346737062424,0.0530729959500347,-0.016047940298027523,0.018349870857294077,-0.029237848124976266,-0.05333691196074756,-0.581521881206763,0.0969814817526571,-0.6476072863571509,-0.000460072008838197,0.031365174449855114,-0.15060440519705928,1.235369381089347,2.71875
0.04180286012395776,0.19660838777269335,0.12308577476852785,-0.0978872121977032,0.018434535002271317,0.03581113552855345,-0.09296141682553465,-1.7736212968476481,0.10784632375259039,-0.7554940898570706,0.017717633908692822,-0.002556262238841994,-0.19348778348975043,2.3720845494071137,2.7265625
0.014006655066427709,0.16039260886637907,0.04162047905710738,-0.07434658502082248,-0.008445658721022358,0.0821492198067342,-0.010544041447490271,-0.8857483474987925,-0.04196614069112553,0.24584753875665813,0.018512412704434763,-0.052523051291827424,0.03954646995289699,0.46918018898961233,2.734375
-0.011806404811883586,0.09271329837938924,-0.033995843423167776,-0.037569418025705736,-0.02781983292355474,0.09980708526331036,0.05846277461897992,0.041547080690945294,-0.1523919345525648,0.9932687526839895,0.014715949564529571,-0.08051059519507152,0.21809654547979818,-1.1745552088956006,2.7421875
-0.004993687324026913,0.11914809921869346,-0.014025703099145833,-0.050911468621271674,-0.02407472675723284,0.10137494330181117,0.042187289081805725,-0.23004275167628427,-0.1301083729063486,0.8404129775999921,0.016888006312560398,-0.07801286991730988,0.18079983455957951,-0.7671076970048616,2.75
0.0036307462844512297,0.10618156522820163,0.011259035238211047,-0.04761574292301082,-0.01179664906719142,0.06897989801490204,0.011249507121631946,-0.4322833089071306,-0.06348964860373718,0.40049403201838313,0.013406227442380169,-0.04930567834760775,0.08148261646162133,-0.09096763080571979,2.7578125
-0.009518008313279171,-0.08854769355544059,-0.027180627232594505,0.04102296827234796,0.0044672679054886715,-0.04104280872168883,0.01077853436614192,0.527562848012404,0.01388773806902508,-0.07266418867567119,-0.010009600288759362,0.024241730276106422,-0.0071176939142712,-0.3649028350185123,2.765625
-0.02533323393481082,-0.34090753968735754,-0.07338605105852074,0.1555075998840119,0.02699648201595097,-0.1868813956246805,0.006186283874768375,1.737344873884186,0.12237230347086656,-0.7390401471426917,-0.04061358612310415,0.12266524743949575,-0.13415142992280663,-0.6294489340468209,2.7734375
-0.021691123788655592,-0.3550663003120822,-0.06270240282776618,0.1605778445877098,0.03356598804544291,-0.20695129465366535,-0.008789759683010242,1.6784732136347498,0.1578029245894873,-0.9709483486245297,-0.04325457863322344,0.13960097209989925,-0.18590669616474656,-0.3140078530650639,2.78125
-0.003986804116161651,-0.05505842511668494,-0.011017113101950077,0.02473869020837458,0.005452251221206804,-0.030609426606726862,0.0002506454883578222,0.27125569973087293,0.02149175724388866,-0.1305957911666835,-0.006660144919495273,0.01990153554854949,-0.023994046046889407,-0.08139344705774092,2.7890625
0.010230426022291636,0.2164093541639397,0.030471183171271385,-0.09750972970680892,-0.02205325573898477,0.13357287929414685,0.014252600106948633,-0.9512636212055273,-0.11344078108466377,0.7072377953801394,0.02680411801938631,-0.0929464840900426,0.14022533645916713,-0.001489779379847429,2.796875
0.015680383747971004,0.12216882648948871,0.04653458275757028,-0.0578417476545679,-0.00020616029612414028,0.049062522592853,-0.02446207663578837,-0.8168900782242237,0.0009686225962627763,-0.03002346368008446,0.013048630766623388,-0.027658970895323858,-0.019279162993982985,0.7305050452589863,2.8046875
0.017702834686966373,-0.10708413416725393,0.05265127207294898,0.041416264635610066,0.039580132467585634,-0.1265191191727429,-0.08196953650914744,-0.17669331848792325,0.2060602093971502,-1.340655828643561,-0.018071154243541485,0.10291926378280702,-0.2963597407340586,1.6875099099712922,2.8125
0.013816026701524958,0.026289484873527117,0.041185806079776587,-0.015865832691108132,0.013237365622732136,-0.01698871396563612,-0.039663039220658544,-0.4737002224098356,0.0691975429237269,-0.4627491983702657,0.0006257361192380164,0.020132036941074113,-0.10854113654014287,0.9314811200717331,2.8203125
-0.0009435611114420191,0.43345333712206346,-0.0023460897534812214,-0.18926921241761735,-0.07054390348150347,0.3243736738425563,0.09882952137521146,-1.2987163169953655,-0.3673067243742012,2.3432675412430624,0.05821229956712336,-0.23992375099340754,0.49338671835196984,-1.584022123787802,2.828125
-0.011186559345927478,0.48463848122999514,-0.03241184603648182,-0.2085994230881465,-0.09096180454728371,0.38924019190631803,0.14352062250829814,-1.1678760783860556,-0.47661535097732016,3.057307743368162,0.06715446235794627,-0.29377121482952134,0.6516392820675234,-2.5125697021077786,2.8359375
-0.0005357472573535077,-0.016729836697902362,-0.0008885243974102917,0.0070104230945180505,0.003303389833415787,-0.01117982600232287,-0.002524202553829613,0.0582018428226682,0.011876354911887495,-0.07333278339006362,-0.002204908254759029,0.007510228157977632,-0.015402648670706072,0.033892355242754114,2.84375
0.007434334303201543,-0.5141863632254,0.022774886185249914,0.2215877712739303,0.09378563280247626,-0.40150393290322317,-0.13893809023053375,1.3471790929151917,0.479789421033879,-3.069668129736106,-0.07047871594017932,0.2999725418470974,-0.651460375498162,2.3716526654483867,2.8515625
-0.0149123551161124,-0.47329577555665175,-0.042740440400800925,0.21004996525466413,0.060807757689975574,-0.31235046844593034,-0.05707599234097702,1.8474068339487129,0.3009072912765193,-1.8937198171559746,-0.06043255722384597,0.22135095069319172,-0.3852810613089622,0.5981475310541358,2.859375
-0.032649188195099065,-0.013830072546254705,-0.09499825054470082,0.014798118341061223,-0.03499460827148676,0.07540726943325442,0.10271848015165293,0.9467928706700692,-0.19827813672116862,1.3184044816568705,0.004737794494333756,-0.07490544883837565,0.3044229949640984,-2.3169148358423475,2.8671875
-0.0020417778681096803,0.2916742149363208,-0.00548534525722158,-0.12692820391562493,-0.04874918416118291,0.2217055122576908,0.07090531263616949,-0.836985621719024,-0.25545485687907493,1.6349273991074638,0.03939802348396975,-0.1651158385409596,0.34503193018367023,-1.1619584675478094,2.875
0.03349597425299906,0.042792211187035224,0.09880999002098799,-0.028367828297211562,0.03372412923119584,-0.056611492908321646,-0.10008395629450245,-1.0735405032894194,0.18298430730235302,-1.2184147080435694,-0.001219681383628928,0.06070716855316471,-0.28411455907654654,2.309863696574306,2.8828125
0.010879282228708612,-0.4622810027064957,0.03282824144121176,0.1982087460130661,0.08946070315068298,-0.37226565994361155,-0.1386392564150983,1.0940741825888884,0.4587760514035942,-2.9424817707121194,-0.06428105863059945,0.28036235800157144,-0.6271274417749622,2.442715581296627,2.890625
-0.02763637894554722,-0.44628435317369836,-0.08007696160886515,0.20209292012363292,0.04146608454392448,-0.2591743572765425,-0.00972519018707149,2.122500733343795,0.19563410568221803,-1.2033800215871329,-0.05429425088069459,0.17464264906827356,-0.22957226623874835,-0.42441825245646947,2.8984375
-0.006507022181111877,0.2523624184475982,-0.018608066805698344,-0.1083329220836122,-0.04757063981375212,0.20403158700690127,0.07661053681563497,-0.5910365371572801,-0.25189600470326917,1.6171760043152776,0.03496565725964562,-0.15463057349627327,0.34513250801202494,-1.3483981432943148,2.90625
0.03702999096923284,0.752433104392118,0.10867262775082885,-0.33850248102562164,-0.07779981039055701,0.4608986510376457,0.04593376060973528,-3.3279255910560464,-0.387973619327028,2.4155708904457827,0.09307461609431222,-0.3187634261983517,0.47655631268302673,0.06449857769371846,2.9140625
0.022675739515040812,0.42422711756303183,0.06683883239298935,-0.19151492392485958,-0.041207104864958766,0.2550122982455042,0.019836254089590888,-1.9302167590071715,-0.20643670458113356,1.2806033276557078,0.052087126829384246,-0.17528654241159852,0.25037221258601833,0.17526683305579704,2.921875
-0.02086033836281365,-0.10508464750644092,-0.06038120425053076,0.05119109159532214,-0.006263192522136688,-0.02341426492509831,0.04409714230110966,0.8939714261999222,-0.045922727650035515,0.32601453365354244,-0.00986931516334701,0.004756912415514604,0.08633740572461214,-1.1353695454665023,2.9296875
-0.020256464591846452,-0.09787551225338711,-0.05859558268633268,0.04773418282323243,-0.006776237318048309,-0.019539143952153837,0.04377760188904809,0.8543405070307958,-0.04808149017022906,0.33814722356769705,-0.008995712929971112,0.002263893627943544,0.08841962243258003,-1.117974651574895,2.9375
0.0024129953732738288,0.0638450357124916,0.007732468499893415,-0.029081514047648322,-0.006407839368229436,0.04102459886175713,0.005896960723674589,-0.2706845613281939,-0.03636220630294208,0.2274340378748822,0.008039595231516445,-0.02923056318142645,0.04616262275396584,-0.03473047562653913,2.9453125
-0.006912276987654048,-0.1723740082624008,-0.019460912079361268,0.07652788970890229,0.02117148038008072,-0.10972019571913681,-0.016220990383788464,0.7083760624210685,0.10081837846227473,-0.6309234900942139,-0.021696528483176165,0.07653345022451767,-0.1266779050910223,0.11714879278712553,2.953125
-0.01807200602116208,-0.38215215734123015,-0.05202360619923342,0.1710135580522249,0.04224134386345565,-0.23606920989714536,-0.026507087587757286,1.657962026986235,0.20390096040085257,-1.2694729890313032,-0.04750396189534053,0.16322792841526665,-0.2517933289939524,0.041875032550247174,2.9609375
0.00917238348064588,-0.0849187381769765,0.027652650492537456,0.03379290432703692,0.025871402897586705,-0.08714710709466396,-0.0492262381070353,-0.007016898409102357,0.13183329279348754,-0.8543998513169658,-0.01325473421354092,0.06914897991797533,-0.1872696864871208,0.9824467444849424,2.96875
0.029586453574953743,0.20917845132864143,0.08727454100702209,-0.09995792548100281,0.001976028737838802,0.0773289312102247,-0.05040850556764524,-1.4708240162185615,0.018225437689703635,-0.1632185950714419,0.021925988329034272,-0.04037053233509987,-0.05903304389021307,1.4365041780426286,2.9765625
0.0016457661577649063,-0.05192099443930417,0.005497035034633797,0.02190018194525756,0.011648294500607139,-0.043136786076338265,-0.017486882093566417,0.1053432663933913,0.05572573850314602,-0.3554913127648952,-0.0074208561468871665,0.032316139668969054,-0.07650297336316354,0.3190221350107041,2.984375
-0.026998367241878637,-0.3999685453349357,-0.07826845551853437,0.18176931976287847,0.03468525273333599,-0.22626829763954578,-0.0015991095314454907,1.9655261001427506,0.16148241101833793,-0.9811611005530593,-0.048269651094342204,0.15090417915571355,-0.1844767359758422,-0.5430786604616714,2.9921875
-0.012032044589186424,-0.18361048566190968,-0.03454388203161702,0.08334691690223114,0.01707356909289982,-0.10516756471398606,-0.0023004691784064384,0.8902619129089753,0.07762509873244063,-0.4710534701887043,-0.022385496012207556,0.07030859955019278,-0.08955486887078537,-0.211813242428463,3.0
0.010117819950034622,0.3286197845742285,0.030054448637615912,-0.14609284018928528,-0.0403614562765843,0.21671504788574567,0.03940482316707096,-1.286437035394331,-0.20751397527713744,1.3079849029897077,0.0417234696837614,-0.1543717900177864,0.2664103616071914,-0.4003322172860832,3.0078125
0.0041528717379776025,0.47185784695148425,0.012500834618838495,-0.20693139059463755,-0.07078791994793994,0.3388124318852266,0.0907209475280656,-1.5565479124605541,-0.36617472623381375,2.327804844704008,0.062195140589684644,-0.24799779143112474,0.48595698412910376,-1.3413360853495158,3.015625
-0.0034978263120354555,0.20046581782209896,-0.00969778065844659,-0.08668179299367319,-0.03557294291125466,0.15766786394272256,0.05538718499219907,-0.5191741511246808,-0.18851862670674388,1.2097642821816803,0.027472524093415857,-0.11878747745054531,0.2572344996160278,-0.943808256412521,3.0234375
0.006075038509763113,-0.04613957058953075,0.018558779456076983,0.017947728464136285,0.015905153631680973,-0.050438963656600735,-0.030546099860395706,-0.037979834045077085,0.07986881231163243,-0.5159234922946685,-0.007477971044340422,0.04037307410948482,-0.11341378412996864,0.6229411921502197,3.03125
0.00818591594519117,-0.09637874759826351,0.024764601304524788,0.03919010099163284,0.026543773340926065,-0.09326628449014047,-0.04852560215868825,0.05523388683748576,0.13488564069794712,-0.8745951518278761,-0.014619881122128746,0.07322113800372382,-0.19006376256348204,0.9516919215224043,3.0390625
-0.0033046625179239176,-0.1440771894463675,-0.008912535921591047,0.06323314766052594,0.020740382257893698,-0.09850245426056559,-0.021628430408176316,0.5207295810712871,0.09959862530987994,-0.636383028610381,-0.018642041088095543,0.07034891013095916,-0.1297396790300906,0.2801383738368111,3.046875
-0.002416613691284654,-0.23622364750618402,-0.006241073708807448,0.10315664145464921,0.03680626272823016,-0.16926843271633832,-0.044971909759665134,0.7753456041278184,0.18261116586906687,-1.1665926403620237,-0.031146985607679884,0.12297819192361086,-0.24179625107150685,0.6714146825246101,3.0546875
0.010560351045987538,-0.13443935793018996,0.03174891838607672,0.05504221894393653,0.03550193773681845,-0.12769849763736882,-0.06468471093845066,0.10342651567239486,0.18213964960466902,-1.1796432547923326,-0.020155720027169425,0.09985022065469293,-0.25620074597639075,1.2598023708467483,3.0625
0.009464522002571607,0.17042183527730548,0.02832062146749107,-0.07764013657787082,-0.015494489102846067,0.10176178602424467,0.006524019658616397,-0.79123444700529,-0.0798370720386851,0.4959399951180513,0.020886134362790874,-0.06994300193479078,0.09578958301353223,0.10194832774130144,3.0703125
-0.003793197701034424,0.24365464130154907,-0.010627871033121164,-0.10569156339869949,-0.04298679745804749,0.19102499806515796,0.06592045621077662,-0.6414564025621637,-0.2269002513682226,1.4563083613908991,0.03334215039258085,-0.14342762515713445,0.3084636906339335,-1.1237659041549821,3.078125
-0.006580160317596386,-0.10540799651095877,-0.018595547347737815,0.04760301385828917,0.010763286275371068,-0.061122136608925036,-0.0025755260163785546,0.49869047824535445,0.047550647860405415,-0.2875712189687994,-0.012929844809019419,0.040855821681329084,-0.055228380718569024,-0.09064956662877603,3.0859375
-0.0025295333476280444,-0.3518174983033522,-0.006566411315428375,0.15403175872964697,0.05574728714167715,-0.25498842687068884,-0.07055166977020914,1.1347828488857283,0.2800896691255076,-1.776155022749683,-0.04680051567012993,0.18609967899431218,-0.3714323572061622,1.0767676053070736,3.09375
-0.009393966522321235,-0.02548007732111115,-0.026881486323231313,0.013483305966471671,-0.005637877558763066,0.005476029841388105,0.02426189530101492,0.33435733815611607,-0.03799339367462721,0.26093413519285147,-0.0016413757314421003,-0.009956347002988999,0.06177102731324966,-0.580007461580186,3.1015625
-0.018498640418481576,0.49328360018351414,-0.053866816307191145,-0.21034240855450198,-0.1010295181613126,0.41482052727489993,0.16917805708204092,-0.9887228784327651,-0.5313697019900473,3.419015040121236,0.06976830267464898,-0.317009558677194,0.7328847923523144,-3.0787905282078736,3.109375
-0.008499727042780021,0.5522790818587545,-0.024572001824324598,-0.2388194119749614,-0.09885776943523672,0.4322934113461453,0.14980015048450007,-1.448278451760856,-0.5155434029663901,3.301810519035458,0.07563579229227312,-0.32401533517462033,0.7006980670659737,-2.5546170517261815,3.1171875
0.013511455378391761,0.12001067154511967,0.040204075931954755,-0.05640046864089429,-0.0024112462593804613,0.053263654285734256,-0.017829687304985544,-0.7500162396234773,-0.010920981855105857,0.04907019165203318,0.013206368785357933,-0.03176431304706085,-0.0003488685749954487,0.5812386881855048,3.125
0.016833724452949256,-0.40688508106030236,0.050250009607137776,0.17237310640058326,0.08740734064494632,-0.3467785240216821,-0.14566792448515428,0.7585890917823598,0.4512005497830408,-2.903819955407801,-0.05807011708404934,0.2650936329851372,-0.6234445285393835,2.6832009696240267,3.1328125
-0.005886914747482152,-0.7127040926415796,-0.016138092963298722,0.3120300664683401,0.11049298468112123,-0.5141561054643008,-0.13964189082740203,2.3231747626036134,0.5596308500457812,-3.5590894188610496,-0.09439871439768432,0.37532984043436446,-0.742399416430914,2.1032765375735423,3.140625
-0.02053506935138539,-0.5434961262992404,-0.059146026856900014,0.24242677171488328,0.06565654818613713,-0.3501058829568394,-0.05439369002856163,2.2181511121708297,0.3232648278113709,-2.0277491703159156,-0.06873719481953369,0.2458690087877399,-0.40857587540543333,0.43786276737108887,3.1484375
-0.00032107276815694635,0.10259233164499916,-0.00030945203892601003,-0.04488986158574566,-0.015870472716359732,0.07651219464316074,0.023300976319382365,-0.3107201694390318,-0.08635953185859382,0.5511559933392451,0.013708394207156149,-0.057062571685540305,0.11632770284369172,-0.36743846573438915,3.15625
