AF3,AF4,F3,F4,F7,F8,FC5,FC6,O1,O2,P7,P8,T7,T8,time
-0.003463659596237942,-0.14002094679846674,-0.009371455242163547,0.061491304961211135,0.019968431422981048,-0.0949816346068899,-0.020431775449783928,0.5149791179937637,0.09606222117691991,-0.6057518599835925,-0.018112246020111644,0.06772613187225156,-0.12505969676758275,0.2544729538386268,0.0
0.0031670871837549013,0.07752807158181142,0.009899614219679161,-0.03517039190552203,-0.007728291238030921,0.04919493235024331,0.006386930743682422,-0.33204151911198254,-0.04291116387816815,0.2696210107086533,0.009679431313950567,-0.034797699815011136,0.053813462912516354,-0.028692044036456563,0.0078125
0.013224513469774357,0.28194469592793275,0.03921514649010973,-0.12692994569904137,-0.029196169382985693,0.17441011358353486,0.019114611532042903,-1.2343450175994024,-0.1486848277369917,0.9273571249215549,0.03497160774299424,-0.12137488066171376,0.18435923543090985,-0.013473263399178346,0.015625
0.0029172976272326175,0.03309286022702011,0.00916414628559636,-0.01558172639608249,-0.0007490898973942277,0.01671887758234553,-0.002624084062017348,-0.1896122970991159,-0.007463906799330631,0.04305682080345733,0.0037345105738876977,-0.010983281639249182,0.007045244060732598,0.11176481863980745,0.0234375
-0.02696418375056173,-0.4326810116665077,-0.0780920835304267,0.1956009934152778,0.0399640764387149,-0.25037174798414774,-0.008838475273814176,2.061073945226857,0.1883832876319941,-1.157441140793414,-0.05251431343636554,0.16877516744251878,-0.2209155445750802,-0.4282433223421611,0.03125
-0.04453825149828118,-0.48998827313231014,-0.12954461856896982,0.22539918895018146,0.028577473249270662,-0.2466264674213288,0.0356554936465201,2.7261190798842883,0.1225814073534844,-0.7089693121412087,-0.05657777867666338,0.1557593388884104,-0.11221637024135049,-1.5086499310542576,0.0390625
-0.018823411138704126,0.01717883546589238,-0.05450297795070148,-0.002685854536207987,-0.023782464683189494,0.06211006341475794,0.06459714968704006,0.46612727090631956,-0.134756128869972,0.8908870814058213,0.006072447841827666,-0.057199319091708,0.20283840458577831,-1.418420605738719,0.046875
0.03219698598424892,0.47657081537050844,0.09472729049558773,-0.21694697937500346,-0.03849968009888856,0.2687358883871544,0.00048785784070439435,-2.3554319790725233,-0.1882561842494875,1.1499671297273388,0.05713396211396051,-0.18006824576625413,0.21497750840516736,0.6867129150624984,0.0546875
0.050351732704289776,0.3728541678536907,0.14799636747724412,-0.17676606350816873,-0.00017131516171283443,0.14392345321995842,-0.08169254388862345,-2.5471589145422446,0.0162187993703373,-0.18305253740773342,0.039513814059078334,-0.07740553991650374,-0.0802848530878549,2.3778851035818134,0.0625
0.017100540116929255,0.040761282071572744,0.050760643300425984,-0.022854425227791086,0.014753236391431104,-0.0150665024474968,-0.047170688289644526,-0.6087598252424331,0.0785377349126782,-0.5271707457514158,0.001843427405856705,0.020645021275226074,-0.12489118048003124,1.12215075979151,0.0703125
-0.013590757138418171,-0.03811708171589295,-0.03913020447621199,0.020053600490734957,-0.008595843260402566,0.007084081031552227,0.03526818881480147,0.488162284666244,-0.054528563817507376,0.370177459287789,-0.002434450020930827,-0.013545211195013108,0.08933469925602812,-0.8396957051480338,0.078125
-0.0002893057522573855,-0.08813077044573495,-0.0001229691824849893,0.03829624033009162,0.015245297889004864,-0.06523749357189546,-0.01917032564502913,0.26830755699334025,0.07331544867421029,-0.46644115940164266,-0.011868392261344183,0.04737202182402184,-0.09745642281069751,0.30807788074220893,0.0859375
0.017675790765261,-0.36839869596367936,0.05268802931859437,0.15556106783575677,0.08215225806180211,-0.3206205278465443,-0.13994218424650132,0.6183690787485232,0.42419251130262486,-2.73213606975617,-0.05309784733268924,0.2460955386492723,-0.588493632711776,2.608185638625012,0.09375
-0.006087362797718953,-0.42707000321774946,-0.016912911514814076,0.1875821529922483,0.06371045133336478,-0.30134111640892164,-0.07557388392539177,1.4607530410620313,0.3193568659865488,-2.0254645685515187,-0.05606278900951268,0.21824504295313674,-0.4203499084576523,1.0789520912670736,0.1015625
-0.03721101203883623,0.03378230528147372,-0.1083916792145095,-0.0049275247348396145,-0.04815304474763229,0.12305715261053411,0.12815572162928876,0.9294391996347119,-0.26797341658691026,1.7688233087480099,0.012092798895605876,-0.11259539145541052,0.4025489785014012,-2.8215335235032013,0.109375
-0.021742416472220315,0.43573733675767456,-0.06330694265037619,-0.18450523662324983,-0.095467219840198,0.38078579856813083,0.16702582671711325,-0.7243921889749219,-0.5041705184453928,3.2498422307212906,0.06277770407855077,-0.29366884480740446,0.7006359117555633,-3.111506556305622,0.1171875
0.01309390465913122,0.31703758551702105,0.03883272384146835,-0.14226780777788742,-0.035009984003389324,0.20078539300281079,0.027167169570944588,-1.336348041709553,-0.17910352396226287,1.1220426689702445,0.03970442197459295,-0.1408444205922503,0.22454532871112845,-0.14845350950770994,0.125
0.0072253979025697175,0.03427941156702558,0.02179005000504826,-0.017261073728732635,0.00419517067345223,0.006278531329820438,-0.016513107422965655,-0.3126534471583707,0.019522139715228832,-0.13423911668214467,0.0030065554123989958,-0.0008435965568798886,-0.03444561548036716,0.4213578466431193,0.1328125
-0.02236910316493721,-0.10605808106621925,-0.06484341704808515,0.05203818939597169,-0.007852113874493503,-0.01985824546849609,0.04876486993656164,0.9402214251480073,-0.05484778637617857,0.3874600852938929,-0.009711471655437268,0.0013898726925883815,0.09982884940544128,-1.2453408404342936,0.140625
-0.016331999728076498,-0.23533879301461003,-0.04704489416622728,0.10658382478071857,0.020300908178603708,-0.1316869163007536,0.00044987578973516374,1.1636937728001333,0.09250479495498494,-0.5618441219314616,-0.028245807096108525,0.0874400128318836,-0.10456892222943555,-0.3489591435044013,0.1484375
0.014580412089773452,-0.22851852341795498,0.04357113546908468,0.09505434027863367,0.05564145902818596,-0.2081760585634935,-0.09870145501877124,0.27880364762764986,0.2873892134382027,-1.8538819685803445,-0.0336635655096251,0.16166637460388078,-0.4015134279936094,1.8861617191903228,0.15625
0.013269904483536394,0.07103447587486192,0.039564929700992964,-0.03503267511087698,0.005275363607676231,0.017449090704730698,-0.027931207358131194,-0.5953586166545656,0.028410633844336886,-0.20105944266354064,0.006736584383977624,-0.005654241305944014,-0.052929452030480925,0.7363573344233308,0.1640625
-0.010818827812180439,0.1736498932174375,-0.031105034953574928,-0.07302194324523018,-0.03986785563424868,0.1569711544265682,0.07329067370713811,-0.23425629589414182,-0.2138114864869033,1.3803779185538065,0.02542176479257837,-0.12257715819531995,0.2993988341772174,-1.3841926677719396,0.171875
0.002501983762150141,-0.15527855287388387,0.008089361213143673,0.06660840901373173,0.029457254591151266,-0.12220884465799764,-0.04312925975907634,0.3939754880021866,0.14743182366428784,-0.9456097797551519,-0.021392017550589344,0.09108038285080944,-0.20042984888910936,0.7474242147812424,0.1796875
0.04506761568446488,-0.1468503427123515,0.13279057767833943,0.05108238467557072,0.07828798989222001,-0.22787989301141215,-0.17985241358327256,-0.819967842348797,0.41637957567379796,-2.728301785137315,-0.029019465130692475,0.19376521182724527,-0.6103308779219692,3.8249320469584256,0.1875
0.04355216562959553,0.4334392445867623,0.1280000392359591,-0.20134171729446845,-0.018089790771316436,0.2068783142515653,-0.04606637140967091,-2.5409105875218003,-0.07862889719806396,0.4319975647579439,0.049002506510804414,-0.1276943138672628,0.054861690875371155,1.6678333787250819,0.1953125
-0.01089645914934517,0.4918737531584907,-0.03158038108489853,-0.21149710469037883,-0.09179656255342833,0.3933307364799379,0.14411644050957845,-1.1969372132316882,-0.48043498428368375,3.082630711439573,0.06796431415884428,-0.2968042430827487,0.6565966409308749,-2.5129263216040307,0.203125
-0.04053143950461659,-0.25741733209659196,-0.11797339085936429,0.12344241651785746,-0.004537817552077097,-0.08512451019851554,0.07410423918314632,1.9092052866729843,-0.04589883801955359,0.35983527362079715,-0.026364144381592628,0.0387828715514946,0.10860468753995245,-2.0334544675759427,0.2109375
-0.012052830638293441,-0.46002040585286363,-0.03440990201933007,0.20373035648249604,0.06208733762995338,-0.31033379218122903,-0.06361612343842651,1.7297017203377199,0.30814007098317137,-1.9434401818996239,-0.05933505398683271,0.22137694151092266,-0.3990241723509133,0.7595529227291146,0.21875
0.010907613273230367,0.25580827094957964,0.0324449077714609,-0.11486595217835453,-0.027596591523414676,0.16099583330586506,0.020717965903901868,-1.0885382958524066,-0.1416811215179214,0.8879416099067102,0.031901607611304346,-0.11282737376056322,0.17739696701466362,-0.08982781484469439,0.2265625
-0.012436727263253079,0.43302891451920233,-0.03603840392988044,-0.18573746199798302,-0.08406978455170507,0.35415406807747596,0.1361998702956943,-0.9767837785770775,-0.44111902361272837,2.8348347827916496,0.06048559704354236,-0.2687849247313228,0.6064837956269937,-2.4188628223130064,0.234375
-0.028348271949355706,-0.3010073922177118,-0.08218069192569838,0.13854698207303542,0.01684748458047009,-0.1488807439519366,0.025033393336047583,1.6975207968430484,0.06964247384867274,-0.39757335061090926,-0.03452849477856192,0.09293364990608297,-0.059260865134115416,-0.9915851556177817,0.2421875
0.0008724543491006613,-0.4945519331374515,0.0035839853604893264,0.21461693600222995,0.08287287284007297,-0.36930829027705286,-0.11306672790688509,1.468932045901409,0.4205861716227757,-2.6850031027044508,-0.06638858915199687,0.2724703562856598,-0.5642201820941413,1.8217694186366216,0.25
0.016661752680093813,0.09457092772891997,0.049480675239085364,-0.04661651944675256,0.005425045867409451,0.026605512691942054,-0.03363384693761914,-0.7624357982635472,0.02990046735606948,-0.22041401956408121,0.009298476654938688,-0.010279764545202795,-0.059677382290429355,0.894159483217303,0.2578125
-0.02133564594458927,0.04572838445313999,-0.061870562037677886,-0.01452590193624157,-0.03141368869796708,0.09011200361135047,0.07915124245138883,0.4489456354295813,-0.17529945070736036,1.1524220000988137,0.010458491769236189,-0.0791704270808781,0.25982279196286956,-1.7062344965120182,0.265625
-0.041831833524120135,-0.6153081506523523,-0.12155495517445286,0.2795615362324462,0.05223164960706102,-0.3469664664378944,-0.00105475669937239,3.0321792558557155,0.24521719572081963,-1.4912347048662273,-0.07397919328942726,0.23123529019312905,-0.27933660275545463,-0.868497231925077,0.2734375
0.012161218588888571,-0.3485892984674962,0.036498607552317014,0.1482162740662706,0.07241154572935644,-0.29093121367409847,-0.11764959638110488,0.7131271061284018,0.37208030705946715,-2.386855369157967,-0.049300993968036735,0.22130955797460652,-0.5125503614569148,2.13167111498371,0.28125
0.06314706453309495,0.6656493102415831,0.18529025434533247,-0.3082298370977987,-0.032880547070020485,0.32803221283137707,-0.05833560155700487,-3.7948128483802703,-0.1461766719521746,0.8316459460599327,0.07616616914163138,-0.20550279822238587,0.12190627548007758,2.2749197656613243,0.2890625
0.028148713752343273,0.716707189991465,0.08270099698839024,-0.32059285556046424,-0.08247495749313917,0.4576962536889839,0.06697321669058058,-2.972061585671502,-0.4157082365411099,2.604533689400502,0.09013444252174388,-0.3215465474029556,0.5239891692220976,-0.4570136574734077,0.296875
-0.029914376895982822,-0.14674618142712104,-0.08690742983131264,0.07228257510748923,-0.010086951635910222,-0.0311287524623623,0.06419056293241572,1.2755713197238088,-0.06927979375160145,0.4905853302789551,-0.013733537781958778,0.005071431252732598,0.1280575042256927,-1.6443512158721305,0.3046875
-0.014447979621714898,-0.3236249875336389,-0.041459523327773064,0.14514453233773597,0.03703540765687578,-0.20325070499321057,-0.025469899655430322,1.3813487832723923,0.17920295221593574,-1.1182186938382295,-0.040614799413574494,0.14096755661729174,-0.22275890358290704,0.11042480194811555,0.3125
0.036377010350480576,0.2914671616246808,0.1070928654604823,-0.1373577340470785,-0.0033601460395583887,0.12007656673444227,-0.05427608226123918,-1.9088905154976803,-0.006221859938168208,-0.019655984497149812,0.031436212695723255,-0.06786886668870008,-0.03380628613236088,1.6477350912050743,0.3203125
0.03135101689659676,0.45358897930160647,0.09223085296374765,-0.20679254950759496,-0.035778214064675365,0.2540229613188244,-0.001853579149740779,-2.261772321218721,-0.17488665336317788,1.0635263638096057,0.054234033055398846,-0.16955344306432257,0.1979497898567464,0.7050782164577191,0.328125
-0.01226896116381029,0.05290319479048496,-0.03536055106135022,-0.019984030504734518,-0.021901544495986875,0.07138810158796462,0.05117923079189432,0.17455467096752592,-0.12257200177956773,0.8022153921213472,0.00950983019357828,-0.06028640311711529,0.17879761706022507,-1.0674265667906322,0.3359375
-0.023033169487961063,-0.09565889172237986,-0.06677910497293756,0.04770716895235028,-0.010365026917046227,-0.0105480111967345,0.053256839213713277,0.9262271326040072,-0.0679476873489859,0.4717398921527671,-0.008153426195314225,-0.006150819083304857,0.11818772999986073,-1.3293988423909135,0.34375
-0.01024218573708353,-0.06382036730623815,-0.029274495294883927,0.03010048874627481,-0.00045808476632154375,-0.020426242107935474,0.018740670555839486,0.4714595445770246,-0.01153163506538692,0.08995868643511623,-0.006471105538099776,0.008655033038096976,0.02780674096006269,-0.5078383803791967,0.3515625
-0.02211593389663802,-0.35906484876703976,-0.0638852532461849,0.16206213926180732,0.03370235047236399,-0.2082985288276783,-0.008160712642857608,1.7007397232056503,0.15859228032609332,-0.9752407752255131,-0.04359761032263417,0.14044875734173667,-0.1859771267473471,-0.3329666512043455,0.359375
-0.03988080698153827,-0.6237274250291388,-0.11580830650038752,0.2824793980690505,0.05590495586396523,-0.35808541830151763,-0.00914975191483026,3.0020094830621646,0.2648204011968846,-1.6216073927257515,-0.07544285568935556,0.24065856548888828,-0.30755052243563197,-0.6968115630266227,0.3671875
-0.018142140772626016,-0.3298368365506132,-0.0523014231122914,0.14834934551760445,0.033575016087973274,-0.19713964907623405,-0.014701526627416561,1.5013978646271184,0.15967515668187476,-0.9858611013549378,-0.040524541367355046,0.13453572032733746,-0.19254098068564654,-0.1479925403043124,0.375
0.02327692017913148,0.16093206773263707,0.06878548540749942,-0.0771797782682482,0.0023679388508662425,0.058190148561604364,-0.040580928919351826,-1.147677702470687,0.01749211109557159,-0.14788040952057319,0.016752392418356757,-0.02982008997324514,-0.05084549948050184,1.1442993613122778,0.3828125
0.0297004139467581,0.2672982193117275,0.08756048723317013,-0.12529088992843634,-0.007354029283677807,0.12013351739281762,-0.03789556913163756,-1.650060205235238,-0.02964596870571608,0.14169494533983298,0.029667077818169026,-0.0718155800920006,0.004940388931534594,1.2402485442119695,0.390625
-0.0004783025895323417,0.07449344802618206,-0.0007740662523724077,-0.03264967969992033,-0.011430489715053675,0.056259173343752425,0.017519787973026942,-0.21988225983179577,-0.06377357113070753,0.4086296040667795,0.009965278899260153,-0.04213473808805404,0.08622772560291801,-0.2806429154922274,0.3984375
-0.01704267446612927,-0.036256051809828695,-0.04928939777851425,0.02037849934318069,-0.012888951125671169,0.017572894692046082,0.04684368624339651,0.5805030778363008,-0.07863932689789288,0.5295263364636608,-0.001527180214020057,-0.02307286915670239,0.1253677612159,-1.0996388173988956,0.40625
0.006997457181868214,0.05628236666754431,0.02109000838441057,-0.026664142136826312,0.0003369972125722105,0.022995236440319297,-0.010897296145005711,-0.37220599535443494,-0.0003777417784461631,-0.009294800113406032,0.005933788143747865,-0.013126462677890046,-0.007883958342630826,0.32796813700355054,0.4140625
0.03913949689706556,0.26999426996556714,0.11519534295011408,-0.12881493390980808,0.0033715266788004916,0.09699006601264254,-0.06810930066068097,-1.9206585456855385,0.02944253287764863,-0.2500903365835864,0.02800872432537519,-0.04925847674698531,-0.08524934081792696,1.9218519061548078,0.421875
0.034873503704958946,0.4269678144137326,0.10264373130371796,-0.19605906535122275,-0.027258285598203237,0.22469936663422976,-0.019336416452918365,-2.2798317797008796,-0.1292133019645125,0.7704918456309742,0.04995556028976217,-0.14610351621796563,0.13271538854188494,1.0584550344121455,0.4296875
0.0006002270857063129,0.3143379804362356,0.002256602142119458,-0.13747073114036554,-0.0493374284184505,0.23139645027332514,0.0673174016789136,-0.9803946434669082,-0.25734340429345487,1.64229996446315,0.04190904980273609,-0.17086190208451005,0.34450933129762684,-1.0472729599145016,0.4375
-0.02288181291384856,-0.0541236089971839,-0.06638310505646436,0.029572308153835224,-0.016989186746568376,0.01982934725868608,0.06201939143896903,0.7959737821249453,-0.10172947297279951,0.6855381753250884,-0.002652642843771099,-0.028269766149276326,0.16335827084252227,-1.4637913961861506,0.4453125
-0.025863346906044415,-0.3855768134659016,-0.07491521727959449,0.1748379785379057,0.0335466642942587,-0.21840466099309408,-0.0018622606636118121,1.8868990307573108,0.15627150397788983,-0.9555216806573922,-0.04645866593676111,0.14572692299055465,-0.17857559514191565,-0.511378309357187,0.453125
-0.02602171145917065,-0.429893158303123,-0.07529468218215865,0.19424989107391752,0.04064093326267432,-0.2510523820355943,-0.011219610753167603,2.0256655468421685,0.1927224374456617,-1.1862198474469978,-0.05235435024833707,0.1696066788057123,-0.22689621920380634,-0.3641498006337951,0.4609375
-0.015423322566237569,-0.1797543351485355,-0.04436637340802029,0.08227452230554352,0.012380232865811164,-0.09322157360826706,0.009795334321808687,0.969062868390471,0.052227568558815225,-0.30648621239588836,-0.020993464033161782,0.05933797410920986,-0.05123973893308004,-0.4734461549545452,0.46875
0.018286126122765114,0.16940644977697364,0.05415740754238265,-0.07940753989010355,-0.004835667827996413,0.07758414703583737,-0.022400286635610094,-1.0337410737230035,-0.02174813621317218,0.10985196874481912,0.01889099241142026,-0.04698249138217214,0.00798250497848708,0.7520559411321021,0.4765625
0.03808578127826884,0.2987096844784831,0.11205615908896303,-0.14136066635507963,-0.0026021889964689105,0.1216971061257836,-0.058122254377394406,-1.9795937438084652,-0.0018405797909607615,-0.050425714470783936,0.03215607008656189,-0.06797589391603735,-0.04203149838404976,1.7392413857102196,0.484375
0.00703644108360439,0.03090315212955184,0.021245019965776015,-0.015921754150896764,0.004478566419979924,0.00446289020103963,-0.01653658872887114,-0.2978931548110873,0.021030268775794732,-0.14613460454054703,0.002627309423759982,0.00046521820724802835,-0.036370605491081044,0.4183041789020328,0.4921875
-0.03562192008007218,-0.34840638599050333,-0.1035076705835792,0.16140842157865168,0.016057800140225405,-0.16512706662829135,0.038038595020551874,2.0470725206307105,0.061935572649686896,-0.3369237730975987,-0.03946405122789355,0.10077184389872072,-0.041435223667150085,-1.3565211279004072,0.5
-0.03122970255708539,-0.33576692318927426,-0.09066150647612793,0.15473435889943882,0.01915606430883959,-0.16738889627589446,0.02650388880757012,1.8861565583990452,0.07978125389385675,-0.45672009911322714,-0.038685411493724314,0.10490095215326235,-0.07057008349110327,-1.0803216725895746,0.5078125
0.0037653783305392646,0.11017909811808738,0.011602115881827663,-0.04936039724808811,-0.012315302681152572,0.07157923881531672,0.011599856231271235,-0.44685440271739485,-0.06634194126183726,0.4192184056255231,0.013871341291079392,-0.051171540617604996,0.0844595813498293,-0.09819646242064621,0.515625
0.01659409242194095,0.4482994672182695,0.049026709820255525,-0.20026993313743569,-0.052279271870794,0.28876642308857386,0.044905116672281586,-1.8328727151005848,-0.26572102846736595,1.6705748954210824,0.05653089614061219,-0.2039006971639244,0.33677381682290997,-0.3534135818361745,0.5234375
0.004952395384346481,0.24999873959082855,0.015074610360295974,-0.11062050555256149,-0.03362976364174806,0.1721993212157497,0.038769599471398436,-0.9051467039819859,-0.17516677743562975,1.1122432204393031,0.032366805363341807,-0.12451335606426601,0.22909481658696745,-0.5040390304196511,0.53125
-0.00025646276702927484,-0.22910013017551373,8.390710875893794e-05,0.0995201248613887,0.03829655431726011,-0.1695752881216978,-0.05059030659517529,0.6957592325792366,0.19158070899514654,-1.219066415696055,-0.030712234013503842,0.12464612693868478,-0.25609857908603617,0.8044546835959787,0.5390625
0.007712101743325222,-0.36707174369715034,0.023473916226904236,0.15734811744179414,0.07010276692166262,-0.2928602181319725,-0.10709053859127891,0.8918479766033085,0.35837779699677935,-2.297301769520003,-0.05081269501386579,0.22016365523472992,-0.48871517337515963,1.8729064034584182,0.546875
0.017625350726845495,0.007826330629399414,0.05229453326757639,-0.008735201308553797,0.020671663342111096,-0.04079010485838048,-0.05613156823986583,-0.524225743245752,0.10911596463799006,-0.7243879800760216,-0.002646848381492661,0.03995932026875996,-0.16632101139338007,1.2758027312625941,0.5546875
0.021380575615701742,0.37362577775858263,0.06310553060158047,-0.16910038478305617,-0.034467414071485354,0.22071287511696489,0.012815356907548179,-1.7402267893486294,-0.17234779079124649,1.064697786232985,0.04555982752609825,-0.15074773187553053,0.20624196088273603,0.26053545628792935,0.5625
0.009095702320576878,0.23940929034559952,0.027187458440107923,-0.1072093708243269,-0.027058141242752468,0.1534729110319801,0.02303686903000672,-0.9891734189080965,-0.13979959585778853,0.8762101343748524,0.030107771057642996,-0.10833903140610744,0.17689906229803226,-0.1636731463591109,0.5703125
-0.018548688449800833,-0.16226380631806928,-0.053601947638418204,0.07547448030339929,0.0057798849218111585,-0.07184034246090203,0.02391439217129727,1.0033614991215813,0.016820157525826548,-0.079191608736634,-0.018014197083264044,0.041761796545821954,-0.0005644602349065462,-0.765551434757509,0.578125
-0.03605631738420155,-0.26586227485140007,-0.10484288294370446,0.12556617925038094,0.002023865470493624,-0.10277888990584244,0.057889059006663066,1.8074168244532398,-0.009853445787496343,0.1201074254120104,-0.028318142814669222,0.05445471012700406,0.055793206510644074,-1.6769041878452253,0.5859375
-0.02245190771226806,-0.006058325381299411,-0.06510795793946367,0.008676781226117508,-0.024231751065929598,0.05409299224356714,0.07120659492080744,0.6383581600427983,-0.13860805031126866,0.9221703746857041,0.0036666760202066816,-0.05336456355339928,0.21255030737356376,-1.5983408677669693,0.59375
0.007597498613631204,0.21307289820307382,0.022825690889553482,-0.09524566976520016,-0.024509606634285086,0.1377540902072824,0.022012871348458377,-0.8669975532892377,-0.12703224628577156,0.8013309365897485,0.026869098626709893,-0.09769818777394298,0.1618929102155382,-0.178168971902204,0.6015625
0.021596171393851674,0.1770241146998264,0.06384836536882443,-0.0836300549152624,-0.0021716807684123243,0.07445606980867768,-0.03154105329900588,-1.148730952251908,-0.006471415961702775,0.008695290031947987,0.019203707187831043,-0.042798142849308905,-0.0163148660589428,0.967710008336917,0.609375
0.00669293974753408,0.01179101763338787,0.020249861217566813,-0.007533578344057523,0.007179881309849601,-0.008810448984194854,-0.01972854543247673,-0.22978805259561388,0.034755376689077216,-0.23167865618617395,0.00012644914520805402,0.010206132734351676,-0.054553646832803754,0.4594999913259217,0.6171875
-0.015715721736992688,-0.15032544956640542,-0.04532408378463685,0.0694653708398957,0.00721985836179549,-0.07027425524848366,0.017190850085130997,0.889569771422563,0.024970280458723213,-0.13336799844968703,-0.017020084081768864,0.042564636394663215,-0.015469596543225777,-0.6053118239786935,0.625
-0.011129296061642847,-0.24509031375325582,-0.03180856947660344,0.1095298713623304,0.0280776836505143,-0.1528087599947297,-0.01876491843230753,1.0489878808169846,0.13403837263645724,-0.8361592984241416,-0.030643453426745168,0.10580119176602767,-0.16689748407364147,0.06472567674184328,0.6328125
0.018386934727766487,-0.181537278241746,0.054670385908482715,0.07354485580147946,0.052482537357604934,-0.1833066488817597,-0.10069990816110343,0.030094672950508262,0.2723791585911521,-1.766013510539682,-0.028141016310668454,0.14517788029851317,-0.3865106645030672,1.9967403180781529,0.640625
0.023812934026421675,0.012924001593058546,0.07045581009754753,-0.01268259339344601,0.027176513254321594,-0.05326390284299324,-0.07517571290259568,-0.7126771275631204,0.1451102375241427,-0.9628850385103317,-0.003207902919592804,0.0525087894820133,-0.22201186727471878,1.7087786532134996,0.6484375
-0.014168528705810835,0.13083081500235125,-0.04093433272228588,-0.05333753882538883,-0.036793175037889675,0.1340815467975801,0.07464932159121739,-0.009150121503394807,-0.19956962817484478,1.2968761594104516,0.020323273988984633,-0.10749035588957764,0.284498802690102,-1.4779025069141642,0.65625
-0.03813670883868739,0.08451477084269769,-0.1111519824990444,-0.026439423579190487,-0.057499326395574146,0.1627287117511406,0.14240634172087863,0.8013333437126444,-0.31620889462883434,2.0795123721433377,0.019019669865453316,-0.14249559035982556,0.46890804812645115,-3.0636636145864937,0.6640625
-0.0024587452783604827,0.04927088286623707,-0.006565118490936342,-0.021156206988593964,-0.009726121819752017,0.04279321623489722,0.0184320298360561,-0.08917345692340257,-0.05557888939131528,0.3598184653469018,0.007030883012367442,-0.03343517874122002,0.07784592832221564,-0.3360489370366969,0.671875
0.043782547121586905,0.12220435945831629,0.1289128244342047,-0.06593439636408918,0.03287667096346327,-0.024665956049012054,-0.11592760276229645,-1.6032408034567665,0.18303209759394123,-1.2369185437739316,0.007353502874624239,0.04314336661556319,-0.29617235195678654,2.7808696393127894,0.6796875
0.034448506075837874,0.10056154425946379,0.10157025833632702,-0.05385801336913605,0.02541128462088487,-0.016241698321944557,-0.09033907800455218,-1.2762287107445827,0.14060976679509934,-0.9521325014733009,0.006338140842308167,0.03162381259525527,-0.22845459631666695,2.175906942634168,0.6875
-0.010407736940817392,-0.15034016631338348,-0.02973694345989056,0.06812314454606645,0.013471510496623925,-0.08459128763012352,-1.282124013659545e-05,0.7404688873032881,0.05992671817274511,-0.36500683628920577,-0.018135706787462364,0.05608599842284166,-0.06761100091304621,-0.21193547780599017,0.6953125
-0.03192399709708281,-0.34795040588572146,-0.09267555596551451,0.16037001095963593,0.020370915861378784,-0.17475060511036078,0.026107802860972345,1.9430974192158164,0.08606182903712724,-0.49540068112528896,-0.040237138192817434,0.11006147795534377,-0.07725500013188842,-1.0841003644418254,0.703125
-0.023286301117328986,-0.17123873394900527,-0.06747888509310151,0.08096405504860579,0.0017539634473331203,-0.06627903131070013,0.037175259335604144,1.1650108619654762,-0.0057969365789237925,0.07698023241894701,-0.01832946457529198,0.034971827421171234,0.03542473606482475,-1.0774719754232414,0.7109375
-0.010555165939741127,0.1814084217856477,-0.03039610987756768,-0.07645003814758819,-0.04079290476470537,0.16217649545993992,0.0740780617662614,-0.2633267900964193,-0.21875941252531492,1.4128304263605775,0.026360002346577007,-0.1261936259894373,0.30533932117177665,-1.3947798600153176,0.71875
-0.0008884865058290413,0.26620682100141646,-0.002115096069660175,-0.11633767374741535,-0.04329265505223503,0.19991204399171475,0.06153164975373048,-0.7924069544169288,-0.22746298498967163,1.4513035537914847,0.03580181164239805,-0.14837558936065007,0.3055187648122454,-0.9910381462150037,0.7265625
0.0053293465176148256,0.09699871484751683,0.01623281283977258,-0.04438839822403502,-0.008366755714162025,0.05799828492818238,0.003732687386220167,-0.4519889018201311,-0.04553378165555796,0.281490554938568,0.011863606593355155,-0.040007206317238315,0.0546414209816845,0.05896062334481101,0.734375
0.0035959453177827824,0.0429824938043692,0.011202791078335177,-0.02025184787353516,-0.001539076364892389,0.02234999574511271,-0.0026711288275193573,-0.23853100299220187,-0.011275805170416278,0.06606465993715052,0.004943539769615853,-0.014688083916815137,0.010855916102014628,0.12424657225997268,0.7421875
0.008011282044135785,0.1551777235343314,0.02406629844566323,-0.07029369169273747,-0.014595751944185723,0.09395943237170976,0.00785146193491325,-0.7027211101945813,-0.07638558193836273,0.47345655934676206,0.019061753637000387,-0.065033867694079,0.09305390311671483,0.05271351799076587,0.75
0.03116872045106938,0.17816589770431654,0.09189899084993897,-0.0867565458443019,0.008940425267028165,0.050132775187245064,-0.06242160428793766,-1.420266439352013,0.05450685304072298,-0.3978672237184604,0.01742309702279203,-0.019423005344643862,-0.10905847758944165,1.6633201833959437,0.7578125
0.04245844301764253,0.06092705408026574,0.125049091928414,-0.0387523033771411,0.041359599238389395,-0.06664718150902552,-0.12525171713809644,-1.3793366224059127,0.22584852347303075,-1.5062426870890935,-0.0006011931042337178,0.07317741745881794,-0.35169678243532343,2.9011395696709608,0.765625
0.00855857464075462,-0.0959403645836487,0.02580333622437066,0.039184687286030105,0.026989345618523054,-0.0940838779547767,-0.04979060098043819,0.045501238405591456,0.13739971344316929,-0.8864705090956733,-0.014714800342773808,0.07378307516334887,-0.19386687609807016,0.9797905413161186,0.7734375
-0.039600680878804494,-0.3038525938890915,-0.11519942882039673,0.14330653555906714,0.004116325299927965,-0.12186625415932319,0.06082964243400482,2.0233125094484774,-0.000845683251146424,0.0714548013951144,-0.032729306120470654,0.06645638136634442,0.04752206151801858,-1.8013831787294208,0.78125
-0.048190664741731705,-0.44827590428207154,-0.1402867830591326,0.20862936246383368,0.01751337812006507,-0.206456982496098,0.05678865741925253,2.70176301680534,0.06431958683549296,-0.33114706169765806,-0.05031330633633034,0.12402237254420823,-0.029387874974053218,-1.9180182285145992,0.7890625
-0.02508030205634291,-0.27308973870291936,-0.07267557139383253,0.12572504160014436,0.016164580701347287,-0.1370431228765314,0.020493221510413,1.5233833502030663,0.06756478881810941,-0.38829841097121015,-0.031567521083918415,0.08634323462166646,-0.06056199020121614,-0.8502406519676926,0.796875
-0.012361459601301635,0.0756043320955814,-0.035620412617770235,-0.029930717626780966,-0.025717913405091625,0.08850241410926823,0.05652391696911643,0.10829575713519096,-0.14182040639719415,0.9268406339897145,0.012557724783668112,-0.07270283622488906,0.20479746812882524,-1.1540505331769244,0.8046875
-0.006121706429688413,0.15442906876505996,-0.017372023817988465,-0.06606434894003475,-0.031220330827838927,0.13057281532293052,0.05373004196457425,-0.3061592359887323,-0.1673953518102851,1.0784567563210807,0.021868411637167726,-0.10035566837134259,0.23161746547110681,-0.976065108476526,0.8125
0.017393059628996458,0.006813048557265841,0.051648895549018636,-0.008215741722493904,0.020588144064816193,-0.04102072584774393,-0.055585799113494115,-0.5152755889520585,0.10855790907665216,-0.7211893739432352,-0.0027073568081895883,0.03970049058074069,-0.1653423145993201,1.2636076952734412,0.8203125
0.032984960822475796,0.03416515040730352,0.09732893177005364,-0.024490482393511318,0.03452952495783917,-0.0616990955422088,-0.10027872301197606,-1.0338670694824283,0.18665262359809195,-1.245198152261705,-0.0022431046200547034,0.06416099941270471,-0.28822911077101704,2.3043893087175236,0.828125
0.01144038772699209,0.1796963076051837,0.034088102340957556,-0.08205998186091834,-0.014606511701708331,0.1032854870220678,0.002166658059479686,-0.8734287575533374,-0.07499032401936183,0.45860973541694783,0.02166189093815814,-0.0697430239238276,0.08703168288835005,0.21402180712652338,0.8359375
-0.00796618062523825,0.14144928348608726,-0.022768764791011597,-0.060034109357727614,-0.031257673751672065,0.12605963931049483,0.05684318199003236,-0.21468469794020473,-0.16880832057408285,1.0892849242779152,0.020514643939236223,-0.09776994369813724,0.23522252563933332,-1.069117146548739,0.84375
0.018704675775902985,0.07753940152079135,0.05543557468592947,-0.03941644105383586,0.010649175290324515,0.008186261884563574,-0.04422562686843588,-0.7655892816066112,0.05782172328463047,-0.39826004740123383,0.006469094952916186,0.004396531985574363,-0.09930745236810122,1.1067385940760532,0.8515625
0.04939854580742996,0.20701232484372456,0.145306502028999,-0.10417494064073915,0.025796873453734735,0.023265342124804612,-0.11548104777365756,-2.0160001567662635,0.14868298834556604,-1.0265949915548238,0.017487469286901636,0.010905802600908444,-0.2567320542469453,2.89363689251881,0.859375
0.022818071516065616,0.23708482212819737,0.06738530215443199,-0.10987572043697008,-0.010429989722545668,0.11556533774240992,-0.022293944930590847,-1.3640681574035098,-0.04876203740344679,0.2766599165266872,0.026944934861770613,-0.07248373489988298,0.038849890517036294,0.8464588412403733,0.8671875
-0.033773641350003124,-0.026781016188236712,-0.09829857080838948,0.020754792057100697,-0.034196626615781024,0.0687689528452554,0.1034220218188772,1.0185335239428213,-0.19487177062666525,1.300510773308164,0.003209450704925335,-0.07057443745895396,0.30086300977659136,-2.3554285660403136,0.875
-0.05419375307955717,-0.20858818706527177,-0.15802675509658598,0.10562359485172658,-0.02870497848342429,-0.012448896249474277,0.12961684844615853,2.1404770781381606,-0.17521306995638966,1.2067071063841812,-0.016939019825619638,-0.022449784404217393,0.298504294054971,-3.204517707673151,0.8828125
-0.03637392746855811,-0.10279879747297976,-0.10587633617488491,0.054598653753209436,-0.024956245565139163,0.01907712705603766,0.09510984665413222,1.3207209671813045,-0.14838023822367127,1.004664250672301,-0.0064136006077808215,-0.03550872635215391,0.24157938565621873,-2.2759577851144357,0.890625
-0.016765425544930025,-0.03999113013250278,-0.048452640417813435,0.021807396768129903,-0.012038991795947971,0.014039308402082873,0.04518636443107323,0.5823029963436018,-0.07380744532746694,0.4975158030875748,-0.0020192192916033587,-0.020614256286012378,0.11867848229563434,-1.0653007888849748,0.8984375
-0.0011134673537888601,-0.14054010732927608,-0.0024974758509560394,0.06127934283787422,0.022849743985282066,-0.10178814990037256,-0.028111779721983293,0.45053713615221885,0.11211382020711298,-0.7115930844324656,-0.01868943690842788,0.07381119414042124,-0.14843387111084572,0.4331539403532067,0.90625
0.014614028435537222,-0.14119936831738245,0.04362387452459766,0.057169992720723505,0.041520096911550036,-0.14364573800028446,-0.07945616436539717,0.012830563753603948,0.2148507211412796,-1.3916783342277386,-0.021993326020908734,0.1138699877618298,-0.30426663087266,1.5839725967965503,0.9140625
0.014265313956905177,-0.08311965590268582,0.04256102915666274,0.031890962219677604,0.031629883000701055,-0.0995308349347456,-0.06543418512393373,-0.15371241704404873,0.1637580364097625,-1.066379232231506,-0.01414171604148632,0.08124804524180847,-0.2356228175743689,1.3517534046597721,0.921875
0.000844958876712906,-0.1904036524565187,0.003256374818471735,0.08227461473176492,0.03325047081850486,-0.14368027461305907,-0.04556813730319779,0.5476334936054026,0.16606647364810148,-1.0599700328298869,-0.025755594236047702,0.10607324985581183,-0.22334515403596336,0.7476217778222761,0.9296875
0.006180613473125882,-0.20100552064292537,0.018869018123376987,0.08530754778971367,0.04120998954663047,-0.1654313321137905,-0.06525445875854105,0.43035279731706627,0.20927572382099136,-1.3442199788033997,-0.028241117490127997,0.1251639238690332,-0.2876494250291429,1.1728769390080949,0.9375
0.03156136439900614,0.1723393006612089,0.09303035855865507,-0.08450744890152213,0.01025277457440032,0.04495047521802067,-0.06494643668356215,-1.414046290708038,0.0614595575368855,-0.44336059803278716,0.016592541211714683,-0.015297879592908178,-0.1194384160735399,1.7085200275343562,0.9453125
0.037190384775744184,0.47340937698335045,0.10936470570632247,-0.21723771259711203,-0.03214716851755467,0.2535574148373802,-0.01644978949253762,-2.4858528900318047,-0.15377273805605046,0.9199710020430498,0.05574590610150129,-0.1657528853615466,0.16231879127434293,1.0578300406166679,0.953125
0.006024031484187516,0.21232917263458922,0.018183007889937045,-0.09464304064595856,-0.02627388230160744,0.14168295039420925,0.02697139509451268,-0.8202046729678575,-0.13710775889086702,0.8660965684486712,0.02709331989876701,-0.10112116225281034,0.17678824563160045,-0.295461892721554,0.9609375
-0.029966234875709544,-0.18381747631306827,-0.08706886322707982,0.08820100416054659,-0.00410649217311084,-0.05779469437007968,0.056138361898553056,1.390169598576932,-0.038741673322841876,0.2991974386696555,-0.018651521622508282,0.025127084407478205,0.0875152051246233,-1.5238118368948352,0.96875
-0.03378625657861778,-0.1237491075154225,-0.0982890253163761,0.06319633326648576,-0.018409226342728312,-0.003354296108523054,0.08191992605000263,1.3137343452645958,-0.11371037858842964,0.7831519268350243,-0.00981457471634493,-0.017505035243385345,0.19242491680172516,-2.012679086241963,0.9765625
-0.006332470854212914,0.09202392245457065,-0.017921781785651476,-0.03851539241105878,-0.021220180326841576,0.08439552802405724,0.04047368018223366,-0.11052879528763522,-0.11637785003429517,0.7536770823049874,0.013520797271573416,-0.06656982785223894,0.16360408526609946,-0.7680063716644191,0.984375
0.014514290137331642,-0.049049550659363596,0.0432716767474934,0.017066696069804103,0.026357342166264244,-0.075176570572842,-0.05869382331337772,-0.26498145117010874,0.13666223458050022,-0.8952495763776294,-0.009608796106748764,0.06320982449737088,-0.19990151750557023,1.2521389284812539,0.9921875
-0.0025221401424346582,-0.235447441410751,-0.006574854924316682,0.10301443331487138,0.03666259794606158,-0.16855561872321614,-0.0445841760237134,0.7782230965900113,0.1821427802471459,-1.1582441801240593,-0.031108342182394066,0.12241094416045453,-0.24082048512630108,0.6652569327616368,1.0
-0.03178463265987358,0.03218691292670078,-0.09251299092311806,-0.005468028082734716,-0.04145773145727134,0.10724449555716573,0.11013301050422807,0.7834729677301879,-0.23135733987148008,1.5259490502034307,0.010699406813395674,-0.09782911179575332,0.3474721950234303,-2.416264764781018,1.0078125
-0.01762543068841093,0.4259396908932089,-0.05123066588860025,-0.18107604772224076,-0.08896195534638197,0.3623090563084214,0.15146739565790426,-0.8090584254105331,-0.4688761586544817,3.0181397731149917,0.06055442639387751,-0.2777972890123031,0.649220108425718,-2.7721231352599274,1.015625
0.030860729914631797,0.3637915256750461,0.09091189999956331,-0.1675736593618938,-0.02171091024691189,0.1885953027304087,-0.020194413292412547,-1.9759349042358816,-0.1026488802124616,0.6051625287231819,0.0423345240971158,-0.12166990086054291,0.10193142406113645,0.9864670086832747,1.0234375
0.03960421024440319,0.014176225684718128,0.11670463617834237,-0.017623257009682737,0.04554994055692554,-0.09389176078597954,-0.12630834222555018,-1.1576304331368912,0.2462705145768132,-1.6332377174559731,-0.006293383089682563,0.0917919406130221,-0.3759560660453998,2.8567238474505547,1.03125
-0.007018962850317776,-0.1339944309299224,-0.01987090646702816,0.05996693638152029,0.01475177250617448,-0.08109124850121308,-0.007449475785247568,0.5964977445669297,0.067869562789915,-0.4197377653004461,-0.01662149939270094,0.05547073580792129,-0.08279116769920153,-0.02634142864444048,1.0390625
-0.0343268058998184,-0.15302771631537104,-0.09984841182798684,0.07578347994882868,-0.014288461936881111,-0.023267581348617897,0.07721545863147548,1.4175439678469575,-0.09308811510007436,0.6509815760333187,-0.013562636734351995,-0.003009567979326095,0.16474100945671868,-1.953402566434331,1.046875
-0.006880785894102566,-0.32239961066047085,-0.01925538328590072,0.14187763363660238,0.045700768565187115,-0.2212794679045149,-0.04972887614889624,1.164251307804875,0.2267073279473312,-1.4329507193794404,-0.041826829326952336,0.15872974698976114,-0.2954653428453633,0.6495209047762553,1.0546875
0.018547938254897863,-0.4145860033636271,0.05532301642136237,0.17503195893282775,0.09067118421601109,-0.35680210188442485,-0.15296603709573486,0.7331045509996459,0.46863781706933394,-3.01718286829815,-0.05937634184860496,0.27328142496928426,-0.6492250291288579,2.8327110067446024,1.0625
0.010023806697769705,-0.12255337249699826,0.030128136193656358,0.05016445339851877,0.032963647909666514,-0.11757782079360746,-0.060374320583262815,0.08407389501543086,0.16885492355683762,-1.091573812086255,-0.018527943936468103,0.09204419748810477,-0.23800120592697604,1.178669426008203,1.0703125
0.007998408025004294,0.2369073378069478,0.023950289767909652,-0.10602316908586978,-0.028023902580883095,0.15484075593594707,0.026024451206530817,-0.9511928356237068,-0.14515054844396041,0.9145306523783883,0.03004337435562725,-0.109823139405196,0.18482909706190012,-0.2399851089636993,1.078125
0.020709184589371217,0.18812022464247888,0.06121676657090466,-0.08822873814436571,-0.00501744414482946,0.08521641766694665,-0.02620294700277565,-1.1574635851157875,-0.021832667013766648,0.10747238266921472,0.020887737172407078,-0.05109866876104072,0.005144698550194618,0.8612723366069572,1.0859375
0.004259611486733396,-0.08640130274518215,0.013160008821552773,0.03634660827195835,0.020412563547831355,-0.07568574091700013,-0.0336239490895484,0.1373247726814946,0.1014967162071723,-0.6532296935814473,-0.012592667742243713,0.05785986990973561,-0.14034499580246537,0.6339652316732559,1.09375
-0.030146436174570485,-0.0935464273375067,-0.08766324484617803,0.04923480961965783,-0.019000604617126,0.009209685671824208,0.07681408030608032,1.1204673121266888,-0.11538486639742938,0.7848535357752073,-0.006545141062769428,-0.02481639879274927,0.19049591342633082,-1.849661566505309,1.1015625
-0.024898206033271506,0.09290307240284663,-0.07236480847976937,-0.033735523810993255,-0.04329234527890634,0.13397047061566358,0.10119444597951585,0.40574548795598425,-0.2374483540093677,1.5550206428221918,0.01742028164704014,-0.11376718972459417,0.34780837939510917,-2.1261223899242325,1.109375
0.004183942418487544,0.03483912484395774,0.012929122894711285,-0.016812940788437754,0.00042467756221606243,0.014621818633393424,-0.006327536466197936,-0.23164870183927813,-0.00047782591611692193,-0.002911309813150413,0.003756949690429989,-0.008784509148114272,-0.0034606113253832136,0.19982031163783945,1.1171875
-0.003556585426183347,-0.16519426410620333,-0.009621024111436838,0.07256978772510893,0.02396064597048147,-0.11357101557153106,-0.02558503115662203,0.5931335858749105,0.11672900601764981,-0.738624751427787,-0.021476745367972994,0.08139822157724225,-0.15143243455119046,0.34097127982184267,1.125
-0.024956740702702485,0.02585887678752519,-0.07245110765956918,-0.004648652599833054,-0.032382356023293334,0.08443259708678623,0.08642791472412005,0.6116425064616997,-0.18185516206702484,1.1989427908059769,0.008455762964631193,-0.07697100020484532,0.2728668699154274,-1.8960404603227607,1.1328125
0.0013485969925937445,0.5434893916468121,0.004308643019616896,-0.23770984309493015,-0.08579971888012457,0.39965321525510955,0.11569987635485722,-1.6963908543012962,-0.4445825937463705,2.83231381704693,0.07243043437843372,-0.29425203033189384,0.59330739981824,-1.8052139459955872,1.140625
0.04130844870731159,0.653449951383735,0.12131425221870085,-0.29679951048375836,-0.05663523232713224,0.376301179741336,0.010023233589997845,-3.1472203758869104,-0.27753428681030734,1.7045809737173754,0.07899112082959822,-0.25394653209234147,0.32298244513366364,0.7233460717940133,1.1484375
0.023640406212957057,0.11457265702450092,0.06984774576272884,-0.0567351378784718,0.010459067970659902,0.02252698558123687,-0.05214256321200215,-1.015052384055767,0.05916290585213777,-0.4126525833386048,0.01036345771233628,-0.003295537722196196,-0.10659065383447063,1.3390684900016812,1.15625
-0.02132080901733619,-0.3923142876862423,-0.061585939768734235,0.1768823750370762,0.04014232325349292,-0.23570681255181525,-0.01830691708903442,1.7820593293584324,0.19206093659773157,-1.1885721751992127,-0.048368535063390145,0.161051733135186,-0.2316694589259897,-0.15152511815945202,1.1640625
-0.01777357430861411,-0.32190351260294897,-0.05121329256934778,0.1449181434215953,0.03276825881057272,-0.19252581747854217,-0.014090749518068909,1.4675000955858528,0.1558516925092955,-0.9653593498200966,-0.039589992120810595,0.13115419986940674,-0.1875483145769791,-0.14371409335539767,1.171875
0.019568872456923708,-0.006430768606338279,0.05801851673387898,-0.0033823273354284472,0.025241083262509945,-0.05609726778643399,-0.06548779701661568,-0.5364583725241182,0.13340601530539634,-0.8829841188892988,-0.0048710231118325705,0.05215936438702679,-0.2014085121879721,1.4639267574112318,1.1796875
0.025171802365496543,0.016298393585759265,0.07441308387293066,-0.014889358192009011,0.02812996441872988,-0.05382960225252839,-0.07872617255110152,-0.7622456354257576,0.15041986875215957,-0.9993952579843961,-0.002946342165303419,0.053845489171204755,-0.23085907888518079,1.7904138979870332,1.1875
-0.003025445247735881,-0.24940725066863387,-0.00804277816809176,0.10901348518804463,0.03829238403925178,-0.1771408388526524,-0.046072198605965356,0.834129216179522,0.1900376447863643,-1.205366544891379,-0.032803623697954046,0.12849024127373745,-0.25105757717302274,0.6706888005675795,1.1953125
-0.022921323602187856,-0.497151946540042,-0.0661822036714164,0.22270965361093556,0.05529006802708502,-0.3089277387517639,-0.03637087269598693,2.143658862492015,0.26861008088170685,-1.6735050123653283,-0.06195588215790139,0.21407426182941677,-0.3329562154020152,0.09447367719435504,1.203125
-0.022973248280336867,-0.553505581666547,-0.06630782635136159,0.24731776945252668,0.06442400169857161,-0.3506359419284041,-0.0486916278979755,2.3167744814753126,0.31574102951381483,-1.972723116037775,-0.06952613050921927,0.24483508594442888,-0.3956647599670803,0.29092792423706687,1.2109375
-0.014374616979630104,-0.35329399410151147,-0.041236387748064374,0.1576681529000272,0.04192734744160091,-0.2246126277100063,-0.0322521222617467,1.4686597980537768,0.20425613597607742,-1.274510402096685,-0.04449781350736361,0.15706474422634314,-0.25619315950205834,0.21295388859996248,1.21875
0.0003608879747486327,0.09479571883529034,0.0016827039675008008,-0.04172769987788875,-0.013747629465957385,0.06917917469346004,0.019225153383390113,-0.3046430735747537,-0.07509033888636472,0.48199929510438677,0.012502676699662199,-0.051017755797659964,0.10050661249746459,-0.291790112061725,1.2265625
0.014455322333232046,0.5937658440447783,0.04267211706624395,-0.2631382108235403,-0.07852013641372901,0.4023832667035543,0.08419146793479,-2.215445344884622,-0.40148240702266136,2.5366769921146255,0.07646815587698365,-0.2887796235135508,0.5209153876622176,-1.0223847334570362,1.234375
0.013154297469196816,0.8452018654120691,0.03866887859756688,-0.372323713928628,-0.12110274794715024,0.5923236039721266,0.14437590884712126,-2.9435198071242143,-0.6205444545044744,3.931853361246338,0.11039536026881187,-0.42973893845865385,0.8158541711449195,-2.0029743627512104,1.2421875
-6.801290605800319e-05,0.6771892645555863,7.278622318089419e-06,-0.29530366175314937,-0.10930017910776374,0.5022386357095379,0.15013564467252166,-2.062797442562442,-0.5655620046153084,3.6023513558338807,0.09054053158495468,-0.37083886932007587,0.7578198032209257,-2.3741341617473335,1.25
-0.004764225131838675,0.18511072464603714,-0.013428965268678103,-0.07946783882666031,-0.03457717670408652,0.14923614831471788,0.05609466723514773,-0.43579465286214936,-0.18396577925141017,1.1794863163931182,0.02556860546442867,-0.11309569633035209,0.25236609518775877,-0.9802077390301168,1.2578125
0.004423033343693193,-0.2564765545024897,0.01379209384880102,0.11035887007930602,0.0482430459011754,-0.20262311048194254,-0.07187162382989752,0.6482715380203218,0.24513416094534757,-1.569206818740597,-0.035398387593107226,0.15161733783502088,-0.3328792846987961,1.2483029742227674,1.265625
0.009405600737099316,-0.3079126087071198,0.028432446334468613,0.1312664713203532,0.06247774118103009,-0.25367704116499623,-0.09945739620130106,0.6638542032200634,0.3202679618166415,-2.0559510027586594,-0.043221228262429266,0.19197191424235135,-0.4392205507879797,1.7920871519193726,1.2734375
-0.0013474704406171605,-0.11606823282609563,-0.0031901347712267273,0.050574597008907575,0.018549969025840215,-0.0827640708601245,-0.021866685885622662,0.3814943934607798,0.08991472573171579,-0.56937395703569,-0.015297614366154616,0.059689916549914075,-0.11835130472319735,0.32729292789559644,1.28125
-0.008910736343302526,-0.09891303999139738,-0.025361247357683882,0.04510821913337993,0.006886781171415925,-0.04993443217102395,0.006486729621803053,0.5421045491939958,0.02646318462700785,-0.15164765085480267,-0.011475460858929608,0.03127330722926094,-0.02492706017111879,-0.2889679522441223,1.2890625
0.006341087999033447,-0.2493245406664838,0.01940257248992395,0.10623268590436688,0.049376478776346024,-0.2014688199968182,-0.07657765856555233,0.5736123206321018,0.250882949131526,-1.6077069879508998,-0.03474567749099994,0.1520249211340579,-0.3435789460801867,1.3522426015350069,1.296875
0.01970673579578683,-0.22887581116531464,0.05853215197950538,0.09348925081431968,0.06174607576046616,-0.22133225840032866,-0.11550293512486694,0.1375030105147438,0.32010542508390866,-2.072212943412529,-0.03471813582844724,0.17441694977794067,-0.4519858921435613,2.2549103635599534,1.3046875
-0.004360671948195159,-0.08101977862862245,-0.012067308886300223,0.035899872108558044,0.00927183672157657,-0.04849810561626446,-0.004332603964159008,0.36054665633182265,0.04060514116695885,-0.2509416885832926,-0.009999169070562731,0.03287663466777091,-0.049488678046993355,-0.021771108018518066,1.3125
-0.038490841596877844,-0.10428552085343115,-0.11202902090305585,0.05583144435845206,-0.027114342482670983,0.02357384401075229,0.10155262102131847,1.3854025295056533,-0.16058928885171828,1.0888443224799238,-0.00618144503254023,-0.040190128731100436,0.2600347316848646,-2.427232538581296,1.3203125
-0.02742950002179911,-0.19163957063028944,-0.07956691973464301,0.09096182971243456,0.00018222579663581647,-0.07059665012343644,0.046157649885543675,1.341784071453459,-0.0156335163102229,0.14647320175972375,-0.020173882297254708,0.03562169154341029,0.053205619791293325,-1.3083542366398586,1.328125
0.00937815716648262,-0.05876584481728759,0.02816726101307082,0.0227441294919815,0.02187281876550611,-0.06869252690928533,-0.04409176579561369,-0.09092012993582536,0.11145706025530953,-0.7258706284166984,-0.009899387429024022,0.05561552826695993,-0.1599225031284106,0.9102066407063674,1.3359375
0.01243804506658765,0.1867238207359061,0.036970771219295824,-0.08517137439199043,-0.014562656756315476,0.10560476431847775,0.00046823094618547305,-0.9223117133876557,-0.07420336462523457,0.4521960998505572,0.022356903498229906,-0.07101596999134106,0.08513329954673322,0.26644177660865315,1.34375
0.0006867641562172941,0.33648624325243637,0.0024821335417074615,-0.14717503911653992,-0.052822651682745386,0.24762243869996595,0.0719184849808736,-1.04878989468968,-0.2753248609860271,1.755691893580745,0.04480796810362609,-0.18248760220530405,0.3682550706229626,-1.1196930232621898,1.3515625
0.026795687305479966,0.42213283852700717,0.07896385271830356,-0.19175238836899033,-0.03602019614498297,0.24239248401867042,0.005919041352378959,-2.0392078553945954,-0.17753781906338445,1.0914676813004773,0.05094518407596996,-0.1636132506904743,0.2068867949399718,0.48548366511252383,1.359375
0.050555289187587484,0.3584892985754175,0.14859495533860193,-0.17056443535286392,0.0023328597233975346,0.1325971271526581,-0.08550796422893456,-2.5104539437921716,0.029486005129624175,-0.2682011184221474,0.037574102212646836,-0.06908322248751633,-0.09800979348106437,2.445674471352768,1.3671875
0.005693776063532969,-0.013178779678773806,0.017317955959474343,0.00399774288417655,0.010039642814171005,-0.025260734055854446,-0.021938462115873122,-0.12706474039499535,0.049382767255898415,-0.3245239282272117,-0.0030421199594956793,0.021298264563121307,-0.07212956461241965,0.4818565757857153,1.375
-0.057057110264687495,-0.3789010718861029,-0.16633128999811994,0.1807900100451973,-0.004284784798793781,-0.13153989491314824,0.10114354484280787,2.738554872059989,-0.05143905405224966,0.4190481162050561,-0.03919850807130888,0.063530500646852,0.13612193501891318,-2.8108774709495816,1.3828125
-0.04820601577767568,-0.32363192275440616,-0.1403797699202146,0.1539882334764059,-0.0028449964580619463,-0.11355196484949058,0.08458318541390446,2.323170407684056,-0.04032977050826537,0.3342728856267368,-0.0335711416641969,0.055612586830442075,0.11052835311345292,-2.363101685111626,1.390625
0.003872941324974494,-0.09345220075392016,0.012102198474786757,0.039056052603282716,0.02103635288040455,-0.07950954393517708,-0.033873143468159485,0.16807679323257704,0.10463287569434693,-0.6732267055650504,-0.01336196228100452,0.06067359965352965,-0.144724609556874,0.6249658636639777,1.3984375
0.019501001856954504,-0.08640085756263535,0.05785056987169195,0.0318024713799612,0.03833746914207877,-0.11543220990507043,-0.0832089560095327,-0.289530465747744,0.2000967393038944,-1.3061615332989587,-0.01564076933488202,0.09608332336190652,-0.29068657399454223,1.742351861918499,1.40625
0.006712157221502732,-0.09192131425638718,0.0203481266450205,0.03790245443282948,0.024169101173492812,-0.08601335762017573,-0.04280766863035408,0.08523747044001322,0.1218400730096781,-0.7865640976939696,-0.013803046272305252,0.06693221697440656,-0.1707752380003943,0.8296583834486037,1.4140625
0.009046673768529963,0.10174736431495744,0.027106498651505138,-0.0472814344109706,-0.0046833171600691855,0.05157339535218535,-0.0074071429511804645,-0.5689477303431121,-0.02513930907465104,0.1462925870169331,0.011673741309795376,-0.033143756746829074,0.023149382588863596,0.3159010554618811,1.421875
0.012887197425087028,0.1619268561534929,0.038376407525930155,-0.07468634356429735,-0.009991254316707934,0.0861124294222687,-0.0065807268190956085,-0.8599160851850611,-0.0504824015814745,0.30270264137338654,0.018983091458895988,-0.05642365319590656,0.05246001515948099,0.38344749863151195,1.4296875
9.996727315788699e-05,-0.018101652235704327,0.0010110633798308176,0.00748432608655128,0.004295732429364022,-0.014004479437888729,-0.004963331830023928,0.04450873281292894,0.017578866708477876,-0.10867721887107884,-0.0025196952117903923,0.009880286295029062,-0.02348076222991993,0.08743777144358218,1.4375
-0.008621847198877881,-0.03796132697142396,-0.024580213622278208,0.018720469830576868,-0.002738324096577226,-0.005868151672023093,0.01904681491976703,0.349002259441901,-0.022281496146431157,0.1592614573831704,-0.0034184766411024035,-0.0012459638841242607,0.040342658981612975,-0.4771544902075163,1.4453125
-0.010793690255769378,0.11323402135818197,-0.031053360931131996,-0.04665950832920578,-0.029964414627452453,0.11216908793456636,0.0597668743084852,-0.04985757833829,-0.16317901819892996,1.0586973503416133,0.017283542878939875,-0.08949556990184791,0.23145791551286743,-1.1703092633522476,1.453125
-0.018424613185294893,0.0757267681144818,-0.053366175772700836,-0.028331630824824316,-0.03285801081577825,0.10451007108354925,0.07632804943581886,0.27688739124465783,-0.18140887622831298,1.186259637907191,0.013840886939487474,-0.0881401350790365,0.26470876405430604,-1.5968329109257346,1.4609375
-0.0041902577253611,0.04662363452202688,-0.011614343749653073,-0.019604983942397767,-0.011322490476164572,0.045474818412968805,0.02351176356376538,-0.03266966821694334,-0.06456092971067666,0.4193690863282811,0.007031757850218289,-0.036269174539016284,0.09176002803440583,-0.4546869222333175,1.46875
0.03963222299066649,0.3581308037141726,0.11660657586164405,-0.16752139555671722,-0.010435526095400762,0.16139487922795234,-0.05002243611616456,-2.203651259662682,-0.041046354113975295,0.19891260212559456,0.03977858215095363,-0.09638092791374328,0.009000059040005656,1.6458740551619628,1.4765625
0.0463969139756058,0.4903520212877413,0.13632940886083106,-0.22702866282319273,-0.024020493089733808,0.24169503246654794,-0.04271832608214224,-2.7939173023536465,-0.10814800547750165,0.6144920722610159,0.056090170505941575,-0.1517593532687029,0.09055014768741194,1.6721243696909793,1.484375
-0.012264091034247164,-0.10307070174103791,-0.03523220725972621,0.047978122240506536,0.0035609267584367182,-0.044560312265941086,0.01647808329328452,0.649168944745916,0.007831356849700148,-0.030778780226422973,-0.011412368426489107,0.02531031947169958,0.0036518647854502048,-0.517118675920427,1.4921875
-0.0551301993938867,-0.8105182800710697,-0.16043447545353176,0.3683095425084584,0.06835338576004459,-0.4569306410473989,-0.0010232978107851767,3.996769517779272,0.321994216781114,-1.9638105454121482,-0.0974067670666348,0.30460946190546817,-0.3665931920221316,-1.1491591892949335,1.5
-0.02807480062451491,-0.7808086575245856,-0.08115929819260911,0.34781085591003336,0.09540651178596736,-0.5059624780693917,-0.08245996342029799,3.149737579171446,0.47279543426181736,-2.968550515540911,-0.09894099232558627,0.3564819333525322,-0.5998205821969582,0.7224227026677654,1.5078125
0.010594783266531115,-0.22492887586636537,0.03185960391840049,0.09472550066211605,0.05038204243791802,-0.19507457623513597,-0.0849206060628592,0.37931626181858175,0.2585113578451954,-1.6648798871276917,-0.03237248050885866,0.14960718367347836,-0.3580981170955899,1.584420476498468,1.515625
0.013064055270788154,0.18339846897034567,0.038871382543353934,-0.0838969408102535,-0.013275555523964429,0.10138104544317793,-0.0023351759133879942,-0.9305518934350752,-0.06711402695361773,0.40762017515886967,0.021810434304152835,-0.06761326000123126,0.07494326472940104,0.32415050701528286,1.5234375
0.008727431638839702,0.29058680046890767,0.026078969554547863,-0.12937944139375118,-0.03588149410043623,0.19232996696924085,0.03556446122218171,-1.1347578360862982,-0.18493388735541758,1.1664104637674062,0.03703772332750615,-0.13718651387177158,0.2378390265792798,-0.37059793662267004,1.53125
0.008285721639706214,0.2265894683798462,0.02479999060724988,-0.10140955570252223,-0.025957397433231513,0.14615919748430875,0.022799752660377412,-0.9274365733264005,-0.13419839540963732,0.843984474459814,0.02855112565665175,-0.10337513388073856,0.17054894464193684,-0.17753421344812964,1.5390625
-0.010835444964559827,0.08797212522831427,-0.031136378255979667,-0.03568994667484832,-0.02583859109967908,0.09366463804872223,0.05424586650294639,0.028733485289039556,-0.1420172452080658,0.9252844592460072,0.01389448137123995,-0.07575245999398057,0.20338373565349524,-1.0847916248210328,1.546875
-0.021707840036695132,0.07790438513891618,-0.06297149160306478,-0.028245919184514027,-0.036980421396806316,0.11472724966595879,0.08735966290464633,0.3634908641042262,-0.2040742280861593,1.3390048174887232,0.01476251266964884,-0.09758632666359049,0.2989736622183597,-1.8435970151911039,1.5546875
0.009548879961562343,0.2281879104165286,0.028517830655746163,-0.10249988203936487,-0.024685331651936832,0.14406261216403485,0.018979228129196207,-0.9669548962570551,-0.12752621297339375,0.7997952911125171,0.028502580966050815,-0.10108875464699359,0.15957374828758533,-0.09369727580845132,1.5625
0.037067912448636255,0.23199663728804992,0.10913404544880927,-0.11192536096566247,0.007068981738072866,0.07461589881201897,-0.0696998279578914,-1.748259375966761,0.04737057656394016,-0.36122967328709366,0.023410286200100355,-0.033962510845394325,-0.10696933696859576,1.9005689313476086,1.5703125
0.013971399094390156,0.0771720690518797,0.04155284170710165,-0.03798603590448279,0.005087207546194072,0.02042761032253013,-0.0288427770706894,-0.6328672302530385,0.02725792783436569,-0.19681026434794086,0.007419055431723557,-0.00745924748338548,-0.052884058001148544,0.7620473642201993,1.578125
-0.016643113428678406,0.14412238446270131,-0.048189690895565636,-0.05852150105974254,-0.041887154182330355,0.15051055516704884,0.08568460199326994,0.01923414973423395,-0.2271137589030641,1.473480743924274,0.022641397068675573,-0.12107488431289551,0.3236822850784053,-1.7073208381259586,1.5859375
-0.010278872683375663,0.3365553101644241,-0.02967898361540505,-0.14419134734807545,-0.06578408982015663,0.27664711460282554,0.10768808257892147,-0.7430521348445828,-0.34711209212839905,2.227569233198044,0.04709811731423757,-0.21019164306136293,0.4768275950515133,-1.9230016541597452,1.59375
0.00025413584523803294,0.10903755909062861,0.0013093139753243442,-0.04812216315337536,-0.016327464862894638,0.08025241445115884,0.022887156854207714,-0.34601947493544527,-0.08860762658767865,0.5638179429685435,0.014476561541654175,-0.05916479298056194,0.11828979726382428,-0.3537051983094175,1.6015625
-0.012155244437655493,-0.4789607875662138,-0.034658180004092605,0.21160048842695903,0.06491945968968323,-0.32362064251912936,-0.06728894654059837,1.787106576194474,0.32342921929221846,-2.0396735379824884,-0.061727417569388286,0.2312462257682997,-0.4186565990388163,0.8167958176218273,1.609375
-0.017795077074360167,-0.7867602670650251,-0.05095218188409457,0.3475557509223743,0.10852820134257878,-0.5376401746072738,-0.11731186400956929,2.8799445520214646,0.5450460739514299,-3.4416241570397,-0.1018234392677503,0.38549771177126263,-0.708411972316403,1.4963688183443449,1.6171875
-0.00213481970326052,-0.600156965863518,-0.005194774756765908,0.26207358746647225,0.09661648058637086,-0.44058205282663027,-0.12687932804073945,1.8760209941142456,0.4903948065549808,-3.120182879985481,-0.0800856505379689,0.32297695271692173,-0.6534818328429159,1.983688453527772,1.625
0.011622791012289527,-0.19857089271938738,0.03483230156421281,0.083161531307171,0.04734855842241085,-0.17852848418426567,-0.08248320489692083,0.2718658024554694,0.2430800975247842,-1.5680914683422105,-0.029124561888065156,0.13790423759148374,-0.338707604938029,1.5683916792464383,1.6328125
0.015235739552265279,0.22255129879940314,0.04517843944214837,-0.10161325518303779,-0.01708327486862934,0.1248858014411522,-0.000710478883564608,-1.109342804913587,-0.0859929765358735,0.5236158089965385,0.02659520419737331,-0.08364828528758896,0.09749502258036015,0.34280802640107344,1.640625
0.011809520756200939,0.4718352536490409,0.03502702599180282,-0.20946243246017882,-0.061785514081768377,0.3191203703183847,0.065832339044973,-1.7721062621696502,-0.31655735716771843,1.9994769438191042,0.060738993905140704,-0.22890607020099635,0.4104264784665765,-0.7874759461420385,1.6484375
-0.005627585322060758,0.31123658092286716,-0.015992030636274066,-0.1345906397535431,-0.056175362102108634,0.2457925733665638,0.0869730026431881,-0.7967328962649394,-0.2952143057536528,1.8914143344715486,0.0427815325618014,-0.18489300562124614,0.40257669495800663,-1.4931426991375654,1.65625
-0.020898375694176442,-0.04405561620703594,-0.0605780915574445,0.0246355106640187,-0.016252062443613206,0.022158216461271498,0.05776699806619563,0.7107969162313944,-0.09716654633135965,0.6539267330623859,-0.0017403799563203179,-0.02869317705899409,0.1552089267358324,-1.3547971682228028,1.6640625
-0.007241418319043958,-0.11165738848735138,-0.020525368032686363,0.05041321889193814,0.010910323711415,-0.06407500015165495,-0.0018115153825009704,0.5355622283373213,0.04785443379586667,-0.291342968185185,-0.013623272225583863,0.04282579933872999,-0.05544744349956701,-0.12005455015663626,1.671875
0.010797099467400095,0.05078665807575721,0.03225102965257561,-0.02537848507710891,0.00573073394651009,0.008999024534934915,-0.024543310067128156,-0.4619816798797875,0.02885698767052113,-0.19946294240140153,0.004456686519952494,-0.0007283835416652431,-0.051643348479944486,0.6233430620699584,1.6796875
-0.002396265689284667,0.06260179011968105,-0.0064297970518397635,-0.02695645400210269,-0.011776814097293994,0.052601528529168134,0.021074606899349264,-0.129718828300109,-0.06682940319485084,0.4297582709635956,0.00877716187550642,-0.04057710983270319,0.09169959461088592,-0.38239566979301853,1.6875
-0.01292896002587126,0.03952203957845774,-0.03727571692090036,-0.01412530611939247,-0.02049762173836133,0.06330215534871486,0.05032777948384693,0.23369521561579526,-0.11597551686468185,0.7591135970232554,0.007881350085025706,-0.05453628827708058,0.1699978079667253,-1.070720414918028,1.6953125
0.01863635127050324,0.26750925942236214,0.055147690686802184,-0.12231738539903446,-0.02047623089200865,0.14937259373771916,-0.0017854772518596743,-1.3423938107319364,-0.10167037133643457,0.6189310155621713,0.03198126934276139,-0.09978831541310101,0.1144407921097092,0.43129736829212284,1.703125
0.04335252501533928,0.44173700389679654,0.12751422662913203,-0.20499564951998292,-0.01971021431500595,0.21343169206294613,-0.0435706727232999,-2.562974926065283,-0.08656650954152197,0.4846918679202046,0.050247014165130194,-0.13285206910676467,0.06593327865652339,1.6253494485460158,1.7109375
0.005805218305966143,0.14747441620651122,0.017623261090292386,-0.06614171236572822,-0.01596494735489194,0.09372192928683448,0.013354180829894046,-0.6187044467018598,-0.08367486220005965,0.5257707857637267,0.01847410086873297,-0.06629086398493599,0.10622263044428945,-0.07541265261530573,1.71875
-0.04582434581911272,-0.3237701578210911,-0.13344374841785134,0.15364954959991278,2.180848550771825e-05,-0.12012937878008659,0.07681702234942736,2.257453251360893,-0.024441116738193238,0.22943573938444928,-0.034121650770411856,0.061707894202575414,0.08702474121271689,-2.1838357258489918,1.7265625
-0.03824359507993502,-0.4039710691497866,-0.11117850070661364,0.1864517879383943,0.02204615749449276,-0.1995194014349392,0.034291625247225954,2.2898203204697234,0.09167646446685462,-0.5223199239893578,-0.04642159408892996,0.12469730303552892,-0.0776307100122959,-1.349918693752406,1.734375
0.007852789366240604,-0.10524459716223437,0.02374640930569557,0.043320093273041996,0.02764379007328772,-0.0989851677170692,-0.04946512323839884,0.092963225048146,0.14061513797819364,-0.9064689794367875,-0.01579877326249697,0.07708452221902896,-0.19715739993910233,0.9602278041829007,1.7421875
0.025840847901367342,0.10925432838057293,0.07632821138620664,-0.055385625274106086,0.013792848349308192,0.013078393056420109,-0.06034083052186555,-1.0627477542258759,0.07748029861558198,-0.5337952344602245,0.009311843728846794,0.004781875348837889,-0.13386699088577242,1.5149233242358686,1.75
0.006760264967718042,0.0016781395748952793,0.020476677730148437,-0.0033427517739004586,0.008817116751759635,-0.016469444420862442,-0.022068283354636634,-0.20255234045021347,0.043392863056500815,-0.28924480529001445,-0.0011824486503423735,0.01567215583108731,-0.06629333313748018,0.49948319161779137,1.7578125
-0.010359880659729448,-0.23769304361630558,-0.02954017903179114,0.10591587772571545,0.02775069363823486,-0.14928342542077064,-0.019546233409169993,1.0046353828444954,0.13280085993993562,-0.8325349279377678,-0.02980307184193494,0.10380914676384663,-0.165981830726893,0.09528449626130066,1.765625
-0.004034617159356437,-0.2854343621498035,-0.010987021012690421,0.12532907528884027,0.04308776894113091,-0.20163758611753102,-0.0508465257974152,0.9740405046341739,0.2142932158394337,-1.3585513901137403,-0.0375582108235836,0.14599247589144093,-0.281974683986393,0.7293813612969421,1.7734375
0.012672616094097167,-0.06199215608306347,0.03781936366609481,0.023448056358181372,0.026370631816133527,-0.0797937541488673,-0.05567773248859064,-0.17188857430228105,0.13598016929617043,-0.882445871380158,-0.011052725662484351,0.06573978721663351,-0.1962604443656666,1.1628553236686532,1.78125
0.014321131180327185,0.14566250778382275,0.04253932114059223,-0.06764191436333805,-0.005565469147620638,0.07010664870712921,-0.014927133475313336,-0.8495126630147951,-0.027134344275372577,0.15459015521742317,0.016457100277020558,-0.0437994170863118,0.0201598640261219,0.5497322846542144,1.7890625
-0.005892296085900599,0.04961144246102403,-0.016613544513658884,-0.020243468102044505,-0.013754284493181744,0.05198185715450631,0.029589199742123363,0.006824739251595278,-0.07798714541857427,0.5087404249566992,0.007744153053758782,-0.0421450717510164,0.11170940779224708,-0.5877393589373016,1.796875
-0.020953350411732085,-0.19674152179946472,-0.0606125926472905,0.09133901634637065,0.008611483776287144,-0.09132024082769293,0.02397213100069933,1.1758241160657645,0.03025219874308363,-0.1590066697037004,-0.022163135219465464,0.054715907858858805,-0.015819526537663057,-0.8182318094320327,1.8046875
-0.007059071677116863,-0.2014657420740779,-0.019915002217185434,0.08940572127745389,0.02568725769017095,-0.13125824111089487,-0.022263408673372384,0.8013018875155286,0.12393004704113852,-0.779562332565964,-0.02560776064897204,0.09224461137837314,-0.15792726397718623,0.21057657738358404,1.8125
0.013071925838075872,0.0818562394080862,0.03891821196979437,-0.039936617205668316,0.003180273802197407,0.0263108252840652,-0.024868549032745713,-0.6224174238607607,0.01719804241197714,-0.13202857013412952,0.008250325750248368,-0.012143986412350136,-0.03881019648850242,0.6775362466623079,1.8203125
0.005746430721015773,0.33497616983175765,0.017321002831905213,-0.14825919317534406,-0.046709981590731676,0.2334849462879966,0.05519599015153041,-1.186694761720667,-0.24184612011464982,1.531733003492314,0.04363869677438892,-0.1691559188979184,0.3171072232043083,-0.7497742780961986,1.828125
-0.013300984739538982,0.39828004467011346,-0.03852989756411777,-0.170339901131576,-0.07943726230706542,0.33040661760175577,0.1312829975829511,-0.8467874925161735,-0.41784969418419304,2.6857913555585813,0.05598632590213462,-0.25181256962420345,0.5759044556739064,-2.3596607575166675,1.8359375
-0.007132581866551224,0.4095527496831546,-0.020456642892163153,-0.17688724215786128,-0.07395761362636807,0.3225345277337851,0.11371949672556261,-1.0536453780214636,-0.38702811437959006,2.4800959546911034,0.05624168920421868,-0.24245809498198329,0.5276836805102378,-1.9471114572338837,1.84375
0.014884787932962855,0.41007765447226363,0.0440653282679453,-0.18337864489129949,-0.04806335679272404,0.26521985561388295,0.042141598379856725,-1.670248692499918,-0.2447829579142876,1.5375153648690518,0.05182843126912222,-0.18726041513136982,0.3110160829595273,-0.34367395663732125,1.8515625
0.014896113143447595,0.21238278978831607,0.04418335293114946,-0.09718218557948041,-0.015805543678814444,0.11847459497619368,-0.0018501571148738666,-1.0687097082346477,-0.07949966792423202,0.48364663228009536,0.025315007868342117,-0.07894406638253183,0.08922353613921377,0.3530691650183929,1.859375
-0.007132544045030614,-0.21564777344683095,-0.0201625431881931,0.09585383413097515,0.02804436973650618,-0.14165671304431549,-0.02526890315194608,0.8488899092899308,0.135709222413901,-0.8521212956041351,-0.02758617394528362,0.09996757801826262,-0.17329470444796746,0.2571775582615813,1.8671875
-0.017747684053908763,-0.5336314184383028,-0.051081558084957346,0.23762566878330335,0.0674133204347619,-0.3500779481955132,-0.061392851390905306,2.112344578986716,0.3329733269887423,-2.0915560750026536,-0.06804121986985637,0.24731392321008627,-0.4250388874296537,0.6063094949528892,1.875
-0.005517836435836424,-0.434242934921454,-0.015265268111412966,0.19067039972374955,0.06559308311642002,-0.30830656530260053,-0.0791220242159954,1.467845685985219,0.3290716538642053,-2.0861379700864764,-0.057183130402104106,0.22359249922262442,-0.43423579011543334,1.146498564238005,1.8828125
0.009521117551751633,-0.11921504113060609,0.028635423857204096,0.04880218761459986,0.031847775316005786,-0.11366532968548716,-0.058025624096658054,0.08885630865581334,0.16279970046815315,-1.0516210779787538,-0.017995635547665555,0.08890605702539504,-0.2292782239026326,1.129394432851045,1.890625
0.011764257445290626,-0.060214145229454175,0.03517676807878036,0.022386153757963607,0.02480831207988951,-0.07574323355827244,-0.05213918303977518,-0.1541303856652543,0.12787830334733324,-0.834610245750297,-0.010532849133694127,0.06230914886783325,-0.18508081832151776,1.0849844766988381,1.8984375
0.005108227285678869,-0.3000982440634986,0.015846758035085107,0.12893088686877843,0.0561301380297321,-0.23651022784632753,-0.08373502008203454,0.7607652505371925,0.2856359464166154,-1.8303331074625657,-0.041315783303536885,0.17697276323967356,-0.3883291610833383,1.4480228681168394,1.90625
-0.002721844527133704,-0.3826637224014837,-0.007007064589270604,0.1670973328042988,0.06043088935457236,-0.2771957713226704,-0.07661123786882335,1.2306994068122366,0.3042181416621129,-1.9348188326386881,-0.05076314533537086,0.20241324752954745,-0.4037994668643903,1.1681961640324754,1.9140625
-0.008839269443970912,-0.07983513544157647,-0.025113644378249783,0.036689075186147106,0.0038193149222500123,-0.036116171744598705,0.010545647172938695,0.4811290485608325,0.011212958293927476,-0.05544906196059856,-0.008917561762952733,0.021108235675702084,-0.0041464875863117725,-0.3484394070684115,1.921875
-0.009015111219323607,0.27532961388705046,-0.025877635916270618,-0.11801373029477201,-0.054341437425962466,0.2279891211361276,0.08998998550021749,-0.5936078210263599,-0.28718395287185255,1.847093577684804,0.038692896469459434,-0.1737579847336328,0.3956420651564511,-1.6140854878785122,1.9296875
0.0010689955076991842,0.35528967961645674,0.003588283620677639,-0.15543544322267439,-0.05545072108619613,0.2606232703519814,0.07488548256508475,-1.1178205130175733,-0.2887260001377329,1.839949746068469,0.047295129506060796,-0.19202687379269107,0.38590158441598044,-1.1578799603409125,1.9375
0.01274359831491054,0.21845891586607943,0.03785175241622075,-0.09891161084682565,-0.019315618209096674,0.12828957971449756,0.006449000428236154,-1.0269204373859206,-0.09860355917857183,0.6093859182935589,0.026528838575953288,-0.08768358343601229,0.11763664145536572,0.17724901352657754,1.9453125
0.00644361932376758,-0.02378107291202686,0.01951235926615977,0.008344745659607732,0.012725399292198337,-0.03483788503540075,-0.026841304449602626,-0.11400342580072313,0.06306331928420053,-0.4103144627417709,-0.004644144550946699,0.02903960098924231,-0.09164672776853468,0.5697271227446866,1.953125
-0.01736688240057316,-0.2832817330258632,-0.05010612814201907,0.1279673595783454,0.026890225234263283,-0.16479486358938325,-0.006921553628370699,1.3395334412634587,0.1257251549054597,-0.7717814640553247,-0.03451645721480356,0.11117676324603705,-0.1479968561052083,-0.25398132776662047,1.9609375
-0.025804007568867523,-0.17014726778846803,-0.07487662969806988,0.08096146179409433,-0.0015049202390522976,-0.058639959235666596,0.0456976365756218,1.230875772985699,-0.023595979252588387,0.19208181574680752,-0.017612360544852195,0.028027866918906418,0.06162150066795757,-1.2684624160361608,1.96875
-0.0006329333801256092,0.55556545338319,-0.001533520443917799,-0.24244234972404186,-0.09008936354282027,0.41397885699705744,0.1249159367020157,-1.6778888012986415,-0.46765822591325157,2.9807863581372094,0.07446942486263289,-0.30596231263891327,0.6267882284737869,-1.992036318932324,1.9765625
0.0225117481560245,1.180272272607662,0.0659204541843203,-0.5212961576427906,-0.16462721197063307,0.8169873846232717,0.18828827919613333,-4.222822799818853,-0.8404088820565541,5.319399112802223,0.15342603676380603,-0.5897545022040996,1.0989352917960864,-2.508138110117818,1.984375
0.006936858458175057,0.7545939952375007,0.020538274672466265,-0.33136941416320476,-0.11360991859418951,0.5418524469368269,0.14445303293992123,-2.493960352410232,-0.58508206874251,3.718057720927508,0.0995741052374272,-0.3958346968662655,0.7754174555639882,-2.1421363371611926,1.9921875
-0.015465430595804061,-0.36569259534991644,-0.04443895448117132,0.1634372785101672,0.042616711881005694,-0.23119913289784427,-0.031404880689758094,1.536444454597431,0.20740206179074608,-1.295815299031884,-0.04595085336748624,0.16120578396007532,-0.2592869173708893,0.17937862319407397,2.0
0.005070170278194412,-0.9191271497323961,0.016071285665118475,0.3991643905373842,0.15708164672211125,-0.6963164765891245,-0.22115971263987302,2.6442990727530082,0.8038856864100642,-5.130004956415134,-0.12431163974561585,0.5158480414986587,-1.0817189875431577,3.634847332271349,2.0078125
0.03816488564775038,-0.6412761713211389,0.1129113558775835,0.2688028897276043,0.15082629082686388,-0.5771042336469124,-0.2671933568205888,0.8747505839250581,0.7860704799909003,-5.069406169881782,-0.0938427629438519,0.44688962010631395,-1.096387173784133,5.070988972084007,2.015625
0.018739219903615545,-0.3692138975290235,0.055857429406666784,0.15544044353418976,0.08356503661191457,-0.32384737731448143,-0.14353980655333856,0.5904539076938791,0.43247368568119576,-2.7841740181471253,-0.0533828168898496,0.24895096217290996,-0.6003012856660851,2.690708461945859,2.0234375
-0.028729639955246983,-0.34735247379061823,-0.0832695806109938,0.15896730427475608,0.02398559649669266,-0.18248556339894914,0.01584597364820419,1.8504217587399527,0.10612234430304382,-0.6279983402015087,-0.040712053095811426,0.1174833173459677,-0.10824612665468032,-0.8557660555904029,2.03125
-0.02586783956221392,-0.05632574564351585,-0.07510891726236764,0.031207836329261163,-0.020168118187959307,0.026267489566597278,0.07117635147549939,0.8858591682327055,-0.11939466194790371,0.8037221920990538,-0.002293520075198136,-0.034637265161274536,0.18991294326228164,-1.677756497110194,2.0390625
0.012819813336528017,0.323202676537018,0.03801609722593877,-0.14503110752708961,-0.036466250602887204,0.20629693950957426,0.02954248289390116,-1.348962144396065,-0.1863878294889646,1.1678023713129642,0.040639483515456584,-0.14501131693630692,0.2343845846306808,-0.1937310834449375,2.046875
0.0031591291842538354,0.04592564672220703,0.009908376928737996,-0.021399782229727795,-0.002585654919107287,0.0257189741547073,-0.0005778975743878066,-0.23606665439753122,-0.016697058112502144,0.10222742810818776,0.005451909829584395,-0.017467658242894278,0.018868177249917392,0.08162125796118422,2.0546875
-0.044081352250915626,-0.5559880375511259,-0.12814232527879033,0.2542107861752011,0.039944470625470706,-0.2969585318879785,0.019519665690689643,2.9143563800963186,0.18097948552000964,-1.0816116854742226,-0.06555153969853594,0.19320530531221772,-0.19040923076384994,-1.241348968133633,2.0625
-0.0342505784464725,-0.35096677045967334,-0.09948278053545746,0.16206683598799976,0.018124568145013686,-0.1705113487127999,0.03302892398813451,2.017160488823552,0.07301478790845471,-0.41046921172005735,-0.04010679345130333,0.10573864333788859,-0.05756231804726588,-1.247918517727304,2.0703125
0.031181480065178,0.5698378010237873,0.09168428074468693,-0.2575856911446607,-0.0549047081609004,0.3410325303619143,0.024505570427298697,-2.610391725300089,-0.27344442365404475,1.691787989888659,0.06988316090945754,-0.23364980705150007,0.32973973273541324,0.27910984305884157,2.078125
0.048553954198789516,0.9235826009128755,0.1423893320920376,-0.41652113567894083,-0.09212323662150654,0.5577490862878253,0.04650583637631252,-4.171736620626514,-0.45666453990247396,2.8324903225216267,0.11372627157912577,-0.38360082275277096,0.5549476224531718,0.30137691084537804,2.0859375
5.17945963801826e-05,0.4174378453232895,0.0005606654665670823,-0.18223462942634902,-0.06678490607898736,0.30929286930259114,0.09199065962764359,-1.2777894987074716,-0.3474423308603976,2.215071996122938,0.05581243185323106,-0.22864376440424392,0.465420271112754,-1.450906037067542,2.09375
-0.01847438846936089,0.09590245420927479,-0.0535687815208013,-0.036908133613623516,-0.036217429003949,0.11928651616894667,0.08089487774865473,0.21804907287921702,-0.19858768550529662,1.2956184755766267,0.016490369325559133,-0.09924610648999843,0.2875222049292715,-1.6688969142737182,2.1015625
0.019468120101977265,0.3191017608957699,0.05746518343605395,-0.14479833023418956,-0.02787270792924497,0.18531710948248378,0.006940586130910272,-1.5202143048780603,-0.13931843030119404,0.8568614618310779,0.038615358097625625,-0.12584942595003148,0.16385270134262367,0.3126617811014749,2.109375
0.02860383081966785,0.24712107434992983,0.08430592422297976,-0.11583746979587084,-0.005306348236433815,0.10782279440358454,-0.03880733656895873,-1.5568888536443328,-0.019488332596323318,0.08010363402876276,0.02709922052459178,-0.06337962676702727,-0.0068064913370570745,1.235000620962963,2.1171875
-0.017004112439359894,-0.3387404271110901,-0.04895373349997096,0.15238430148816692,0.03649849301571451,-0.2073038394932154,-0.020468045725041812,1.4981015814870928,0.17531948596941044,-1.0865731869802397,-0.04206127302983217,0.1425668094422526,-0.2140464754055663,-0.025588485578469836,2.125
-0.03676759199480212,-0.5503285423407576,-0.10672609488393636,0.249975889897267,0.04765956219067192,-0.3123357088697616,-0.0031145229544172425,2.6931872822559417,0.2240469171971955,-1.365585844527186,-0.06634132072817206,0.20864785392377605,-0.25645007964141586,-0.7235039163684364,2.1328125
-0.003026350591817818,-0.16026373466437852,-0.00808397131645905,0.07020705744829435,0.02375469709616414,-0.11118437118653401,-0.026284399452489768,0.5639160056319236,0.11600444735527456,-0.7327141313939008,-0.020926797892903935,0.07994904897342077,-0.15165770939584872,0.359374228957461,2.140625
0.011337097456872792,-0.058484759564518075,0.03394905258580266,0.021689298982991337,0.024066049562189513,-0.07319737327037709,-0.050382807429244704,-0.14768294824909986,0.12376461365035354,-0.8063949612944189,-0.010178877383824149,0.06018437427575503,-0.17895983422761372,1.0471040906134785,2.1484375
-0.017623005161814097,-0.4923894701265336,-0.05064936748049509,0.21901791864015674,0.060708476152587405,-0.31923986992179093,-0.052445411941180624,1.9802635543672582,0.2991545141459911,-1.8777392466829548,-0.0623848253852206,0.2247139739956004,-0.3797897795250065,0.46538099231612795,2.15625
-0.020642089802486132,-0.6016553194402803,-0.05942787601729812,0.2675780445834602,0.07499091050168398,-0.39253295906287683,-0.0669048686738606,2.397156119753689,0.37107553578401775,-2.3311946283567737,-0.0764297252389404,0.27705243751843134,-0.47249332403840166,0.6313587753513029,2.1640625
0.020672766739175837,-0.09931099518822782,0.0613350582928853,0.03700548897869249,0.04178370952220207,-0.12818419632487646,-0.08986288882364825,-0.28385409969678665,0.21845295882216925,-1.425884495770286,-0.01758699303599607,0.10618803622056808,-0.3166133088683279,1.8733732287616296,2.171875
0.032699394257813555,0.2750975727169612,0.09633686309169293,-0.12960547197335984,-0.005086194628222899,0.1182451758836939,-0.04585534366174559,-1.7576683489779072,-0.01700517466324429,0.054408229073887315,0.03011271144798872,-0.06856022105365074,-0.015505739475461832,1.429119166102807,2.1796875
-0.007470278055587589,0.24304320356959244,-0.021374581965685036,-0.10432199395689438,-0.04720555378304406,0.2000207841484004,0.0778068848038029,-0.5373418809493579,-0.25043326991764936,1.6080254527794522,0.03401071646619673,-0.15222192980571256,0.3443161235015124,-1.3886751154516555,2.1875
-0.026292813718698373,0.3002938578216368,-0.07657066435086049,-0.12391634231551375,-0.07873892537885084,0.2918723353406767,0.1517701598416382,-0.18512829377964465,-0.42002774781333196,2.7219687593139956,0.04550321723640711,-0.23086549368311923,0.5937955757793075,-2.9625407663531855,2.1953125
0.008993645928680398,0.4653619519701828,0.02673040491439595,-0.20571497947390271,-0.06407647925013106,0.3215487653603241,0.07351184334979644,-1.6730209714454634,-0.32942096502012735,2.0879586031134627,0.06040032915209343,-0.23228598891258587,0.43103691671389843,-0.9687951478400176,2.203125
0.03381644571349663,0.2611186458483818,0.0995706682491509,-0.12359015054850048,-0.001513554574764226,0.10459652882046803,-0.05267623707148938,-1.7459447384174438,0.0019514448986410503,-0.0668722513918948,0.02796548476361148,-0.05801699525266391,-0.04233160370526239,1.563128865637164,2.2109375
0.007589998783713928,-0.15510052728716633,0.022942375603669,0.06527944489835077,0.03545099377242408,-0.13552722629268663,-0.059728851421750696,0.2523447564302415,0.17996988589061974,-1.1608932418696842,-0.022452274773199877,0.10375199773027179,-0.2502643538791964,1.1175468816685536,2.21875
-0.022179113214491925,-0.20934098361705636,-0.06424669156922362,0.09728349597924608,0.009220696822501609,-0.0975373169410595,0.02514086278019958,1.249415207568298,0.03273458472311002,-0.17270378042904197,-0.023650983125090404,0.05856534175353958,-0.017820581116330787,-0.8629452756094408,2.2265625
-0.015259561258346039,0.032523303822000575,-0.04406642166484537,-0.010190289633576512,-0.022033554542133363,0.0639377251859713,0.056325092963034146,0.3208481326538492,-0.1242706020099295,0.8191116434465573,0.007349503823617038,-0.05630906573784801,0.1848245298677055,-1.2107437318713588,2.234375
-0.00027991988564249603,0.12847509779395264,-0.00018921385727944652,-0.05630568457408418,-0.01999780087840367,0.0958619484977926,0.028864622401764236,-0.38972458291069206,-0.10733264763525496,0.6871485816349262,0.017166830492420158,-0.07108032820042923,0.14457949099973796,-0.45641329865936,2.2421875
-0.0076610513798503555,0.07067922501477704,-0.02178336742406106,-0.029010641483957867,-0.019288057013540683,0.07228766273214599,0.04006779395900668,-0.008154037740367293,-0.10702455761876054,0.6963286013517974,0.010938630380249096,-0.0580345690107627,0.152544723781938,-0.7918196199594572,2.25
-0.017593398756247023,0.009188064776074641,-0.05087717180485162,0.0006466655666891881,-0.02101131804632929,0.05267860682164142,0.05878860007945645,0.45597250870840883,-0.1200913380771312,0.7952719389943328,0.004725017441932339,-0.0494449167895371,0.18174185822374872,-1.2994429459785448,2.2578125
-0.0031413067090018806,-0.13931208941606213,-0.008459532327528134,0.06130721220438808,0.020220528236140855,-0.09547103023665059,-0.02117901047211544,0.5032460869397991,0.097865282512372,-0.6179633503574167,-0.018116733742044745,0.06809225413377706,-0.12674017780517585,0.2802066340576033,2.265625
0.025247832534769022,-0.2867919235957661,0.07482319349462462,0.11753260680273835,0.0777458229258682,-0.27942333780978,-0.14633382520478402,0.15811322749416135,0.4052369799020702,-2.623986759976437,-0.043656571661724174,0.2201973359605312,-0.5716138067614706,2.871925896707951,2.2734375
0.035558438466309156,-0.17901885366292167,0.10499252980473421,0.0675500781042411,0.07232411729964437,-0.22642228827779026,-0.15601214149702686,-0.4574891934354674,0.3816687212018715,-2.4905212254566638,-0.031309878539574024,0.18721152802443958,-0.5525869032494906,3.241217962328492,2.28125
0.010736551225527979,0.009076755423322841,0.03214268763283398,-0.007542673141314429,0.012367076701188187,-0.021514841897507384,-0.03348067120142852,-0.33524771555944005,0.06318677773638129,-0.4194896996799229,-0.001040945191290952,0.021845006164204716,-0.09734635587386586,0.7634646501195033,2.2890625
-0.029271333919403106,-0.05521880910914034,-0.08509024588889655,0.03175124321928352,-0.024316344367259615,0.03589132444006058,0.08249349762384045,0.9786242676206174,-0.14229226940181317,0.9557246652101323,-0.0014978843546614834,-0.04373829764129587,0.22490142748096817,-1.9284970729817463,2.296875
-0.04062113977071975,-0.12645272510578248,-0.11833292673726863,0.06614614142713782,-0.02604523653288421,0.012736731629627473,0.10364084928712056,1.5125773214444174,-0.1559841095913139,1.0619127370863757,-0.00874352389185772,-0.03344569560212422,0.25692009019503576,-2.502256929070407,2.3046875
-0.008624595839455008,0.15686458496914396,-0.024720739342933912,-0.06615877432885132,-0.03447582225855969,0.13879729181932704,0.06234587889344715,-0.24262379769475856,-0.18539580408524592,1.1985761040149026,0.022660437719725077,-0.10795691321946568,0.2588198491228769,-1.1652283730478505,2.3125
0.02626954534975317,0.41088754729546245,0.07741940776729729,-0.1866461686552252,-0.03473967962008388,0.2355691302842583,0.005088511081368547,-1.9898617470173414,-0.17176000007854333,1.055607976216337,0.04956369811071155,-0.15900852333660057,0.19934358968735266,0.48416105442178287,2.3203125
0.023024324743612476,0.09671253326667326,0.06810758842001245,-0.0489519869393857,0.01262291991509519,0.010945549866312125,-0.05407915682171786,-0.9448639869102882,0.06979301545160137,-0.4808586785944222,0.008169323186405262,0.004827620883604822,-0.12055615329250131,1.3546864067747528,2.328125
-0.0038946753594653284,-0.41341821667724843,-0.010486107295447055,0.18071376222128382,0.06396777153540195,-0.2968223310858102,-0.07957199505284122,1.3564329024078423,0.321754908459112,-2.0470266931151193,-0.054614550612920525,0.21614850318083167,-0.4264096289789345,1.189510403364023,2.3359375
-0.015629570118471985,-0.3374265505015778,-0.04493135135448194,0.15076987178349166,0.03766962715626198,-0.20944518770814644,-0.024394637815336732,1.4524814877935606,0.18196833248346148,-1.1384925744997765,-0.04201025156981365,0.14494420647216305,-0.2253667779175248,0.06430162285441302,2.34375
-0.005492094194597474,0.24624948205289476,-0.015584721517066441,-0.10633062136205915,-0.04549314355324751,0.19716530568229346,0.07212047198941698,-0.6034731022347135,-0.24042627366146507,1.5402259848615545,0.03405483235986109,-0.14882922698557297,0.3284882627609745,-1.255533138572846,2.3515625
0.007919506666225809,0.5180192944670604,0.023535190784662003,-0.22826207788623196,-0.07384539160117069,0.36351241728827716,0.08862711030690186,-1.8016138966368778,-0.38047751836605964,2.4149197486939524,0.0676252507676239,-0.26355378167119126,0.5004367089604612,-1.2343082992343835,2.359375
0.01287382120764756,0.17699072543778413,0.03825847600227549,-0.08086194222736127,-0.01230732428825924,0.09720076864735623,-0.003295244593184079,-0.902479772793064,-0.06277443508063113,0.38267990503949106,0.02088779673278526,-0.06435234661246307,0.06936613658222893,0.3327127935732349,2.3671875
0.007292837394939648,-0.19546978374564097,0.022163160643176662,0.08298087219116008,0.04180966392210265,-0.16465957379516563,-0.06776640587798057,0.3842687910369655,0.21279550182841966,-1.3657038778305057,-0.027828825272477993,0.12530481170477278,-0.29289758039066677,1.2407036759895984,2.375
-0.0035644209280322214,-0.130045631023113,-0.009664829127700935,0.05741762426804726,0.01825500737973317,-0.08756261420128296,-0.017826236933899307,0.4873089614101499,0.08769304160776126,-0.5506723979041438,-0.016799136205061065,0.06197871160678824,-0.1125522084686948,0.21720419198038332,2.3828125
-0.00677687137162586,0.036342551783826546,-0.019196780377265462,-0.01420244880941105,-0.01272348867208006,0.04433181089744391,0.029602301571471926,0.07092281293672845,-0.07257989429892457,0.4758390765622814,0.006155686713339586,-0.03724480040824969,0.10565354826992061,-0.6047671994834014,2.390625
-0.0008947279266016451,-0.14504693413675862,-0.0018805271090833499,0.06319554758687777,0.0237606065599718,-0.10582898666437679,-0.02977951852669192,0.45774731091433996,0.116876651915815,-0.7440609166107712,-0.019346038217796107,0.07686634160899353,-0.15522739146632472,0.4642950720451496,2.3984375
-0.0007926379379793447,-0.35432430319797015,-0.0014523819866599278,0.15424408212228086,0.05800248376136893,-0.2612971828874832,-0.07652211958261934,1.090697884449411,0.29238917284665233,-1.8655469572098022,-0.04738083628360179,0.19166265325348775,-0.39045131824509927,1.2088436833445453,2.40625
-0.005832001202639375,-0.03256130086497179,-0.016395077404910013,0.015258088886830092,-0.00037556212717430984,-0.008877512932541284,0.01131272258020807,0.2538040062793244,-0.009370786493343561,0.06745369231944365,-0.003222092764577452,0.0027863004168403238,0.019592814729414865,-0.296846294374386,2.4140625
0.00019782966270981032,0.49384139009910083,0.0009568869801761957,-0.21584395369636886,-0.07904660207741614,0.3661825722832095,0.10846042437084155,-1.5137503877396392,-0.4104646388391372,2.6180945810225564,0.06606043026519676,-0.2702048241334859,0.549544695674841,-1.7153626088600629,2.421875
0.004018559565029264,0.37636377454699027,0.012214168698214237,-0.16550926169077496,-0.055334715778313184,0.26873832340702536,0.06983631964178642,-1.2627165827571245,-0.28715652616786114,1.8282895958298027,0.0495073044896276,-0.19619980025116976,0.3799022055054921,-1.0200009021624472,2.4296875
-0.021937954480011672,-0.31653240837488955,-0.0634313132256294,0.14390484104513332,0.02706255599504468,-0.17758094823095594,0.00046903667264509185,1.5688567341654536,0.12461796299200092,-0.7534636071543341,-0.03804778813674053,0.11786985677337349,-0.14081254868594723,-0.4672498117958254,2.4375
-0.04882524035048258,-0.5978597533761433,-0.14205382934122113,0.2739566208309113,0.04119615424647026,-0.31560791012468936,0.025591772771547613,3.1751109909059796,0.18582070143049723,-1.0996241246394187,-0.0702426480960651,0.20423547894717003,-0.19103729194678137,-1.4379446755184593,2.4453125
-0.017251409906770484,-0.12832545241065413,-0.04981908256861169,0.060256999727350366,0.0017765944478757788,-0.049873509946667324,0.02714682016144619,0.8647678999872337,-0.002773005792408967,0.048911548327865616,-0.013751954999829645,0.026650171564337577,0.024167311857191388,-0.792590513984985,2.453125
0.05240290152510142,0.32030575114048165,0.154032152844121,-0.15487549599760497,0.010668218773404833,0.09989418122304956,-0.09990940570125419,-2.4468905703893786,0.07265058033269127,-0.5508400698776084,0.032165676733606596,-0.0436875337316351,-0.1590788461572216,2.7085628976972314,2.4609375
0.07056107050469607,0.20590732945096119,0.20732173020720357,-0.11005386060920175,0.05070187358638582,-0.033051332464332256,-0.18436241189448624,-2.6075615559113703,0.2856212142144054,-1.942529041671257,0.01314567433393718,0.06451589730075956,-0.46575993729570636,4.439264135836169,2.46875
0.01814340391081588,-0.07394862725906176,0.05387217435512857,0.026646616108276636,0.034558861881439425,-0.10297301493836945,-0.07585262045809292,-0.29143376580758024,0.18009092739181604,-1.183748040079747,-0.013657585243611561,0.08567588172193821,-0.26270497139569116,1.6004938711027104,2.4765625
-0.025893232666240603,-0.0855737117329026,-0.07518140306994664,0.04408198065069353,-0.015403085603648423,0.004389130542916679,0.06486570705895506,0.9758751088851789,-0.09514531918758594,0.6466005902741762,-0.006250098210378079,-0.018709971571136807,0.1579647835310702,-1.5735167689448848,2.484375
-0.016079989994301148,0.05432666822991687,-0.0464829488726264,-0.019533370265958326,-0.02656015283075946,0.08244815532475792,0.06387838841771169,0.2771053286319861,-0.14793319007543534,0.9706838031369648,0.010461393766966401,-0.0703174735143848,0.21761996751383442,-1.3487539973132976,2.4921875
0.004703164304758129,0.20311652049897863,0.014374738846070148,-0.09004671267846891,-0.026229863127502216,0.1380670755726075,0.029139924539675968,-0.7554315343662098,-0.1371483144153832,0.8707479021225998,0.026120903550720873,-0.09926471268982041,0.17911640574598814,-0.3537902427556316,2.5
0.0009120486270098414,0.3631269767454446,0.0031644122419338338,-0.15859148129888131,-0.05673463435382911,0.2667058140713991,0.07692037613181808,-1.1346852078095324,-0.2954577464857316,1.88859210915366,0.048294406983906774,-0.1964565855854281,0.3954933251781377,-1.195072062999841,2.5078125
-0.006042544274707818,0.29377764652653254,-0.017228152672942695,-0.12633272598295697,-0.053641640384904085,0.2334894146465544,0.08415399525914567,-0.7288201557685704,-0.28283233977796896,1.8198100774713324,0.04039893211677551,-0.17613176441054598,0.3864415585446752,-1.4594306487894602,2.515625
-0.004483477553687963,-0.15363312709156018,-0.012426760364423242,0.06819318337879152,0.021061025688240066,-0.10275264899447262,-0.020173263085560705,0.5864997526808939,0.10117066262953284,-0.6336388322587196,-0.019839664907733378,0.07269051361990785,-0.1298230816415295,0.23289846043472062,2.5234375
-0.016503216971941122,-0.502424033677294,-0.04742449916941296,0.22332962827133482,0.0636619541093715,-0.32993721916530966,-0.0583680622726643,1.9808403481652808,0.31481927954798294,-1.9794918518089648,-0.06405193013463023,0.23336691626916053,-0.40198293981650013,0.5853762976320551,2.53125
-0.03637950326176388,-0.33018958952681704,-0.10574126206742714,0.15350875847276987,0.01209978694210959,-0.1495151740215815,0.0446494861871344,2.0120897466148473,0.04175370917570805,-0.2075131116500363,-0.03685890797699705,0.08891922882065455,-0.013290028267409906,-1.4765681492449552,2.5390625
-0.02593872027510788,-0.055493275852361044,-0.07529436745117495,0.03073455255441629,-0.020384758858670658,0.027113757012374902,0.07168328720386676,0.88510208678619,-0.12051762330069403,0.8098259363919722,-0.0021574498750608507,-0.035368258109179616,0.19156389228411325,-1.685969105882382,2.546875
0.014302035814769229,-0.15539654565168898,0.04269270392431701,0.06309961528431814,0.04332649654649243,-0.15300667717881292,-0.0814575017743922,0.06314798209415541,0.22383985277684534,-1.4519750225580514,-0.023745821587884876,0.12052662258488538,-0.31661366927591644,1.6058271196037366,2.5546875
0.03624376656700066,-0.24899408097529466,0.10704892586531917,0.09785145441574705,0.08443520854277552,-0.28037939151612057,-0.17365121354875437,-0.2661870595620405,0.4444635391435049,-2.8947732715822996,-0.04077277059864381,0.22707567880298926,-0.6375393874082406,3.540595231099815,2.5625
0.017806870055940845,0.08834815081799273,0.052808150863684004,-0.04397974931720599,0.007742662324478806,0.01853260574340946,-0.03880264701831891,-0.7748819809676696,0.04289626393729438,-0.3033059926693469,0.008145941912656222,-0.003827253145416992,-0.07821159449540428,1.0042983322050063,2.5703125
-0.006684072634140392,0.3912342787637958,-0.019162907649110175,-0.16907642270649645,-0.07041969356554005,0.30787913485250357,0.10806584958571944,-1.008937832360836,-0.3691869039692697,2.365303080234075,0.053676780459682084,-0.23114483380103093,0.5021480814929931,-1.853868593543829,2.578125
-0.002998327572144511,0.17752378816948294,-0.008243864166383608,-0.07687220575819168,-0.0311820324769921,0.13951209033593992,0.048584113954315854,-0.46199262324003476,-0.16658248330034867,1.067125179707932,0.024280340787801617,-0.10485739251474853,0.22655260173558525,-0.8304122439968366,2.5859375
0.014919916133604223,-0.07625954410210128,0.044422342309754684,0.02877652292993805,0.031294173845916165,-0.09615611013389942,-0.06605334428865639,-0.19229073037880076,0.1618318820353511,-1.0570474192160855,-0.013370054003333657,0.07913695096435641,-0.23395440982445034,1.3751943602213352,2.59375
0.014640902617735568,0.202372018936842,0.04343795973724855,-0.09257359906110452,-0.014495235348478547,0.11133767151626145,-0.003268718038582194,-1.0313037076361764,-0.07290780867155597,0.4414180934612278,0.023996557391960285,-0.07409392877280965,0.08103094841628518,0.3726838964245409,2.6015625
-0.00037319008560275657,0.6061290868228628,-0.0008150747327823854,-0.2643529889025292,-0.09802002324199235,0.4506856691511809,0.13520588876708697,-1.8377846784652778,-0.5076915277551876,3.2420010317782166,0.0811218064478527,-0.3329242241297723,0.6810464820018302,-2.149445280879997,2.609375
-0.001213937183138545,0.41105558818737026,-0.0031625583076692783,-0.17912865985574988,-0.06718925328575154,0.3083096846883025,0.09459047171785749,-1.2211499862950648,-0.34976382147283286,2.2392637218090505,0.05516930191631645,-0.22833175352387028,0.470511632321366,-1.5246607291706358,2.6171875
0.007406934398733032,-0.26807964937943024,0.022534792048498037,0.11443273559260941,0.053703080869225296,-0.2185211073892985,-0.08424834018027194,0.6009446756937629,0.2741846525914727,-1.7545769394232844,-0.03752891110473599,0.16512292281179922,-0.3753861277935579,1.501011930023554,2.625
-0.007813789037441635,-0.692548063913575,-0.02178793344390008,0.3037317477115577,0.10494618707026668,-0.4939046230216927,-0.1288897771067646,2.3152601552497,0.5304105936611813,-3.3679319322201953,-0.09126049191876458,0.3592940525552435,-0.7009002471305753,1.8903351291579424,2.6328125
-0.03554796899423789,-0.5116927541445069,-0.10317225557536272,0.23269401381472749,0.0427257239382518,-0.28696640258861444,0.0016166188881421917,2.540149833154686,0.19910462819036243,-1.21390704193083,-0.0613669542485782,0.19054375823825484,-0.22481706772571497,-0.7701985170245886,2.640625
-0.025080518508297473,-0.08060530273383028,-0.07276450314682947,0.041790892979637485,-0.015247350960930814,0.00560644893066764,0.06329411888797634,0.9371192762135859,-0.09393394564499748,0.6364442719855956,-0.005737262562370301,-0.019225164888973,0.15522233003024924,-1.5282800424248442,2.6484375
0.01620373005258349,0.09616215942944212,0.04812705235789747,-0.046926183065561254,0.004617315158645265,0.028484358008871263,-0.031874089650543634,-0.7540012778754613,0.025673873525300123,-0.19280676699429955,0.009536438064408355,-0.012179562933385695,-0.05352338241710534,0.8590792747235377,2.65625
0.022440555013878486,-0.027001247105214187,0.06649208848861277,0.005015667418160776,0.03208868993199317,-0.07928745196502913,-0.07957286047876104,-0.5534144521422139,0.16936181271662842,-1.117585045359344,-0.008250357263929135,0.0710454425179185,-0.2532121673280151,1.7483700586295974,2.6640625
-0.010279245940874959,-0.085052249119694,-0.029386741018853198,0.039589574186712134,0.0029934520545733066,-0.036374700562733016,0.014028538664374753,0.5385330705446656,0.006201961027424505,-0.021655938653157975,-0.009393155384801892,0.020562294601186464,0.003948425387552155,-0.4341118360489031,2.671875
-0.014553815500105965,0.09875665288928352,-0.042078499609177006,-0.03927009011285709,-0.03202413036304471,0.11139147216121179,0.06874766032685119,0.10022355840954177,-0.17523883883105887,1.1441343679266323,0.016072186531647794,-0.0909352708007529,0.25207574763638935,-1.3948619748741928,2.6796875
0.015245997553114482,0.2534366380464392,0.04513255515410856,-0.11508688478860829,-0.02211653747947077,0.14798742685928568,0.006060157068095088,-1.202517582164852,-0.11175508251422907,0.691060866181481,0.030713842679228304,-0.10073650948276017,0.13194124065927945,0.2330422128437392,2.6875
0.011931326863440419,0.14205962190034643,0.03550405267779836,-0.06568752277220385,-0.007871147881510956,0.07404910648528516,-0.00787852413052821,-0.7717663885805077,-0.04015322678755142,0.23884691471529065,0.016487159501384786,-0.048043130873531084,0.03989208905500399,0.38372469212341587,2.6953125
-0.024944322939777767,-0.04177997864872625,-0.0724271256998772,0.024757627349788834,-0.0213907614047657,0.03448713706522411,0.07141377423534688,0.8169027393800211,-0.12515147189335432,0.839830982418411,-0.000601525640928838,-0.04011156440528654,0.19727736025714993,-1.6578613222491625,2.703125
-0.022217643692207464,-0.017133948176814545,-0.0644412601593007,0.01328089199238366,-0.022202201757360162,0.04557165389209768,0.06808529099848519,0.6652527955636728,-0.12796053658335668,0.8527301128872811,0.0021504304696771865,-0.046774459067864926,0.19810841997623393,-1.5446268481843166,2.7109375
0.02284856644234871,0.14154527295323385,0.06754940654012129,-0.06849840869941329,0.005075393488660531,0.0448121323690599,-0.043398971869821674,-1.0767376927726362,0.031262617184217786,-0.2361998848935382,0.014215891497768026,-0.02026185358336219,-0.06810700761753086,1.1848170513114318,2.71875
0.037380819972547545,0.1766958370140914,0.11014456022695931,-0.08789713486879101,0.016492443469650522,0.03257929303240392,-0.08298111826116433,-1.589749143211821,0.09592577979820534,-0.6720786805805431,0.015964254011467564,-0.0028633353520668686,-0.17204573096498973,2.1212191896765704,2.7265625
0.012598519808570624,0.06794341370754857,0.03758645857697573,-0.03350541537164492,0.005000828852462825,0.016910424062654677,-0.026498917111091907,-0.5665849150540582,0.026297630808642995,-0.1874609559841876,0.006450926771001423,-0.005655223114068989,-0.04983799355972342,0.6965086968095859,2.734375
0.005117147662184216,0.027211203818022684,0.01564436003630829,-0.013566225140386742,0.0028171342937644912,0.006377036378368911,-0.011164531467443804,-0.23342656050193145,0.011863266371292829,-0.08325209903784873,0.002506609167324386,-0.0022579407052687986,-0.021665211675865565,0.294471266429657,2.7421875
0.011691262341819848,0.10178667002900386,0.03482599566978182,-0.047902275644248746,-0.001582110841832312,0.044597034293384706,-0.015985770705812523,-0.6431894098441922,-0.007984619839267243,0.032721969914113115,0.011139867942171294,-0.026578568242432717,-0.0028085139495721847,0.5102026583839874,2.75
-0.017064674721382976,0.01936928271404991,-0.049379253596665014,-0.004030824011148388,-0.022040275895814195,0.059114000384543064,0.05928449773263806,0.41143098835372643,-0.12535245260810354,0.8287692732110966,0.005971365557246606,-0.05374466598282031,0.1879029729191531,-1.2994925636478256,2.7578125
-0.05820111216000617,-0.361218665065102,-0.16965264327881754,0.1732929046039409,-0.008489905587522417,-0.11533517130831493,0.1086444455105384,2.7174598554161693,-0.07345973369184375,0.5652913505846603,-0.03659399085214556,0.051126242784935126,0.16646839563011168,-2.9593506218843477,2.765625
-0.04242413946872845,-0.6353368019594705,-0.12323265136297974,0.2883965965929309,0.054800458558399816,-0.3604562768126688,-0.003549439662212963,3.108685788550987,0.25807353021739626,-1.5757082372721192,-0.07651571148183749,0.24079444659637944,-0.2959181671583052,-0.8387874042132965,2.7734375
0.01878501743831682,-0.3500719773391695,0.055950268734128936,0.1469933434351311,0.08045369926500248,-0.30964639244347014,-0.13938499972146776,0.5305080653805104,0.4160300548037222,-2.684247593009083,-0.050798046143689046,0.23859087852612398,-0.5788742235389467,2.6240470779886507,2.78125
0.04505203435136282,0.18756014732803233,0.13258598276092273,-0.09470585889963809,0.02376733883612632,0.020507430091962323,-0.10549701494290718,-1.8371059705726744,0.13657575491705923,-0.9447290490947806,0.01584027830815186,0.01047334168505433,-0.23523849775786398,2.64396939065575,2.7890625
0.01506545809259693,0.2654964124548062,0.0446630719297154,-0.12031096246410437,-0.02428302607802299,0.15726778895587457,0.00936585497530027,-1.2349926475160167,-0.1228124500216029,0.7599070929751297,0.032378884820667905,-0.1075218755597893,0.14711005312747213,0.17883218865736003,2.796875
-0.011410120769981037,-0.08322990174921163,-0.03273066847279477,0.03915268672220445,0.0013693094791141821,-0.03203963144741327,0.018082486463551158,0.5652881589058714,-0.0026963535504669935,0.03792562904937394,-0.008946597383330611,0.016724096457092216,0.017102854891889237,-0.5234963105340367,2.8046875
0.0018085093110627353,-0.0998218143693873,0.005983795074712682,0.04275934489001588,0.019646281540010704,-0.07914496019111424,-0.028601541528536903,0.24612976869161624,0.09669138662554516,-0.6179333402701334,-0.013870009192344115,0.05894437857873032,-0.13134604099074887,0.5007063353840404,2.8125
0.01674425421552194,0.4234095861743208,0.049438936115212335,-0.18954039135996387,-0.048088724434477294,0.27006885129790964,0.039003324760545875,-1.7620258394606902,-0.24427862302504635,1.5313174653403263,0.05319242123682995,-0.18995332889508193,0.30800564914367273,-0.2552235131958924,2.8203125
-0.006208063266431956,0.7417696019053762,-0.017971291245482246,-0.32206736072701414,-0.1270815668324866,0.5668798447682918,0.18443014108674127,-2.088711652429771,-0.6592832399882284,4.214690950187563,0.10056525767780107,-0.42198076312444166,0.8906632959720576,-3.05509701531607,2.828125
-0.038350018593528205,0.3245168362861684,-0.11188244662833809,-0.13132992412221334,-0.09693735175988163,0.34174955970998055,0.1964243993068141,0.0773745771446977,-0.5184872389061995,3.368893274208793,0.05126150110303399,-0.2744590425164332,0.7396483391201416,-3.929949030521708,2.8359375
-0.02531762507761724,-0.30026592372809485,-0.07332575615296723,0.13740626583532106,0.020325231468358934,-0.15633885409686485,0.015269304854813922,1.6120975575214127,0.08864711051254115,-0.5237361207518006,-0.035104168734733265,0.10038313692968005,-0.08871695553104893,-0.7736914327281286,2.84375
0.026041428724910227,-0.34246120451947587,0.07719320951410011,0.14157617659257496,0.08777210073238821,-0.3228701605537348,-0.16132395972763042,0.3052503430815542,0.4568429544345104,-2.954400024799478,-0.05127593959076559,0.2528221592094379,-0.641997726872728,3.125368836270223,2.8515625
0.05251922705621872,0.06588890949555197,0.15454390064942672,-0.04371759787231743,0.05240130140073615,-0.08955343568173844,-0.15689495613361973,-1.6755684967412594,0.2868919136793467,-1.9129110814774297,-0.0020055082699913652,0.0959632064894271,-0.44553106398656106,3.6181405194948812,2.859375
0.023839897402086155,0.10689093944766002,0.0704672427025812,-0.05350057438303169,0.011903503688524912,0.016198965504829233,-0.05446008189922354,-0.9982848637560726,0.06670185583220645,-0.4619237907976474,0.009327755451644677,0.0012829152690184578,-0.11714182383458661,1.380192290567473,2.8671875
-0.019950968960041487,-0.4057916603136341,-0.05757870763404591,0.18227767490091693,0.0438881842893377,-0.24922369118104984,-0.02574525738679483,1.784143967098111,0.21166329554704832,-1.3156064238153324,-0.050418270178804105,0.17166661922433607,-0.2600218594073569,-0.00767216540293535,2.875
-0.03262288910438264,-0.6947122773120474,-0.09454657733950142,0.311731978353335,0.07606539556860924,-0.43029856756705015,-0.04862148686904207,3.0162289782910285,0.37108040029883593,-2.312755351362449,-0.08651821240124043,0.2979345694639472,-0.45877079629125783,0.08601811857995821,2.8828125
-0.020361132555772377,-0.28982243559841,-0.05882925052402507,0.13166664766681796,0.02448177434882565,-0.16185219598080558,0.0013931580008127132,1.4422705809029137,0.11176987526549689,-0.6800120448272468,-0.03474147343753312,0.10715463753285767,-0.12591883670761084,-0.4485219493487437,2.890625
-0.01371309618138342,0.20712957408111934,-0.03961699767824872,-0.08693465949484139,-0.04872720573208636,0.1896581854999257,0.09008266425020124,-0.25416896202891814,-0.26076030913181447,1.6854211042521408,0.030493363595658518,-0.14814549781446312,0.36534062523418975,-1.7170372375261955,2.8984375
-0.01321416046615227,0.22825086176859677,-0.038168398063905686,-0.09625587904645042,-0.05157451851408482,0.2039927880034303,0.0931121656578065,-0.33186040336989714,-0.27502428830487535,1.7769979493148222,0.033196665635988255,-0.15840636164010302,0.3840914591134435,-1.754440315062841,2.90625
0.00425754647220826,0.16295842323503898,0.013045839983120075,-0.072608605787909,-0.02032820507316414,0.10954198123563591,0.02176787976277914,-0.6214685757586248,-0.10719986309868326,0.6780647837972934,0.020856923647457705,-0.07868535302569149,0.13893726137121112,-0.24815645160344985,2.9140625
0.03365253195537879,0.36557416464677883,0.09903959500133137,-0.16917430001854203,-0.018730890786375548,0.18276535505281896,-0.028837939575920596,-2.0591489613727263,-0.08643034306913044,0.4957829904868068,0.04200765609375797,-0.11570843137979173,0.07657539509041608,1.1817477683533475,2.921875
0.03510404477606593,0.34341442400144867,0.10330408129787894,-0.15999289329133431,-0.013412332436820279,0.16263208519649192,-0.03844838211248116,-2.0325722096396084,-0.05856258133848326,0.3151559950184213,0.038761846069532035,-0.09998701756223304,0.03747583579479493,1.3647582590380838,2.9296875
-0.0022767373221769735,-0.1057664054795929,-0.00593964210710587,0.04627231745361781,0.0157832934365513,-0.07260781126674415,-0.01656723590572931,0.37749648461144175,0.07526067588843402,-0.4754379354527556,-0.013781844610068145,0.05189391672543581,-0.09781035402085181,0.2221476011312136,2.9375
-0.02893817461725039,-0.22559650837321907,-0.08395974115982512,0.10606263968238432,0.003910391862460672,-0.09171390591264848,0.043560351748721284,1.4867378380929133,0.0031261130765512925,0.029490852541901383,-0.02440346746889635,0.05051310865597925,0.030339477595859497,-1.2981141696635583,2.9453125
-0.007981241763771334,0.2260188303936328,-0.022811163234549434,-0.0965592565734703,-0.04501439253759122,0.18829509173889003,0.07563036131284386,-0.47171443842236493,-0.2387878444247477,1.5373848040508302,0.03180593199319958,-0.1438855823700276,0.32992719344731436,-1.3601767107306535,2.953125
0.020787855435460408,0.3176606783825097,0.0614074088321843,-0.1445009441291185,-0.02601914962680357,0.1807543229624092,0.002319841558480719,-1.5536373753597346,-0.12922462784496774,0.7912566204616438,0.03818799293639263,-0.12161090873006784,0.14927497264374778,0.4150245503906626,2.9609375
0.009165754000070582,-0.2788349352561212,0.027672757143986353,0.11875186497529373,0.05756161789097106,-0.23136201528154218,-0.0923548220719735,0.5850165651488507,0.2942727544181897,-1.8892844898941012,-0.03936130940437415,0.17561801793543905,-0.4046433129263936,1.6690120337202594,2.96875
-0.015734431859822894,-0.5401770266047006,-0.04514658937608837,0.23955082525966098,0.07078095512344905,-0.3598338814285384,-0.06933286917137153,2.0748643209152076,0.35138814338280405,-2.2122186298607627,-0.06925959168060376,0.2558243618056087,-0.4521488026166552,0.7725298805824715,2.9765625
-0.010686122628990664,-0.01748641883807033,-0.03065741537874693,0.010185187731295743,-0.008582148538434997,0.01492685052841786,0.030379516265076463,0.3437322394830858,-0.05338871206995441,0.3592861212742696,-0.00021789897080596985,-0.017773841828761277,0.08398145133832652,-0.7035826734523645,2.984375
0.001002256678453862,0.3147000128700817,0.0034080733457451835,-0.13793591209225517,-0.04900384367171034,0.23079200779468456,0.0661474943491841,-0.9931373547146336,-0.25562145750251025,1.6283018656718502,0.04191031809667683,-0.17016423346039838,0.3410731430634066,-1.0228772347187796,2.9921875
-0.010985072865258055,-0.05150276206929732,-0.0314771027479514,0.02507586983036986,-0.003362152619341521,-0.009573587205835997,0.02381298715073104,0.4556671964056931,-0.026654554443699734,0.18823783520773416,-0.00473113544309134,0.0002970859058150866,0.04856832020563339,-0.6051630050275533,3.0
-0.014518176545199843,-0.288817146368386,-0.04166979289479302,0.12955546342919322,0.031242183451013573,-0.1764957508018995,-0.01743135289735937,1.2763980110040554,0.14923939111397588,-0.9270880348213133,-0.03582662392891375,0.12137606724287793,-0.18262798718990425,-0.02442541587899139,3.0078125
0.010316409404989653,0.03664686123030111,0.03088257764159384,-0.019259090097254794,0.0074365998548369585,-0.00014478989471414374,-0.025985800963646,-0.40688485438408284,0.03757948438732623,-0.2570630275607789,0.002705008309774413,0.0056623809975717585,-0.06222320261145044,0.6393940083227327,3.015625
0.014822718653140677,0.1844331761445526,0.04393708272057597,-0.08495999278697372,-0.011415460905603528,0.09783693814896396,-0.007806149420286242,-0.9819446095480521,-0.05737071871463705,0.3397527823036868,0.02158529381487279,-0.06390411836750265,0.05935003693002899,0.44454727760515383,3.0234375
-0.017159040228381457,-0.19662842353138898,-0.04956679532537838,0.09010192136707693,0.013003740533565055,-0.10091970806279611,0.01167307396873367,1.0702530545462365,0.054308029110906646,-0.3185567388263242,-0.022939340578889477,0.0642540450456129,-0.05271805502664103,-0.5454502476103928,3.03125
-0.017408271636209727,-0.3657848689765973,-0.050130304565387536,0.16394806316438276,0.04034209111894418,-0.2259916041501771,-0.02508829483311872,1.5908119482591134,0.19489019720356357,-1.2121687730114115,-0.045543741931502575,0.15621273816799489,-0.2402235912487705,0.036613291041318954,3.0390625
0.036334115814152045,0.10095879694884048,0.10713260192008711,-0.054510339805263514,0.027622717685033563,-0.02098305813654585,-0.09634971814357222,-1.330660602541414,0.1529925480190199,-1.0330178923423297,0.006022957547335937,0.035887281409628935,-0.24678974621786745,2.3153086950396893,3.046875
0.05752663838418064,0.552401533360067,0.16894481039534676,-0.2571943698836168,-0.021005280771105576,0.2584286281377214,-0.06506779707376355,-3.2948127158604184,-0.0875569934953231,0.46482604094885005,0.06216420198604995,-0.15791694978380796,0.05046193715303659,2.2688526027658487,3.0546875
-0.00018717694665830353,0.38011032624738955,-0.00011301626385794299,-0.16586161295393415,-0.0609184827383322,0.28234976769508835,0.08446912126683784,-1.1568499130511898,-0.3174274822924224,2.0260441676898386,0.05083601537095136,-0.2087282291762041,0.42599585028842724,-1.3368911160524197,3.0625
-0.053190898547614995,-0.1062718832928225,-0.15513346290184235,0.06106965165833438,-0.044054048585198916,0.06060923919508122,0.1488889698879378,1.8035452686267734,-0.2537292878133591,1.7091919426694646,-0.0035187581225069485,-0.07570958302889295,0.40292134175499694,-3.489458675225094,3.0703125
-0.02932714823462664,-0.28321778618162996,-0.08508172167351316,0.1314400619902475,0.012888315664428525,-0.13349239840247812,0.03190730820171587,1.6738003111686317,0.048772479686325095,-0.2587512977398439,-0.03207506404452293,0.08121209115578769,-0.030544416005986175,-1.1247151618730302,3.078125
0.017859079380366356,-0.04332327385246877,0.05302918101031855,0.013383439072492578,0.029292565773715248,-0.07923292069339942,-0.06830066410079282,-0.3752546738706914,0.15320445209975342,-1.0050590454574369,-0.009516982509201227,0.06842045467663123,-0.22633271437985852,1.4695058214081258,3.0859375
0.015929069924706152,0.23357407301543842,0.047201069312370655,-0.10701058734901525,-0.018175123063349462,0.13165378251654525,-0.00041417500435978215,-1.1637494437131948,-0.09124793444143596,0.5540858198230453,0.02802445665247275,-0.08823171689514583,0.10322667357833284,0.3501828852085556,3.09375
-0.01329262319676399,0.2034479634750198,-0.038379533075016126,-0.08566022956972863,-0.0476668288060002,0.18604130363380145,0.08801362847648886,-0.2556702206188468,-0.2551185304468878,1.6467345709841057,0.02996066939116685,-0.14522345010690013,0.35726429524636855,-1.674353957033753,3.1015625
-0.020261195860471953,-0.0907695359700786,-0.05861640991692464,0.04475480623681985,-0.007878169591879858,-0.014342681297966453,0.04528294079309059,0.8338789505694694,-0.053927075584034714,0.3765434981720061,-0.008076381018632457,-0.0014800582021848455,0.09598823129766516,-1.1430606554353018,3.109375
-0.012250185102347651,-0.3052626821576991,-0.03505524361001836,0.13615261687660463,0.03652649600533288,-0.1947573804207913,-0.028462872251148442,1.262691245589706,0.17731669988345652,-1.110346000140892,-0.03849039375449687,0.13613225210127844,-0.22326418462463787,0.19842345965233174,3.1171875
-0.0076819494494798695,-0.22944807859263913,-0.021737297404167445,0.10186351211959459,0.02957172067293457,-0.1504428291749437,-0.02646959892143848,0.9048554022634553,0.14353481069832116,-0.9026291317857719,-0.029275447786177078,0.10597065496047738,-0.18310044096308367,0.26537242754862733,3.125
0.00921063409330621,-0.07019066664875734,0.027689970730222117,0.02779610080503604,0.02358389230833248,-0.07670677904227122,-0.04608072328721109,-0.05127863497195291,0.12007045822631424,-0.7808640198916363,-0.011401559939927123,0.061315292081736875,-0.17105419110745199,0.9390953318780648,3.1328125
0.03557921968217967,-0.12260075452999379,0.10498819649398364,0.04341351437890298,0.06323466154961378,-0.18512444041195142,-0.1436058821662183,-0.6282970699132022,0.3349208680728224,-2.1928036438135625,-0.023856584148410447,0.1566075059244081,-0.4897484416771681,3.0494814112265285,3.140625
0.033178715764958684,-0.23777873104196112,0.09797850719547421,0.09435267063744254,0.07913594231313076,-0.26431118449872965,-0.1614255400549598,-0.2103201363066997,0.41560390447130396,-2.700818780691075,-0.038832782255345887,0.21369147869914037,-0.5951595015789563,3.2786597744638204,3.1484375
0.0016573997752159157,-0.014032621815257874,0.005466993395303223,0.005480494168736684,0.005449474680328275,-0.015054967198386027,-0.009111033203343484,-0.00976480909022881,0.024085636726450203,-0.1515658441365227,-0.0023772576411145723,0.011609990396364853,-0.03363287102282631,0.18629687274327825,3.15625
-0.01267913613874722,0.4402670245040487,-0.0367619703026039,-0.18884900357509102,-0.08553639890730881,0.36020680557553203,0.13853143924290887,-0.9913353723603424,-0.4489321644090175,2.8857571114404967,0.06150502510941853,-0.2734204453019948,0.616823513847562,-2.4643586711659085,3.1640625
-0.0010847822992740821,0.5145082570508462,-0.0027850827465883813,-0.22467510450179165,-0.08398949923406113,0.3849175227879497,0.11734879377545883,-1.542054833352508,-0.4361104135078166,2.7815491872169904,0.06913120010416315,-0.28482083270523,0.5856137901284522,-1.881151357393169,3.171875
