AF3,AF4,F3,F4,F7,F8,FC5,FC6,O1,O2,P7,P8,T7,T8,time
0.006396153428695301,0.05063124498591617,0.019400424221521113,-0.024210524368764256,0.0005498627210048226,0.020484787046154702,-0.010144226058697433,-0.33958416377441836,0.0009714545610170816,-0.01414116853953391,0.005358395456026955,-0.011809437934981406,-0.008168560854956996,0.3058082316615586,0.0
-0.008359085528740158,0.02788077282823139,-0.02380303409749304,-0.01019012589720229,-0.013138682556711053,0.0424232552141681,0.032872823155842355,0.14111160962126612,-0.0754611188209451,0.4974553349592701,0.005354867844337387,-0.03655052029246345,0.11169371180678575,-0.6901200330770653,0.0078125
-0.02090318798746464,-0.17570363671499742,-0.060469269777937776,0.0820253513331132,0.005227256808405839,-0.07563010543166022,0.02849759735254181,1.110275044107043,0.013200607623128803,-0.0482073225894558,-0.01933402902506131,0.04331007432425778,0.007136495778744446,-0.8896775716944713,0.015625
-0.026248529617491953,-0.39277893855941454,-0.07602741261535435,0.1781894083505039,0.034310543842232255,-0.22276983205535622,-0.002351165484588168,1.9199412060182868,0.1599369158767681,-0.9749118854027617,-0.047334807179631615,0.14873588974394197,-0.1835989383981421,-0.5152688523298276,0.0234375
-0.008499988470771642,-0.16329076922425945,-0.02415052624782118,0.07323692219362407,0.017834454418664412,-0.09915868940057546,-0.009168595936931385,0.7267519617269547,0.0830402583805293,-0.5132637394865733,-0.020237750777924522,0.06778018346611639,-0.10130959543171872,-0.028832014783461125,0.03125
0.02089924710894125,0.27660886240640364,0.06173232772888303,-0.1267893775287696,-0.019236761513098492,0.15017376152719342,-0.00711518694350534,-1.4320712668018143,-0.09451061494042738,0.5694581511015412,0.03268905336334374,-0.09917125231638657,0.1023325946016681,0.5653175524099225,0.0390625
0.026490420094296058,0.2885056633224616,0.07808932413632609,-0.1336059553623875,-0.014614197015570478,0.1443787928063831,-0.022607502063595845,-1.6248281586702966,-0.06848367488593833,0.39208837439417066,0.03315196030782516,-0.09172699102413216,0.060995158372872754,0.93130471758794,0.046875
0.008887556838788441,-0.08250665507477743,0.026728858867645994,0.03306721343651003,0.02510867633117926,-0.08488571177838593,-0.04769252213295657,-0.005374744447014736,0.12775283091335693,-0.8311904167485228,-0.012962764925751874,0.0671884933797835,-0.1812434000169504,0.956169012410504,0.0546875
0.0034566967344836475,-0.2724863003560609,0.010947237467988804,0.1174772244304917,0.049684836963072264,-0.21179791112030205,-0.0722388804214914,0.723940626041905,0.25168935067101833,-1.6111820950769051,-0.0373271604299953,0.15776426477225597,-0.34086070344414043,1.230746559465472,0.0625
0.011973191963136086,-0.16278144620794807,0.035845369966860344,0.067313047420812,0.0418570783230877,-0.15270108120365233,-0.07563699653672945,0.1527171615946117,0.21530750979327823,-1.391143975053232,-0.024375754201279062,0.11919874154012707,-0.3021218314848538,1.4647204330442651,0.0703125
0.0015830896273581428,-0.07491742046019385,0.005355120980896692,0.03190520615906744,0.015329471399556765,-0.060004907680882284,-0.022353473529930477,0.17623718995432994,0.07462247564698875,-0.47590306827759143,-0.010461029434877513,0.04479771217351256,-0.10157868768270913,0.395634369802795,0.078125
-0.02647099662717354,-0.09368204504981807,-0.07680659843388045,0.047908011772103756,-0.014621720471195074,-0.00014368859827998504,0.06472506205815377,1.0175053184983138,-0.09127634720149366,0.6284020105519043,-0.007224396804551397,-0.015593363185360773,0.1534536399491012,-1.5855230615762725,0.0859375
-0.03251786814966352,-0.01494128077067988,-0.09454724459959855,0.015246024416467985,-0.0345767271599561,0.0741788406540065,0.10185551383627163,0.9472235355068438,-0.19625479415948413,1.3079097931352828,0.004562330409836118,-0.0738065264671807,0.3010995069258995,-2.3047166811140802,0.09375
-0.003399700101415257,0.2284706333367075,-0.009392461257831825,-0.09906251573694833,-0.04000734731056856,0.17839362375663814,0.06118851483437797,-0.6068461477162497,-0.21146963710275513,1.356528382390302,0.031231569127110743,-0.13377998552787426,0.28731234045842263,-1.0394171776476866,0.1015625
0.029052288517473095,0.42948554689114044,0.08553777293592488,-0.19580348438582237,-0.034599751391479944,0.2423698747089141,0.0002945535186288279,-2.1254170248134168,-0.16971596035932723,1.0355493084441854,0.05154610262606384,-0.16234035311752215,0.19346823123130658,0.6195811928735631,0.109375
0.02921809857979242,0.31546276737676615,0.08607902801051374,-0.14607172576180794,-0.015799717465346003,0.15716452582554824,-0.025547521235867385,-1.7833073131253283,-0.07327989907200311,0.4193130689566014,0.0362164808547471,-0.09954630771274856,0.06436988618385012,1.0358330357212258,0.1171875
-0.007938487697194395,-0.10711097615416271,-0.022541142380370048,0.04865890778433352,0.009360019092583265,-0.05905402381387884,0.0015132516281100438,0.5404420068099128,0.03970011040649732,-0.24037259127610686,-0.012855867672545337,0.03850021836145987,-0.04329510083703351,-0.18317790791418603,0.125
-0.04575888923898547,-0.40441599165436815,-0.1331893910441489,0.1888170183222705,0.0132489674480191,-0.1803288261256999,0.05862040029998735,2.501231552863698,0.04338582515288437,-0.20261428016778135,-0.0449691381118763,0.10621362371320177,-0.004113107009726103,-1.8949787122557382,0.1328125
-0.032996531602291664,-0.20874466537477548,-0.09590952204539488,0.09976522875645408,-0.0036765026697035638,-0.06843652104020236,0.06061609813114228,1.5488461898833112,-0.03781954563939882,0.29313979041814536,-0.021312754846660054,0.031065461050205072,0.08941644748104946,-1.6556746576456374,0.140625
0.025008907922434084,0.17607447832339568,0.07383635714579971,-0.08427854649971442,0.001933909857461567,0.06483667578769259,-0.04274152541538649,-1.2423540317272737,0.01603162375559004,-0.14428133228943718,0.0184197694597865,-0.0337660266565565,-0.05074267329669549,1.2193558810835616,0.1484375
0.054224513384871054,0.19601484220640517,0.15942411893648378,-0.10099012447662084,0.03317089448051505,0.002793434325313551,-0.13352464389574695,-2.1186622441663405,0.18879051163343366,-1.290376364378232,0.015094414630628434,0.028897305438842294,-0.31624443624560356,3.281261205662801,0.15625
0.018238699292154534,-0.039123788785231144,0.05410639050600804,0.011672465391366675,0.02912482599811407,-0.07713807731162715,-0.06866557140541313,-0.3977255868561129,0.15236675484659257,-0.9973607876847709,-0.00906900362843724,0.06708278407880476,-0.22523606015228728,1.4836060605362738,0.1640625
-0.02147616828730114,-0.01452370903037554,-0.062265016646701296,0.011941306206965346,-0.0217250531127921,0.04558817627754452,0.06613312682251896,0.6368473889005726,-0.12567013432418628,0.8385742978987839,0.002371182347343022,-0.04646095658958724,0.19358123458745435,-1.5025659357816488,0.171875
-0.011854294097815611,0.18169061901160571,-0.034165360102024485,-0.0763558788835913,-0.04240635346585663,0.1658329872262043,0.07844669140741024,-0.22882248325232799,-0.22746565324820744,1.4694221209107023,0.026693700056572487,-0.12969134903135604,0.3185447317826858,-1.491384238857667,0.1796875
0.006438410721948014,0.03583361109538426,0.019512664423664308,-0.017756402231499237,0.0029411184179093768,0.00924430910829292,-0.01351214691546283,-0.29611236172604527,0.013338237530604258,-0.09512870861372445,0.003361669305006863,-0.0036290621933493345,-0.025256850986704552,0.36071184728080435,0.1875
-0.009933063204448993,-0.3574924390269692,-0.02824342509780816,0.15839029965265056,0.04779889731261237,-0.23971705619556555,-0.0476118467060405,1.3574341907415948,0.23656068327393498,-1.4890582649640138,-0.046016485463113724,0.17061817321835296,-0.3046932702826355,0.5545296441269326,0.1953125
-0.025235715912233964,-0.41808174030351813,-0.07303450644140022,0.18900606794263142,0.03967080987499254,-0.24427280075634328,-0.01125922971524238,1.968953459055801,0.18808463519676077,-1.1548138921371718,-0.050971064732942654,0.16520951766935954,-0.22168803998572914,-0.34948334630211825,0.203125
-0.005255866516908302,-0.09931767182720899,-0.014656765722104533,0.04436529586960458,0.011269014706538063,-0.06004909077276819,-0.005490283953589327,0.4412505802610868,0.050613803601018255,-0.3137775760014028,-0.012306413915244592,0.04091253268663087,-0.0612507083996128,-0.017128841238108383,0.2109375
0.016637867853167457,0.12637715636638622,0.04936720133062281,-0.060160676876773546,0.0002619200447994857,0.04990352990086083,-0.026620273173883907,-0.8568691663980049,0.0034170861174419318,-0.050642795455401776,0.01346867239993399,-0.02752286786233927,-0.024049787368960667,0.7837115520074251,0.21875
0.012482443122845034,0.11385284331609372,0.03720784293533944,-0.05357575860899677,-0.0026297884357195512,0.05150738218469801,-0.01586567414677863,-0.7030431743838834,-0.013002317083717326,0.06204421914068928,0.012648158174174803,-0.03113385481334541,0.002785926628831806,0.5241880741408254,0.2265625
0.004470280533813784,0.09073257311369098,0.013759664142173427,-0.04127904865997875,-0.008307236293851794,0.055414163466153424,0.00506845451597007,-0.409008152472973,-0.045327209730690814,0.2836363041244484,0.011192261235841288,-0.03871721526364336,0.05572017221898507,0.021483392654287215,0.234375
0.0024444468967892777,0.11347922878407331,0.007790407917178485,-0.05051252966697539,-0.01437290896178138,0.07756716646407717,0.016692129733189842,-0.421025818511979,-0.07736195957273602,0.49167128567700397,0.014629511865293297,-0.05628403838128992,0.10119873927208142,-0.20513792028164102,0.2421875
-0.009304146202947703,0.1082065391606447,-0.026678921903054778,-0.0447996007935108,-0.027349764372646242,0.1044707040501276,0.05376523009613369,-0.07603106569588958,-0.14924819707872608,0.9676281952743538,0.016292252382650543,-0.082882105901919,0.21124127492996908,-1.0430512200695974,0.25
-0.01685804335348003,0.14319782565620517,-0.04884822814209282,-0.05798442996944145,-0.041974107614845324,0.15030985070393024,0.08612856486225787,0.02901937114831351,-0.22765769827533153,1.4787139632939479,0.02251255897312781,-0.12096586969231685,0.32495078334920374,-1.7183853641010818,0.2578125
0.000329348865783007,0.20575294941768887,0.0014965378803243501,-0.09014532663679521,-0.03191712239038418,0.15156882715119888,0.044041376298172265,-0.6410872726593146,-0.16855842920013728,1.0745730722522953,0.027369064760028903,-0.1119346542102787,0.2254749619252074,-0.685601931141626,0.265625
0.013088609628809577,0.09185405470045518,0.038948757300596624,-0.04401436216721854,0.0016921705625946434,0.033455200137941794,-0.022805993184627168,-0.6512110517287527,0.009536441888580835,-0.08045204781184281,0.009485628022816137,-0.017497396140214366,-0.02805398596567227,0.6471410669773163,0.2734375
-0.005157441634002262,-0.16921323679305786,-0.014383649050981061,0.07490749715979393,0.022701650954693037,-0.1122982631166081,-0.0213278802253246,0.6513781843027082,0.10957830076959962,-0.6889267977674775,-0.02173420484572937,0.07943612076959135,-0.14060308610216626,0.23593057337823675,0.28125
-0.017235288643890876,-0.22987289384680606,-0.0497294847268618,0.10453554658435976,0.018278049732084606,-0.12540389829693271,0.004612808090431419,1.1716448960088528,0.08175338709468401,-0.49383196114246064,-0.027321489146532246,0.08216208083971846,-0.08921632799832341,-0.432891078175633,0.2890625
0.006827617728473728,0.0019541031865028245,0.020677797703605595,-0.0034228217960354103,0.008826820103253898,-0.016507878442912138,-0.022204479665035155,-0.20606411106543726,0.04367785395659828,-0.2912250913799785,-0.0011493969075122739,0.015769253339024125,-0.06648664206451568,0.5048857771004126,0.296875
0.026420505578737593,0.15358158833043503,0.07801235636049952,-0.07488258750447364,0.007277017869172511,0.04442197686741637,-0.052359552459523374,-1.2133778926221048,0.044132875327046815,-0.32427751620594386,0.015113299441517302,-0.017879574109500758,-0.08986179011742927,1.4012928072250685,0.3046875
0.010105829177250092,-0.033823887675553936,0.030306891425532147,0.011620558767473263,0.01870172569767707,-0.05194287227981166,-0.040931550466318,-0.18648140186097717,0.09558080979031774,-0.623204465836817,-0.006717080123077363,0.04374674549851643,-0.13931715412392695,0.8735853239401794,0.3125
-0.005016383812177495,-0.3117031921821411,-0.013841448783866195,0.13707492279264746,0.04622429886278896,-0.2185196791725429,-0.05346088948741455,1.0811020702100826,0.2301406908964275,-1.4557561888326855,-0.040865016002834695,0.15785440585941876,-0.3018254349932529,0.750720524693832,0.3203125
0.005851140514660827,-0.32476250320024186,0.018019718298224418,0.13970061753743937,0.06114908490233652,-0.2568227052389585,-0.09177750229238743,0.8169116264322986,0.3113974739427203,-1.9918955100654687,-0.044825717035623484,0.1923229040568586,-0.42367305660322135,1.589630522889791,0.328125
0.007639348217877418,-0.08392968396843985,0.023117869084871148,0.03421596080539034,0.02397179749872662,-0.08277580484967588,-0.0441366686729131,0.034831850680276714,0.12151300889937591,-0.7839286554321826,-0.012924730639428075,0.06493300448850947,-0.1714740793574676,0.8707515935723229,0.3359375
-0.01367389155112153,0.17740265428384552,-0.03949792418422329,-0.07379204451418439,-0.04377859535524073,0.16735208848396205,0.0833095647685392,-0.16415723303899443,-0.2352579567404739,1.5252384044367442,0.026460085252441333,-0.131812518683518,0.33150259603217674,-1.6068183065237267,0.34375
-0.02019164337827753,0.32867455224711817,-0.058701687162378606,-0.1380844757789063,-0.0761756617184964,0.2970035821053048,0.13819877336597935,-0.4424452131086415,-0.40439008471152327,2.611774688331619,0.04809960789913591,-0.2310954061721007,0.5654689822857653,-2.6180850352083103,0.3515625
-0.005852548205856826,0.2939679099832036,-0.016685828932922923,-0.12706584539163657,-0.05366953132891507,0.233628021396419,0.08387739104710414,-0.7380553878329317,-0.2828846684622439,1.8105949124946343,0.04053651249388552,-0.17603479070859562,0.3855304311704384,-1.4509802996945647,0.359375
-0.009620154369229613,0.009719516728501285,-0.02755817317314397,-0.0019683744749333276,-0.011755867737525866,0.03229458727932349,0.03300141472137633,0.23138509694117254,-0.06955473595036353,0.45565429420236603,0.003195118598608882,-0.029745061320836375,0.10432859905637379,-0.7216706209890046,0.3671875
-0.027310218131374894,-0.3074920958257024,-0.07916436995422621,0.14142390788276296,0.019173790358908458,-0.1569902893810686,0.0200675298817271,1.6900419837164125,0.0815891752807049,-0.4776343035864096,-0.03571654451598111,0.09967156266139184,-0.0768171010496871,-0.8898616182455256,0.375
-0.01467407012077153,-0.2746745225560715,-0.04211114882949302,0.12353778901527802,0.028746370871576984,-0.16586279364430892,-0.01381570456387515,1.2369224123093099,0.13646939177428408,-0.8457689354496722,-0.033893813606494995,0.11357904861455857,-0.1648432934131969,-0.08187292093707689,0.3828125
0.018964066486219903,0.026725563800248087,0.05627170754316727,-0.017397100308326623,0.019232441256022564,-0.030286231049364728,-0.05633798000675205,-0.6192001635372705,0.10250278015743863,-0.6820411552526908,-0.00037503524532325934,0.0329570662606498,-0.15892645050541743,1.3078540217465042,0.390625
0.02623089310846915,0.13851793705394455,0.07745867213272234,-0.06817341339357813,0.009559971402931,0.03377526777752514,-0.05510577977066699,-1.1615235668428836,0.05601878476488128,-0.39680530365291844,0.01310600013800726,-0.010294216223237899,-0.10536102372633518,1.4416838909721126,0.3984375
0.017554351917379286,0.09814224194540902,0.0520440469194302,-0.048087068365918716,0.005928213933363175,0.026558751896161102,-0.03582150490406028,-0.7960987709296644,0.0333404368176622,-0.23917568715866624,0.00946328822567396,-0.010102316311273528,-0.06494516419902452,0.9504467845187893,0.40625
0.030821107219395988,0.30858053932213236,0.09079935532490584,-0.1435370521131414,-0.012757861096387697,0.1478466955445651,-0.03231585908890914,-1.8067321629372546,-0.057045632372323796,0.31408277559241393,0.03495786935072458,-0.09175732982492936,0.04024489637943111,1.1755247468608676,0.4140625
0.0357782007730171,0.4923665742349037,0.10518417636312108,-0.22502173061654088,-0.036912412466345565,0.27131842647992754,-0.0076937840008721526,-2.5034120270518736,-0.17888706609390245,1.0833712962712823,0.05855324276359856,-0.17971548971562498,0.19725367155256163,0.8867845911789338,0.421875
-0.01073823490303532,0.05675103352330606,-0.030916299053248567,-0.022019295618715164,-0.020718741261902245,0.07027055534346348,0.046942270144787614,0.12186874569205289,-0.11592947103731942,0.7594455243644123,0.009650277006647723,-0.058217872675562166,0.16743710896606046,-0.972562404380939,0.4296875
-0.05761546692100658,-0.5587044653823589,-0.1679076327790264,0.2593881811106262,0.02439169059829342,-0.2634349322641875,0.06286891706038925,3.3026479551614227,0.09529139475728644,-0.5108086159633016,-0.0632306571735774,0.16073826368892907,-0.060090222642260646,-2.220923467181263,0.4375
-0.035639465995565896,-0.47284249690504954,-0.10348728772166947,0.2156843197172002,0.036295084143835206,-0.2575467919171962,0.010478524127220551,2.425627940133822,0.1661435118987857,-0.9999734001642363,-0.056156931981020175,0.16899733041569337,-0.1801516546852927,-0.916394001332161,0.4453125
0.012441832373827318,-0.034361542149224135,0.03719825795928653,0.011068515611888432,0.021477063232313943,-0.05853434829649614,-0.04858691773556341,-0.25239950789881,0.11120621391910791,-0.7291382218870532,-0.007195051488865137,0.049922451197487776,-0.1625726450244289,1.0489350077303055,0.453125
0.009516692804109054,-0.12154083449530616,0.02866006305338974,0.05001974332310072,0.03226796410088816,-0.11566070700217655,-0.05842930370092106,0.09474576029350071,0.16517431796561652,-1.0688332405496208,-0.01829665537636076,0.09025801192958997,-0.23162940138237156,1.1435129055093816,0.4609375
-0.013991068158310895,-0.351151130662312,-0.040121785381357425,0.1566972433887784,0.042010381210201286,-0.22426407090157763,-0.032948473237186235,1.45054719144683,0.20452666497705257,-1.2822052096600844,-0.044265665289378926,0.15674628432483972,-0.25740229926925856,0.2352900668677698,0.46875
0.007714344700764397,0.07312505541174544,0.023240882487650587,-0.03447729915071674,-0.001587395480066077,0.033819940898492246,-0.009430771128297965,-0.4455700592127524,-0.00999606832651969,0.05024023396076494,0.008166652658961717,-0.02090099581863236,0.004105456622977107,0.3196887469853684,0.4765625
0.038623450180468574,0.6002877450980479,0.11353071136137018,-0.27293436211917144,-0.05108490558031604,0.34393037343544386,0.006973605362849702,-2.911543391076278,-0.25039141366068235,1.5348391244449213,0.07246690193044812,-0.23160748795589037,0.29012420402586214,0.7159610790675554,0.484375
0.014483184032353248,0.37504737282019224,0.042920590200049305,-0.16783101226305547,-0.042782310942764225,0.24002071392196625,0.035513945420011996,-1.5515182337541131,-0.2180237831309631,1.3695667980762707,0.047169956602100514,-0.1689894626602851,0.275521635190768,-0.24899460180944843,0.4921875
-0.027594456037851874,-0.096056848588639,-0.08013868178472441,0.049305360631896715,-0.01560684384828101,0.0009062156866949502,0.06794289717782052,1.0563607576733054,-0.096796211733185,0.6634298062101583,-0.0073546229687265555,-0.01708220339714559,0.16247323404876088,-1.6578418969397644,0.5
-0.023013457016447757,-0.07464440707380482,-0.06675347608556238,0.03849858391770823,-0.013785222261166616,0.004951584604758931,0.05790855063153446,0.8622653993751821,-0.08548120617624529,0.5809051447439127,-0.005376056823275822,-0.01738173852652343,0.14163052300741577,-1.4011019844603358,0.5078125
0.0007928086367312148,0.03464141415216207,0.002955132465659877,-0.015824112828286108,-0.0035498899236932773,0.02348332998754788,0.004696378489780811,-0.13550375672848114,-0.02255866484073483,0.14131362212092335,0.004403350052345163,-0.017222787234296624,0.029403991087245597,-0.04915357660478018,0.515625
-0.007126714692441041,-0.14915014684285724,-0.020111087804930036,0.06671153383538533,0.017163460766843885,-0.0923902512846813,-0.010443400685983293,0.6452553219311298,0.08037829209350957,-0.4991057379586435,-0.018648347083674303,0.06355879713179517,-0.09890060607788187,0.02378690979370377,0.5234375
-0.021239357732660943,-0.11773081422663795,-0.06148239163746215,0.05703338307283052,-0.004565808806700361,-0.031970796094662975,0.04241069339533655,0.9444310584032753,-0.037250595499072364,0.27525470729086543,-0.011554960623660968,0.010745200725370628,0.07528879886467518,-1.1168028166344264,0.53125
-0.0039083761769409305,0.21428061457981845,-0.010933577654439,-0.09270987996479754,-0.03834344118497355,0.16928683809157058,0.059757601942561564,-0.54965923922872,-0.2031318208915791,1.3036853591345978,0.02943660968859736,-0.12754104940438574,0.27683613531925616,-1.0267434525589514,0.5390625
0.018590093394006926,0.15495186547273393,0.05500089236831977,-0.07324987866395222,-0.002200242587492256,0.06628580917475355,-0.026640813909983053,-0.9981463405383856,-0.007963610781643855,0.022235381619696095,0.016901525015255152,-0.038388915116541696,-0.011257182560233359,0.8220974660238727,0.546875
0.017140232702839514,-0.24588448423191872,0.05101992093142281,0.10197177272537343,0.06149553163651506,-0.2276868689138793,-0.1109903909064829,0.2614094390346361,0.3182925150329668,-2.054444085364672,-0.036548438922775546,0.17758285135909832,-0.4464271920189731,2.132197177106699,0.5546875
0.013102660949973846,-0.20614994374788734,0.039213986495845995,0.08589676894886414,0.05031949938927781,-0.187861781249272,-0.08905622282542346,0.253671260754225,0.2592707115573095,-1.6711213145087775,-0.03042729099387992,0.14579027683432252,-0.36227502814310786,1.7005927395754659,0.5625
0.02212093592474274,0.14598052683254173,0.06542535999444499,-0.07008145734192704,0.0035187190057687128,0.04975821991165063,-0.0401609606009901,-1.0692334442240152,0.022936230229327597,-0.1810702918038512,0.014916862881187981,-0.024274831681992366,-0.05620341931135456,1.1174284598414959,0.5703125
0.02084611428055096,0.027965258696058502,0.06170559002663824,-0.018301764201220247,0.02119308188688365,-0.03444739223529789,-0.06212260661201913,-0.6754264662379929,0.1127644837754135,-0.755188088633787,-0.0006164589803009134,0.03702268379245625,-0.1753276561192537,1.4393062241969585,0.578125
-0.00019999249991218252,-0.32730310179291267,0.00022002011101782186,0.14232580138705472,0.05427287829838222,-0.242724462325057,-0.07243957999186475,0.9923481794481898,0.2731716221995006,-1.745622073240965,-0.04388802560838877,0.17833602094737097,-0.3658159367163703,1.1546602218661661,0.5859375
-0.015552404658335434,-0.08864313335540595,-0.044873830951026636,0.042416425788831924,-0.0027152984685142076,-0.02499665804080967,0.030531545255393817,0.6959046243910569,-0.025781484475186068,0.18642727518390628,-0.008743234094604098,0.008902695875034615,0.05262634315384987,-0.8088705514666551,0.59375
-0.012355326966806907,0.47664028389354457,-0.03578998738811547,-0.2048715083993746,-0.09103692027336784,0.38628722104889457,0.14557335521554748,-1.1113260361193593,-0.4773886392870261,3.063277195871774,0.06633927171500265,-0.2924042449397144,0.6540502563264874,-2.568719861026434,0.6015625
-0.009007624217457608,0.405172628214463,-0.02591031151716071,-0.17442335053823593,-0.07534236488887658,0.32421771083485446,0.1186962854830573,-0.987082093505961,-0.3953988236440312,2.5375638499834445,0.05604553505249676,-0.24464465557749768,0.5406174028117671,-2.069243826264839,0.609375
-0.02033033287446206,-0.24430143934301904,-0.058703759047864096,0.1119852163126898,0.017238887305843765,-0.12831487296816835,0.011278363215388576,1.3036158014410475,0.07476649509827937,-0.439711251850378,-0.02867155826450894,0.08243111350229006,-0.07564062425477157,-0.6023510302612017,0.6171875
-0.03466328594094594,-0.5031310872170829,-0.10057779811104073,0.22870053797046672,0.04247709663662845,-0.2826174277402205,0.0004894990727810532,2.4906898108240667,0.19836126938283152,-1.2028948269753048,-0.0604060547266108,0.18792232416336868,-0.22434260944929088,-0.736591011353492,0.625
-0.02870380408994847,-0.06508884337870402,-0.0834176912296054,0.0359846925073014,-0.02200883476900767,0.02709341304164596,0.07840772058799325,0.9928636516431703,-0.12963486707135125,0.8785403739018826,-0.0029460248168269153,-0.03688562254083483,0.20782430896195478,-1.8494215820417323,0.6328125
0.0026370431634187776,0.3679770783644217,0.008145293708642934,-0.16143563578965944,-0.05568535270585324,0.2660482256820818,0.07254991696533715,-1.1987427266140507,-0.2889345663120477,1.8414124900463806,0.04862178481537612,-0.19489441368536486,0.3842454610076675,-1.0898616227519125,0.640625
0.03248969031942106,0.25345435909019437,0.0957083113979704,-0.11970833250560785,-0.0017828140715162985,0.10225036621485135,-0.050079034037283934,-1.684699131632582,0.0003136894942914042,-0.05275936119742305,0.027144435316522664,-0.05690466007932606,-0.038186181927151425,1.4948004348016564,0.6484375
0.0311327514826822,-0.09076405810658347,0.09194484610207107,0.03066454325064026,0.052722661574078705,-0.1497602414484205,-0.12205047172158585,-0.6010594098543138,0.27937773690118467,-1.8303561924364922,-0.01867746663093386,0.12803352643117913,-0.4102837605701613,2.6105069807818757,0.65625
0.008793589798983687,-0.16122486464655394,0.02650336584800309,0.06742791439978464,0.03778981937568448,-0.14312587493944431,-0.0648475212821914,0.2363584873418815,0.19316247377742976,-1.2464892059237027,-0.023501020296082198,0.11007244196842342,-0.2687429901406276,1.226696864086888,0.6640625
-0.0007716895757576685,-0.08080148660385018,-0.0015845792550976778,0.034897252492808124,0.013351659467612388,-0.05811334023970469,-0.0157539343705782,0.2582295596157858,0.06336317788674495,-0.4074498702710922,-0.01071728330789667,0.04170663983044745,-0.08408109081335996,0.2427481614926004,0.671875
0.004860037215655628,-0.20531900683487003,0.01501676796250545,0.08754743471561761,0.04033531730398985,-0.16532408716495908,-0.0617772861266718,0.47904528034762967,0.20374679483157462,-1.3136581913586327,-0.028515864264557215,0.1240809519570874,-0.2790791986307457,1.0920645642155997,0.6796875
0.003988022511367698,-0.27750858912532633,0.012525648588364859,0.11923299509989842,0.051137658582760114,-0.2165447886947846,-0.07508757796896655,0.7234614748827943,0.2586201610758819,-1.659649275592035,-0.03800679664546511,0.16163994348263777,-0.3515875169227777,1.2823168760637689,0.6875
0.002595628843185466,0.16213861818406064,0.008183471840340302,-0.07203919302948972,-0.02217976797525459,0.11362800590431771,0.02701057511236932,-0.5732326635745433,-0.11779759454584829,0.746609423401177,0.0211616582978557,-0.08243821156355347,0.1544993147238712,-0.37081752635539955,0.6953125
0.018901288264850706,0.6873769650597463,0.05566482746938304,-0.3054846451199344,-0.08859377830382184,0.4606362927976191,0.09055283915766366,-2.6251899801833027,-0.450991770875481,2.84720654642406,0.0881754024093128,-0.328994655937017,0.5820616471811823,-1.0320925343889633,0.703125
0.02654811961567698,0.43989966877084646,0.07824743760379359,-0.19952468000994292,-0.03915311572619997,0.25652223538370916,0.010628820136908001,-2.0861570496017183,-0.1938363434334286,1.1974744729020554,0.05341334290328752,-0.17421062226364598,0.2290051204570213,0.40285740519130814,0.7109375
-0.013689549386106621,-0.35639211848484853,-0.03919892163356023,0.159128024245059,0.04336014308460045,-0.22909745190779526,-0.03533645759222617,1.4602688470071779,0.2119035026293195,-1.3215125663829053,-0.04511934209378838,0.16065970450928477,-0.2670753225178015,0.27811156026990386,0.71875
-0.06848167665128083,-0.6172790609182557,-0.19965560424190681,0.2883152827710738,0.021342647159302664,-0.27870726750092384,0.08507810071687047,3.7857624713481437,0.0749943983244698,-0.35897480078171246,-0.0689229567858266,0.16565664205372407,-0.01940176243045883,-2.8008300068610574,0.7265625
-0.06056486810371616,-0.14718320605584928,-0.17676295342201417,0.08106088579869765,-0.04605688434085664,0.04962767750607404,0.16384203589555948,2.1347137571891386,-0.2673179520052718,1.807865347796577,-0.007528203075907097,-0.07191734979712999,0.4298209921291513,-3.882891864153064,0.734375
0.008983512038314847,0.19886482854888468,0.026860336582119552,-0.08947848557118157,-0.020618768831350404,0.1237256475808426,0.014456966832417971,-0.8632796583005837,-0.10644097211802298,0.6648727944445577,0.024703150285827407,-0.08644585762549964,0.13275843858347192,-0.02779042778628201,0.7421875
0.05231741003431369,0.0870124740202699,0.15394174997091595,-0.05300131191753183,0.04863414434007172,-0.07328974427167396,-0.15138034086272845,-1.735959552754906,0.26766823453670624,-1.7938987911917803,0.0009180009912605903,0.08382686325815315,-0.4193553545250816,3.5297367734497915,0.75
0.0278585557171974,0.030468022048220775,0.08229745114305886,-0.021559585376658322,0.0290225061267618,-0.05093479697354338,-0.0843414855345296,-0.8802809494633148,0.15617632556286526,-1.0444670318998586,-0.0016534328774374955,0.05312907778066918,-0.24173875292626001,1.9425113307290298,0.7578125
-0.005757516593528734,0.17775445164587744,-0.01631546707472004,-0.07638586281385112,-0.034611686918041146,0.14689626251339283,0.05776638476302261,-0.38777229502451954,-0.1850767206443262,1.186368962933712,0.02494121284317077,-0.11226675087041582,0.2544568054681712,-1.0329847233701044,0.765625
5.23125253863475e-07,0.12563267085839777,0.0005804363453554683,-0.05532147300769867,-0.019352110033026754,0.09315147051181892,0.02745925719962208,-0.3903168630778541,-0.1041756932506163,0.6623940762396314,0.016787128978372815,-0.06926993204092446,0.13933764736706575,-0.4300809919968331,0.7734375
0.01107218395606659,-0.12155352831227507,0.03316513083379709,0.049295637660978456,0.0339773986024829,-0.11939014829752988,-0.0634505099902614,0.05134048832100512,0.17443600665155712,-1.131116080405542,-0.01858506189990771,0.09399859313201134,-0.24669175739314686,1.249875134775307,0.78125
-0.006904470996252107,-0.18005397425277683,-0.019479462236857932,0.0798479636689348,0.022362025373460506,-0.11551104155497806,-0.017957384342724134,0.7321321083626573,0.10706099531163664,-0.6716201112445793,-0.022764567481634197,0.08081055108789785,-0.13530500011719793,0.14452193945111666,0.7890625
-0.023841762494249567,-0.09260328508083777,-0.06914168383296372,0.046597754552363216,-0.011761089885102619,-0.00618106676593887,0.05647475105275134,0.9409564807807324,-0.07545032907961527,0.521449700970092,-0.007633113189455622,-0.00963810300162602,0.1290856607524165,-1.3985981579616504,0.796875
-0.012678445759819903,-0.1289087618223436,-0.03637713146205016,0.059518327374887846,0.007415897550784829,-0.06275829071351001,0.011938987404746037,0.7403738926171441,0.027736896024355005,-0.151984392296368,-0.014833452669439163,0.03857975124057092,-0.022032623172887525,-0.45308164669548734,0.8046875
0.0021618723360276393,-0.12498257302578127,0.007106732998321417,0.05381308432319012,0.02429909860180275,-0.09900457317928685,-0.03552625159712477,0.3139406507970535,0.12076387361480125,-0.768422591390769,-0.017365991648902394,0.07406068126475221,-0.16387997630651713,0.6175632477838985,0.8125
0.0050890249302557354,0.1266877451107316,0.015503412776048001,-0.05675234495811061,-0.013332424755001702,0.08027196619385343,0.010922075753188296,-0.5333741256272163,-0.07109352268637728,0.4482600177982933,0.015776653662226317,-0.05636482252874912,0.08965737407085059,-0.05780465461598864,0.8203125
0.014543425416126918,0.29544367072087346,0.043091258316612466,-0.13317086145848153,-0.029790991620160898,0.18090973397497956,0.017731591282567877,-1.3116746280013643,-0.15140744394163147,0.9427005890662342,0.03650947135608857,-0.12526583906877137,0.1860686982748938,0.0349851035976524,0.828125
0.024340891651001062,0.0891421768259287,0.07193892449262315,-0.04619000887756765,0.015317792056090261,0.002072742745696729,-0.05990984725536244,-0.9596885277127327,0.08440904251179662,-0.5778798096870426,0.006921282302245863,0.012052840204892331,-0.14131457741572856,1.476977912974166,0.8359375
0.00901492407733202,-0.12033424710463297,0.027169140378600208,0.04935086855197678,0.03138187858194039,-0.11316195343255532,-0.056509597856102704,0.10470332596069865,0.16024632554628887,-1.0372524791833835,-0.017988122501346446,0.08811236693334525,-0.22495866079655547,1.0973638935653653,0.84375
-0.011321123750922485,0.05344364245522283,-0.032528100827565964,-0.020633452458201435,-0.020889343878329827,0.0692970991511583,0.04828517211129276,0.14520631148499738,-0.1168345004675191,0.7616967002213976,0.009435169148645915,-0.05810940946851392,0.17000478835520205,-0.9995595129265796,0.8515625
-0.0050574079298952015,0.27633080472715904,-0.01431239951646919,-0.11943867526843417,-0.0497940710830413,0.21824968677957243,0.0773631308744284,-0.7063841870465343,-0.2624619756796834,1.680675591159857,0.037977592243357214,-0.16428040947395606,0.35784965310140354,-1.3277464494681726,0.859375
-0.0010761548359644957,0.08260628900621364,-0.0025374168744985454,-0.036033749962776696,-0.013490829963603287,0.06387205674967479,0.021331487445618618,-0.22799781899021204,-0.07435963028840763,0.4771980402882382,0.011170120539320729,-0.04815978053222331,0.10139655925720986,-0.352703783551567,0.8671875
-0.027926263284475436,-0.2806184678371714,-0.08102043954578333,0.12987397694840386,0.014075916461254185,-0.1352515576806614,0.028025008428073563,1.6268764414553751,0.05551910415662704,-0.305438448274154,-0.03202763619923269,0.08314043721951521,-0.04120048786698229,-1.0309580213740233,0.875
-0.03634702595806132,-0.27609699018634626,-0.10571639952933284,0.1302984025109317,0.0034102367009727543,-0.10973929282947165,0.056401747538876786,1.848550798097097,-0.0030440803483339027,0.08124331238360073,-0.02969539705201757,0.05946380572670881,0.04670384410544629,-1.662634597815102,0.8828125
0.010095692697235356,0.01647819496959965,0.030216770200291843,-0.01028545914268565,0.010463873420800457,-0.014570821631952413,-0.029822824772972684,-0.33905201928495077,0.052973234548026785,-0.35303768264667873,4.109810840349477e-05,0.01613235445497365,-0.08305158375349006,0.6937557064928107,0.890625
0.04530243986950571,0.08493647960944782,0.13337969753224926,-0.05008783765703568,0.04080728296856536,-0.05625599691460055,-0.12918977751451172,-1.5317178911123317,0.2239151697830506,-1.5009692207791847,0.0020475241179962285,0.06724033077264736,-0.3530932723998074,3.0220180570573163,0.8984375
0.013861358794289211,-0.1286604956552947,0.04139263601695098,0.05178542205553571,0.038559664198452866,-0.13217581018955124,-0.07421296031038276,-0.004254696769624651,0.19909987868782497,-1.29100801577166,-0.020139954497325665,0.10508816542726711,-0.282548482591486,1.4821277568293592,0.90625
-0.021891965277613584,-0.17396386732485106,-0.06335141793376294,0.0815783302037239,0.0037866939083896593,-0.0718626830717191,0.03212467363913526,1.1326183224780162,0.005439715751800207,0.00290727950046864,-0.018915721132835784,0.039952658192294856,0.018952588398398248,-0.9668248487676113,0.9140625
-0.00020262784507197944,0.09799563037319843,4.137590083276538e-05,-0.043065842066918554,-0.01500237472132795,0.0730152071806371,0.02187716075695283,-0.3000285092926751,-0.08167565931219281,0.523255513870529,0.013086992387882732,-0.05436830724711119,0.11000572975503373,-0.3444168905556257,0.921875
0.022877049428437646,0.26824288076138286,0.06755453850979805,-0.12381291251380852,-0.015580739053456468,0.13881354297075202,-0.015440713805751677,-1.4624445346752297,-0.07483191254642531,0.44086172709720084,0.031187829137364294,-0.08952770068588481,0.07350746684521382,0.7377490987524947,0.9296875
-0.011632541195935554,0.056085200868454886,-0.03348919356026507,-0.02163462035991282,-0.021694734319215387,0.07209131804400072,0.04985736244392537,0.1469611744448432,-0.12114117752342905,0.7902104847442026,0.009805012511189409,-0.06020561797871341,0.17594821774265929,-1.0324696985324329,0.9375
-0.044885945143951826,-0.19031557347929354,-0.130812121399482,0.09521103346550024,-0.020708051447458308,-0.02348312392716194,0.10343100111613066,1.8254821902897354,-0.1304303944145726,0.9022226447767918,-0.01643870549432958,-0.008930145311184799,0.2275069955138728,-2.5886350591594707,0.9453125
-0.010916449550033378,-0.04062043544823548,-0.03131569776922882,0.02046568940355802,-0.005020330251833856,-0.0017720899998208786,0.02603958936137635,0.4213205430877531,-0.03530331476968679,0.24115583957580067,-0.003332046014900442,-0.0053765482716793545,0.06038920229626045,-0.6363735791951102,0.953125
0.03578346762302937,0.27915794569830804,0.1054066694012019,-0.13210778938803824,-0.002062784908681338,0.1128430324346398,-0.05505495558987674,-1.8558277262248215,6.439270515241368e-05,-0.05794135159263135,0.02999077018255911,-0.06297287311711579,-0.041668724699406426,1.6437991947571624,0.9609375
0.019066981355229207,0.17866663917157782,0.05648466061874864,-0.08365080838383383,-0.005379254399619783,0.0822840231430159,-0.022995174805255935,-1.0832991669130936,-0.024052636675088633,0.125387059059691,0.019963742903780987,-0.050078381342521454,0.010254860103859982,0.7778736206691561,0.96875
-0.020750649223240405,-0.3012890376898336,-0.05995969887658998,0.13680094720880043,0.025916186856623617,-0.1692702159781926,3.667564285233117e-05,1.4884503836202796,0.11937153371998943,-0.723298510267963,-0.03620917944735778,0.11247653395945217,-0.13520569975215363,-0.4353312625269615,0.9765625
-0.002864160075343791,-0.39129482559442,-0.00751560736646493,0.17105055051477655,0.061654818681538215,-0.2831238835530862,-0.07815705313373619,1.26226925720802,0.31038377546247276,-1.970951191067887,-0.05193666445390244,0.20677675769425644,-0.41210146753843946,1.1870281054983147,0.984375
0.0450111972421909,0.19042030902341908,0.1324542036248962,-0.09602069038612002,0.023225372710418593,0.022824261143354396,-0.10476969563532584,-1.8441834467637537,0.13381069274516907,-0.9248651874974904,0.016226149766980967,0.008753121020940419,-0.23181735097665465,2.6283165225470246,0.9921875
0.03180797206676829,0.5863649632820868,0.09354435346651684,-0.26496512875900585,-0.05690879968533091,0.35146012704574114,0.026189452967422505,-2.679191201021293,-0.28308416551205107,1.752930617842837,0.07199365392027854,-0.24131114974007928,0.3419274764830929,0.26770394965376204,1.0
-0.03699529723631942,0.09328901206785416,-0.10780055920565855,-0.030673896626215523,-0.057606063914511806,0.1662650291630473,0.1406448970201826,0.7425460611791935,-0.3164767366827852,2.0774280173299915,0.019986231569210828,-0.14453569369290922,0.46720794096104895,-3.0138008586095544,1.0078125
-0.062356135729466036,-0.554117346818731,-0.18175526512795437,0.2587505404143059,0.01808727589834112,-0.24774656376303889,0.07936728863657525,3.4199262743495034,0.060854777168631774,-0.2861858465968914,-0.0616071695263972,0.1461627713244264,-0.008358823324191264,-2.5798458126730512,1.015625
-0.012253692989762281,-0.32086233300701833,-0.03507494873022862,0.1430414167270532,0.03911827626582375,-0.20630983475082362,-0.03193275680241555,1.3109788659867136,0.19049647560013291,-1.1937209087620941,-0.040613574909108476,0.14467691404768626,-0.2404388199450951,0.25447014622487935,1.0234375
0.032300613960534366,0.34212693563722546,0.09510955441557187,-0.15854121117744638,-0.016494008699686476,0.1688306399936273,-0.029677435101174796,-1.9501172711341743,-0.07540089774134434,0.4286003165779646,0.03913530248521046,-0.10611311402218296,0.06364300843437969,1.166952392859513,1.03125
0.016430410171672665,0.3189924501618097,0.04863881220501205,-0.14407506513234444,-0.031443877928381034,0.19339921961800247,0.016860496972030566,-1.436882965335748,-0.15886835250613685,0.9864328597201659,0.039306081682075986,-0.13342145346242795,0.19394530711139185,0.09013577355389882,1.0390625
-0.01069608084460438,-0.18701221473382743,-0.030543020684433254,0.08416298206174874,0.01911508892621602,-0.11105844303264138,-0.007264577955681474,0.8597183403776505,0.08879878392829291,-0.5474914221536282,-0.022964423949406575,0.0753037566448113,-0.10608225524161147,-0.10360532132694922,1.046875
-0.0017888514799102198,-0.2145080499367295,-0.004442771406304556,0.09374912659168744,0.03412625820045745,-0.154944023125462,-0.04240269485781584,0.6951773146204241,0.1696006729901669,-1.0762859479682583,-0.02850118617493273,0.11276300169008692,-0.2247348033803201,0.6438558413440805,1.0546875
0.009989596319678577,0.06815556073402385,0.029876766533206988,-0.03282566898407555,0.0018998911633815567,0.02413301652197164,-0.01793942554597206,-0.4931622193219496,0.009241115295627067,-0.07337699022285292,0.00697798199451178,-0.012414620975813275,-0.023882238358537124,0.5041126393714892,1.0625
-0.004379774467855443,-0.09056463654920999,-0.012140056779662463,0.040202925846229656,0.010794947501822815,-0.05567727363628841,-0.006370803128032687,0.3901372685211944,0.04860905801457108,-0.30172133047381045,-0.011301162074315661,0.038204230198033075,-0.06008639795136509,0.012527514150783481,1.0703125
-0.008177535216438577,-0.33859435645261676,-0.023096183245047277,0.1493076406084899,0.04674672967500093,-0.22984699934085961,-0.04909230184768863,1.2496323834299121,0.23151348525220541,-1.4619891427888656,-0.04373394558069251,0.16441816008673135,-0.3007526429884166,0.6106106392360968,1.078125
0.016547821039137028,0.01832603758563051,0.049171997722525694,-0.013096302155385882,0.017726030150868797,-0.030102378985851344,-0.05033396754451098,-0.5262094357572404,0.09343723641138676,-0.6221283554805154,-0.0009879211674764987,0.03134713828620045,-0.1445351376071243,1.158885410724939,1.0859375
0.020515842097724415,0.4448409344717708,0.06055596062872114,-0.2000092734880707,-0.04710863078781716,0.2759528514849013,0.03148384693611443,-1.9332870945487983,-0.23744871986411367,1.4807551202453317,0.0553182579134056,-0.1920882450126281,0.29443300431603886,-0.054085988092166734,1.09375
-0.017474125469078505,0.18038560800703335,-0.050613757057391566,-0.07407866490971138,-0.04877400454251855,0.17949283373397987,0.09648085516671565,-0.06780639171628747,-0.2623715312981337,1.7013857080173367,0.0276410459522989,-0.1429359716366315,0.3726595787949137,-1.893446635270822,1.1015625
-0.04027483849913835,-0.20801276161433477,-0.11721084895816974,0.10158445797843256,-0.012350066914831013,-0.04887601540781277,0.0845040616663263,1.7497561678612759,-0.08527328350947924,0.6090664663785786,-0.019737716657164145,0.012291995501517522,0.16224328996817813,-2.187468035253251,1.109375
-0.010443128879882024,0.06252677162513705,-0.029977249979471605,-0.024691698081672625,-0.0213020773512006,0.07358022954989747,0.04744479328229249,0.09404797634124008,-0.11842225529688293,0.7715840096534511,0.010405832466905364,-0.06071417600860055,0.17144940317465504,-0.9653563385374402,1.1171875
0.026992589150825405,0.46263294291932416,0.07946511602728647,-0.20954113429378318,-0.042371470955000635,0.27225897746408156,0.01430588264369799,-2.1672443073840357,-0.21069382903756553,1.3002217379097154,0.05634679355993194,-0.18553658473812634,0.2508002559417332,0.353523444223082,1.125
0.024971530189186655,0.19787047445731426,0.07369111710565071,-0.0934977792893572,-0.0015397974353730003,0.08104679527280871,-0.03803384227325645,-1.3050643110612854,-0.002323569933085351,-0.022414394205461152,0.0212744318280189,-0.04570861775896331,-0.026148793101602504,1.1385391107395013,1.1328125
0.004288039468662376,-0.3463455088843223,0.013403032502984823,0.14955986386495668,0.06280947121105081,-0.2686183276268707,-0.09156547488487385,0.9269853983609603,0.31895904522442564,-2.036308269496702,-0.047406011875775,0.20018795020393065,-0.43232619379851217,1.548955700777778,1.140625
0.0021710041378409962,-0.4050596694264768,0.007244294145093465,0.1756650518766083,0.06984224748199133,-0.3066356072764538,-0.09763415142683543,1.1635672686072116,0.3543006071864462,-2.2603566547789242,-0.054808863465563004,0.2270619149575318,-0.4772882866700387,1.6022129047654765,1.1484375
0.008154862755504954,-0.09369949051566795,0.024619110403448326,0.038097964817849404,0.02609166711310349,-0.0911565659105668,-0.04789980769343767,0.04894004520817751,0.132495978814809,-0.858430732787388,-0.01427902556948392,0.07164020544576079,-0.1872157057930528,0.9406353406434366,1.15625
-0.006755988682119055,0.0116892751259234,-0.019116251811977746,-0.0037398447293188735,-0.008678368489914308,0.026303006465720966,0.024087025880921247,0.1447720127265661,-0.05228008069179985,0.3432285855971425,0.0029075134374087993,-0.023711323700051645,0.0779856781153292,-0.5190927597871339,1.1640625
-0.03076357606844561,-0.17207149558657628,-0.08935514639142557,0.08317150308456889,-0.007012711391678242,-0.04709167318811126,0.06146200886039737,1.3741183969108945,-0.05399757217776577,0.3935368080637784,-0.016811106429310687,0.01639174923129876,0.10862357955625343,-1.6219506096014888,1.171875
-0.02453317633690686,-0.2485329137384241,-0.07105482256094983,0.11485824916391715,0.012809864777352409,-0.12036236154593974,0.024179433717374726,1.4327896412575254,0.05048704396466421,-0.28208356477726776,-0.028353936491980192,0.07400854678659566,-0.0386683218468781,-0.8966112280335301,1.1796875
0.01168146742309607,0.050912724943463654,0.034888812746775764,-0.02580585390971981,0.006692031546755897,0.006699251551865823,-0.027277399552486526,-0.48863281491395977,0.03479479832981286,-0.2393917591477195,0.004327362807751507,0.0013538075548380805,-0.060075343034445054,0.6900811715070655,1.1875
0.028236446494309744,0.4551162161089773,0.08314733212536504,-0.20666235770772803,-0.03969273890255752,0.26334634765866355,0.008587710390474203,-2.179310690990134,-0.195993700316307,1.206332942201321,0.05507347235282113,-0.17821080886227916,0.2299433820520228,0.4718650224413608,1.1953125
0.0024170645214774546,0.4010082233033101,0.007502073487443532,-0.17584125389480848,-0.06131405322457339,0.29116879335755214,0.08070565029184769,-1.29356533260869,-0.3180731658839523,2.0258660519264398,0.05311038802773087,-0.21360547234048613,0.423965258067856,-1.2218498613263906,1.203125
-0.022536380010500356,-0.11286432498439881,-0.06530718012354615,0.05515208055509525,-0.006939252393014906,-0.02471900811088276,0.047866680002015195,0.9650936209046449,-0.04991496097716826,0.3554687809872446,-0.010607917181175219,0.004861230703078694,0.09393695322070991,-1.2297041289960464,1.2109375
-0.010403226305389868,-0.33839621052761515,-0.029604975254436307,0.15004883516972178,0.044147720309441536,-0.2241082275647596,-0.041778028724884626,1.3115253010130317,0.21740415487902284,-1.3680290091458898,-0.043295092937003975,0.1588234543917893,-0.27856830269062405,0.45186841688720436,1.21875
0.009694517496712046,0.06127713261266868,0.029025674336465287,-0.029811059397980476,0.002661142103065423,0.01979849366891772,-0.018509676512759744,-0.4642832459750517,0.013178571609757921,-0.09761644725818278,0.006125248390658747,-0.009432150160397113,-0.02869295773507708,0.5078243512990237,1.2265625
0.00645405787182032,0.3746603094927872,0.019308902636889294,-0.16550295967586848,-0.05227448191058445,0.2610577162789618,0.061660049499672305,-1.3259125515733337,-0.2702423018247208,1.7135980721486244,0.04876308676987481,-0.1891556305260239,0.35469960693935176,-0.8356954430248673,1.234375
0.005036738847335334,0.06589848807328907,0.015362998521495102,-0.030498642561461918,-0.003578353211471498,0.03552394783757438,-0.002259113416733207,-0.34826170702230147,-0.021221972032455006,0.12649377394865663,0.007703857287923575,-0.02365205972076847,0.02277583748362432,0.15009221592277014,1.2421875
0.023677982150537267,-0.28518185441681526,0.07025154540699277,0.11733568828482942,0.07568042556663719,-0.2742682524619145,-0.1409569035306509,0.19744211801024159,0.39340850152807716,-2.5469803454168316,-0.04312343067884515,0.2155056341994022,-0.5546056544712056,2.7500053547247347,1.25
0.022992480700615284,-0.09659287237755843,0.06812511019067241,0.03531278254252972,0.04410086301272019,-0.13248302740485116,-0.09690906143016624,-0.35641694626555337,0.23118809334851104,-1.5101267401580176,-0.01772032295233976,0.11053276325879072,-0.33687735716009676,2.0338592461753757,1.2578125
-0.017727249040645866,0.16910200056687977,-0.05140959605267568,-0.06914379471939344,-0.047289635914545325,0.17194628608584456,0.09466820526776853,-0.02574320402282967,-0.25518338612639785,1.6567429575895067,0.026190931206464596,-0.13744372556837717,0.36205848846172234,-1.8770665840384697,1.265625
-0.04686385551849933,-0.05608884915687855,-0.13665673627057862,0.03715269696730199,-0.044923370806660784,0.08139917977184316,0.13956264602116952,1.4726865228361143,-0.2556001205071134,1.7054276601346998,0.0019823688797285127,-0.08750132909489143,0.3970579466750405,-3.208233899611541,1.2734375
-0.02336437120137695,-0.402580800295857,-0.06752612728239744,0.1816434247942251,0.03934513053585029,-0.23775652521390706,-0.013882345921797634,1.86870311888577,0.18693949269410887,-1.1538963413168353,-0.04923715525986542,0.16139564282386135,-0.22262545494354335,-0.2676839351892319,1.28125
0.0163469334440662,-0.2720409507991138,0.04879222945178936,0.1136648444487847,0.06490528544756062,-0.24532757588845397,-0.11419203123562428,0.36221504822743655,0.3353375890986789,-2.1630294089647,-0.039874305481687064,0.1899688811289839,-0.4677250967557154,2.1710059681173717,1.2890625
0.024156614941850812,0.16875695896747828,0.07137269277382048,-0.08067295236894867,0.0021925288675251372,0.06149859573743677,-0.04170125964269404,-1.1956446232117444,0.016989818142945087,-0.14618030583649572,0.017580428179319686,-0.03169647823883802,-0.05075167053285043,1.1839364289156817,1.296875
0.008256034294120924,0.3562897656429531,0.024629536277598913,-0.1579861198085844,-0.047153265692438134,0.24263119785638115,0.051747180801984975,-1.3213251500426357,-0.24317250195623685,1.5369788957907227,0.04596233783167221,-0.1745240755484975,0.3162346806024567,-0.6389244127624765,1.3046875
-0.00134729863766508,0.1568588240135832,-0.003379518920219958,-0.06832019064235298,-0.02590794856478316,0.11973463926302175,0.038692315997755196,-0.4465331714980663,-0.13835799944415245,0.8851780870291189,0.021195837676806415,-0.08963686305454358,0.1874212890233703,-0.6341354677828046,1.3125
-0.0004885201224790627,-0.1111978174581158,-0.000688230167506768,0.048361614856610544,0.018839362284201418,-0.08165779276513921,-0.023694369409669413,0.3448542571393155,0.09185274281265747,-0.5808902275698321,-0.014926560245640305,0.05933944552690641,-0.12165879119044307,0.3757981387513508,1.3203125
-0.00033224058644777617,-0.14861764578829034,-0.00023036926690029916,0.06459308773592988,0.025061804602930778,-0.10974915343826298,-0.03249275157455673,0.4542367493417735,0.12413220506469194,-0.7861461036569682,-0.019976109921204736,0.08035268216477981,-0.1652619895463364,0.5173435520532677,1.328125
-0.00455860892617537,0.05146043376591211,-0.012759249646564146,-0.021631554663120563,-0.012625746870115482,0.05020182914803772,0.02579974909322767,-0.03673180072658197,-0.07115199501010011,0.46270362096232204,0.007745864953923927,-0.03986281684750559,0.10082406065789935,-0.5006990831527519,1.3359375
-0.007112229349037049,0.23180736365083682,-0.020340573230050563,-0.09969027193248642,-0.04504928732397082,0.19095968654730822,0.0742147649182672,-0.5141542831006168,-0.23896496167368483,1.5339198901974096,0.03247481522883308,-0.14517380490481288,0.32831446909502576,-1.3252274798332955,1.34375
-0.0015126354566276934,0.15475154523161339,-0.0038620605131633417,-0.06758085239025294,-0.025828596651622217,0.11881259958911644,0.03881720383905537,-0.43582626512805067,-0.13808651255754342,0.8820811880685642,0.020976139692990208,-0.08885175188101696,0.1866576874691852,-0.6431138316905126,1.3515625
0.005043834015053586,-0.06871405852545397,0.015493288881217124,0.02823887194700073,0.01839023731656074,-0.06468803999838468,-0.032223625440859306,0.06105383955194048,0.09170486126169725,-0.5923167464736954,-0.010369144804640374,0.05021472352351026,-0.12859079355256245,0.6271605187995603,1.359375
-0.000987708832654685,-0.10107239897036255,-0.0021618064421481315,0.04414304552663108,0.01658416957599497,-0.0729609004682764,-0.019780616550197454,0.32796087573436483,0.07981885560352495,-0.507181313448998,-0.013484185449035594,0.05281991012962214,-0.10537115656280732,0.30316767287430263,1.3671875
-0.0080493874506508,0.08969463009361482,-0.022966942291352696,-0.037121841704162085,-0.022832771400477,0.08739624851938045,0.04558342042913097,-0.05503506996081448,-0.12566330970582265,0.8135207258400144,0.013560967645454041,-0.06955423289696161,0.17814532928454196,-0.8857737311845965,1.375
0.0071054408589409914,0.12730409185832803,0.021415918766042003,-0.05782560580890052,-0.011106473332491944,0.07558706207874069,0.004570172158774786,-0.5929414136732039,-0.05906542480102629,0.36489280989614853,0.01552914752347317,-0.052119225487668126,0.07091347862316301,0.08598825479082736,1.3828125
0.02328129713723817,-0.16529288339727075,0.0689836557276881,0.06522546934683848,0.055637097041034055,-0.18423140812420075,-0.11309402543803475,-0.15550906471759415,0.2904974822504145,-1.8889627915431668,-0.026989090217889092,0.14880542789248827,-0.41651265378730923,2.29797666459917,1.390625
-0.002050415480923377,-0.4265910509029914,-0.005083682327232747,0.1861959981418636,0.06833737097014564,-0.3116505046807607,-0.08861818086470852,1.3461703387601454,0.3449971381189442,-2.195004770522152,-0.05681704746937925,0.2280810302409841,-0.4597016270112879,1.37111660158229,1.3984375
-0.04280839440720213,-0.3104493608823187,-0.12456248297045261,0.14685068284070063,0.0013377172812717988,-0.1181526043340806,0.06992202866840706,2.1313776159535918,-0.01614615861893925,0.1735417768198272,-0.03289390791587707,0.06184867941235301,0.07217809607933082,-2.012909539918941,1.40625
-0.028563803725557783,-0.0072277736134320324,-0.0829840313730965,0.010628450358592655,-0.03128515945639736,0.06959341098661986,0.0908932221385044,0.8115884502687158,-0.17737983684108505,1.178401044609352,0.004829806746457141,-0.06819810539531376,0.2716030922501643,-2.0428830367205584,1.4140625
0.028883843626272603,0.13441470105930056,0.08526128367920655,-0.06710587636554312,0.013376344473471392,0.023653734517621747,-0.06471928120218573,-1.2234516469306365,0.07638560309287809,-0.5326207332459263,0.01202597648826606,-0.0009280933283801269,-0.13584507595658366,1.6497266996324402,1.421875
0.04129994763399647,0.1309438130589746,0.1216120065049156,-0.06897091099120592,0.028583984152879327,-0.01161870879313671,-0.10594519192542276,-1.5589192948770676,0.15963548283513362,-1.0832096114012604,0.008978869743812953,0.03225819115918886,-0.2620974489464594,2.5674234097987734,1.4296875
-0.00777306280171374,0.14186372421127422,-0.02222868000959737,-0.05998615180888699,-0.031059356215486025,0.12557778522016058,0.05623952707971516,-0.22040172600738828,-0.1675477594555922,1.0828748139462774,0.020464260556991524,-0.09741584261867785,0.2337585685919554,-1.0527726999718,1.4375
-0.03554910098624501,0.12383982534707483,-0.10362055840928118,-0.04436371473541023,-0.06085782184729046,0.18529442502836949,0.1426667003873717,0.6105443175385363,-0.3324077219256211,2.179044602705782,0.023738768416080906,-0.15756718009059503,0.48726818890779733,-3.0158405011098672,1.4453125
3.643188401060319e-05,0.05940149272990978,0.0007115040854051749,-0.026210598313464537,-0.00838812855703733,0.04382751509388938,0.012505093379891745,-0.18821995789048643,-0.04789024488953155,0.3067790205259282,0.007835257055583808,-0.03265965489517385,0.0643660807705715,-0.19100942519161196,1.453125
0.04202517497359773,0.11888259429725624,0.12373370709463581,-0.06390381703088191,0.03137948444116,-0.02252944106738185,-0.11095339643172966,-1.542927876276357,0.17431246610340903,-1.1786920207054201,0.007227422809096978,0.0404724805551181,-0.28265526391147244,2.6634002125531793,1.4609375
0.03636078961686775,0.2952819695594871,0.10702833861592764,-0.13929918187202753,-0.004124984048397038,0.12333070815466031,-0.05328072229533201,-1.9216317939072018,-0.01011544163709114,0.005862137740312764,0.03204496611894452,-0.07050038368322498,-0.02898192790943154,1.6274006924960256,1.46875
0.0005448353889100354,0.28561547106085355,0.0020780717280849082,-0.12513165131778342,-0.04478559394114356,0.21045210755431476,0.061201108366566934,-0.8917943581146495,-0.23409106266502328,1.4919205986025388,0.03809840603066791,-0.15545909277926917,0.31316583152257405,-0.9524719876870587,1.4765625
-0.026603146630836835,-0.030085974267836203,-0.07726950797858126,0.02011160699781817,-0.02525448612576141,0.04750703681091544,0.07943995852176346,0.826799248050255,-0.14568900294636122,0.9729248202924257,0.0013474660807799438,-0.05085234322613963,0.22671193706862766,-1.8197667117864702,1.484375
-0.03335966551088986,-0.35803267740541106,-0.09685033471776948,0.16502957775282523,0.020309398648139333,-0.178316848025416,0.02856095878251476,2.012988552908229,0.08505074245461039,-0.4867979409519753,-0.04123659315911567,0.11187776387412965,-0.07441676950425324,-1.1550500061341071,1.4921875
-0.023516582884677173,-0.39705595272950045,-0.06798271152044484,0.17930299924424373,0.03827412285827232,-0.2333041884874517,-0.012156634258489308,1.856649849120601,0.18142720897796716,-1.1179720970599312,-0.04849174320802147,0.1581065785835017,-0.2151182051652281,-0.2979192501128233,1.5
-0.007307800066269238,-0.203248681047345,-0.020615808811679577,0.09027148842345047,0.025761591347557632,-0.13203829655619317,-0.02187133105634927,0.8144251844918965,0.12416347984693153,-0.7804139592185394,-0.025831075328594542,0.09275510062210701,-0.15753379450352406,0.2014063324328861,1.5078125
-0.003284482922208698,-0.06302208745838585,-0.008916287479983456,0.02807682096640616,0.007652915664055226,-0.03848043182184749,-0.0038425303467872203,0.27592357483556373,0.03288628738559047,-0.20493902722487992,-0.007867364961903628,0.02605793498392936,-0.0401117223574648,-0.0005893191202178893,1.515625
-0.014093071566773033,-0.12741087608023519,-0.04054966107656563,0.05927716639362599,0.005434791674555791,-0.05793822878866594,0.01700710092983334,0.7742598399917723,0.016844433333151942,-0.08352332213794963,-0.014312767242147357,0.03411863564558537,-0.0059581995019498705,-0.5625505912909674,1.5234375
-0.012572958893441658,-0.2192500659688469,-0.03604469778023306,0.09889370134416485,0.022193607211795988,-0.13016121895597882,-0.008346833049342868,1.0111672457543974,0.10365869404764455,-0.637978214664062,-0.026944922309923142,0.08823731650473389,-0.12378600508849497,-0.12680259501074323,1.53125
0.01740905716818118,-0.08706907216325563,0.05173195894283924,0.03272869275424492,0.035942314496956125,-0.11068382814375048,-0.07654959885104125,-0.22924178228373684,0.18730428874025076,-1.2201322655301479,-0.015325278430772698,0.09125760242821873,-0.2706996984365336,1.5948685132046603,1.5390625
0.04436741766764119,0.180518248666019,0.1305815631384927,-0.09164798235692305,0.024047807075894746,0.017351702182506746,-0.1048241876087944,-1.7971957425778424,0.13786060830675997,-0.9505888722216982,0.015083923131435218,0.012494631981169764,-0.23623584626692007,2.6160435604819288,1.546875
0.031239883327407663,0.2999808689427338,0.09205216096940416,-0.14010438122652127,-0.010914638528024679,0.14061128584028765,-0.03556016127262727,-1.793683792755735,-0.04740724026854358,0.25017001134876454,0.03379401228777638,-0.08597140480533172,0.026728986549926993,1.2342499207253788,1.5546875
-0.0014001277852303026,0.2973823480655191,-0.0036082973547580137,-0.1297440193301974,-0.04893774215311935,0.22437505631961255,0.07004799898508406,-0.8723988616135131,-0.256691392473906,1.638185754992871,0.04006666782937681,-0.16659451562097527,0.3450524537182195,-1.13858786985514,1.5625
-0.0028405441443130853,0.35251712225423354,-0.007890722737268506,-0.1532433161632905,-0.059592233017198994,0.26902061633042773,0.08692814000317005,-0.9985170525294227,-0.31182391504855805,1.9947307713598794,0.047689540435348114,-0.20029256595209907,0.4210674705989647,-1.4363043403084919,1.5703125
0.023907716479083692,0.2960216605699026,0.07051965862917817,-0.13603109673367222,-0.01884545122999149,0.15674855500414647,-0.0126640118516733,-1.5745624902404693,-0.0910028936984552,0.5447950714749799,0.03465007877202216,-0.10203540433493634,0.09452556590506923,0.7167974274015434,1.578125
0.023538724804689985,-0.03305591773139574,0.06965724302515021,0.007515727691595493,0.034365853550021384,-0.08665771674049068,-0.08448335997763373,-0.5649402705080158,0.18183805529563118,-1.1955663420615679,-0.009335550008003868,0.07712549404056392,-0.2705440475446153,1.8513459069488796,1.5859375
-0.019477149510832292,-0.2527204791683966,-0.0562513421196197,0.11527447840496508,0.019477909147264685,-0.13673133503572743,0.006770642126482761,1.3049885541677837,0.08671904140486916,-0.5207303336530479,-0.029976078525233946,0.08907240604133393,-0.09315353691347536,-0.5134906049771953,1.59375
-0.05235610795012903,-0.08617720450644367,-0.1527140714382578,0.051866864296726274,-0.04643220020581368,0.07336433430360165,0.15074897515151334,1.7185578676106767,-0.2656332422914578,1.779982053122823,-0.0009738475626517073,-0.08485403711553582,0.4172123140066092,-3.5012242601695736,1.6015625
-0.03777389255812796,0.005192357086482627,-0.11004758763739714,0.007984023519209894,-0.044153248144643664,0.10287615078993845,0.12355778946649747,1.0333169501490413,-0.2474412506295842,1.641618523882198,0.008282536874609328,-0.09816834216634861,0.375995665252894,-2.758734875269501,1.609375
-0.006972336645531987,-0.2868411541506753,-0.0195920231413958,0.12669701253576401,0.0397699698933505,-0.19500088856722955,-0.04153811284464027,1.059036082558061,0.19649327003315978,-1.239579964386951,-0.03710524570265812,0.13922655231172829,-0.25457915802676395,0.5213477260911938,1.6171875
-0.0019352053585646063,-0.41559656988417376,-0.004733264828348802,0.18139714366716983,0.06672221414434248,-0.30387309023284814,-0.08650540962874897,1.3090226198016157,0.3367052001834922,-2.143665689153854,-0.055359119386094814,0.22240785429069784,-0.44842565232033,1.3436076407373092,1.625
-0.014031995349055314,-0.05884851704952108,-0.04040357173281805,0.029198788852833973,-0.005700682116148647,-0.007058918063918584,0.03210460279325505,0.5632364430063321,-0.04030886375133154,0.2790456526784064,-0.005093350972508491,-0.0033087397036766107,0.07055794543084874,-0.8002846357080133,1.6328125
-0.009977554650568574,0.17408172529990787,-0.028673998307215533,-0.07352876584347304,-0.03892560344796556,0.1553676709687462,0.0706373608691906,-0.25779711243888814,-0.2089263718321112,1.3482722164142849,0.025282746080207964,-0.1206173801455194,0.2917045586110895,-1.3281468355373138,1.640625
0.014701671177623861,-0.0515217628910749,0.04379085792916652,0.017944761142710573,0.02694017798515045,-0.07709210812295814,-0.059805346419492714,-0.2622727444805577,0.1398510053168923,-0.9150538734373521,-0.009978434947610129,0.06498206308618988,-0.2041809844716395,1.270380081738726,1.6484375
0.034157469460712526,-0.14908441095612082,0.10086502962287754,0.055103227073614126,0.06579667389700997,-0.20083588418156226,-0.14482020591471284,-0.5095913287551315,0.3475902227127422,-2.2715865298197726,-0.02703218217760819,0.16737098085891983,-0.5052033186536036,3.036581691677248,1.65625
0.029114619514947305,0.1471233165882867,0.08588354500724635,-0.07262324203590889,0.011552580726077089,0.032403046326701636,-0.06262921794018189,-1.2682977937812634,0.06701376030412924,-0.4747112029883551,0.013662814579405849,-0.007438303469044292,-0.12367965325312513,1.6223841631131986,1.6640625
0.01071681354627546,0.28547173482138394,0.031871057429502345,-0.12788428067205224,-0.03271012444942297,0.18370558962634628,0.027992044172365563,-1.1741865344891746,-0.16797633026246503,1.0542766360178533,0.03595733980987012,-0.12950789007839184,0.21255337209218597,-0.2108415398007761,1.671875
0.005058390805890968,0.10201715119494283,0.01542226264567106,-0.046377608663895536,-0.009454670644678212,0.062418639385296563,0.005663374885481413,-0.45871301308835777,-0.051082084015078986,0.318951598620121,0.012555589620295168,-0.04343568300355913,0.062738210862906,0.023439257976074955,1.6796875
0.014805829173985126,0.07754348615557985,0.04402955706089299,-0.038389755978781935,0.006050528025014922,0.01843910731342545,-0.03152931856075813,-0.6570488160284458,0.032545835978724534,-0.23068238317827558,0.007292414357660668,-0.005566192207361243,-0.06075652495691162,0.8225317415412334,1.6875
0.013971100203203433,0.20308095419847708,0.041510257302222804,-0.09283567871065987,-0.015421359887069275,0.11371555425906192,-0.0009456847279896976,-1.0153410103724374,-0.07795947828090419,0.47452435491732053,0.02427083263512106,-0.07627949163665039,0.08799847062535122,0.31874785222747654,1.6953125
-0.008743627485216328,0.022695542097094318,-0.024955888886197354,-0.007828204413876586,-0.01281243548475986,0.03957636751509109,0.03294831272828984,0.16769893291658364,-0.07410429691758023,0.48792673838894546,0.004736318283542879,-0.034524068953348204,0.10956863397777099,-0.7028642615037642,1.703125
-0.02952873288035206,-0.2881934421360751,-0.08568939213742631,0.13357077660187192,0.013408613960898486,-0.1365286040251821,0.031570476184239055,1.6937575605694994,0.05149654261473199,-0.27775179919576043,-0.03267733997730325,0.08340467931796061,-0.03395314364314104,-1.1220317693247126,1.7109375
-0.02935773695028643,-0.2218257453130788,-0.08524524836237131,0.10465476451119742,0.0028316663382676123,-0.08777748208076176,0.045738535803631894,1.4879375852770376,-0.00307150710251487,0.06896920503009327,-0.02384091167601759,0.047417066219115206,0.03879903970477106,-1.3433562929076317,1.71875
-0.020137642688342977,0.052381377495157797,-0.05840044211414489,-0.01748977488954239,-0.031035581780372763,0.09148169146331453,0.07661433821344066,0.3970992615232102,-0.17301800469451173,1.1363166048232793,0.011001862125996164,-0.07958653412680557,0.25521630550587615,-1.6390478115260196,1.7265625
-0.013135684479174266,0.11406034491525294,-0.03790488321273434,-0.0463901051560577,-0.032879087315847134,0.11890661020695664,0.06752308227704251,0.013434100056652435,-0.179076106067476,1.165555151489073,0.01784959505866807,-0.09579089326824693,0.2554386005356656,-1.3457331986845062,1.734375
-0.0009211088773706225,0.09375217554321003,-0.002085349417353421,-0.04091095007073961,-0.015134569278790647,0.07179996584718183,0.02325264033927219,-0.2665381170682542,-0.08248654752313185,0.5325943130514067,0.012648427379316159,-0.05397936466448653,0.11253402023369402,-0.38072040723745615,1.7421875
0.013934642894784827,0.1452953244707836,0.041411661981557296,-0.06750850548213623,-0.0059779966096136445,0.07102957904893892,-0.013641264196057904,-0.8382195875932447,-0.029378817907326157,0.1679963720238576,0.0165226557057823,-0.044821411575587874,0.023923977981437368,0.5223951823514521,1.75
0.014001093149149092,-0.010275243582051412,0.04170150793944137,0.00014306024850905562,0.019425173077102245,-0.04463979208996922,-0.04835252386989235,-0.36764288406099516,0.10068034729679272,-0.6663190773890112,-0.004313333309016159,0.040555079060405765,-0.15127089437392074,1.074173210552432,1.7578125
0.0009480742760195538,-0.3363524466665106,0.0036637818967968933,0.14579036785783445,0.057132607331674336,-0.2523708345870769,-0.07823337825817415,0.9872897126245419,0.28865603740695917,-1.8453081450556095,-0.04530240346908305,0.1862776173609455,-0.38811075105907683,1.2704749308044714,1.765625
-0.0035366856884749935,-0.3056299196316789,-0.00950477297615544,0.1337653412487272,0.04684830095363524,-0.21779418067737266,-0.05682632047767645,1.0193313942960147,0.2341554240359534,-1.4881340664359382,-0.0402824416445879,0.1582202944356114,-0.3093168070298756,0.8361235435107384,1.7734375
0.006879662131014942,0.08805869534467797,0.020748699338169307,-0.04054250918043279,-0.005008283951432875,0.04697412050636197,-0.0033378569386387897,-0.46724897933638804,-0.02751343410472694,0.16465837758244478,0.010283815484030094,-0.031066151859425656,0.029292691530297343,0.2092513595128375,1.78125
0.018729371052545046,0.2366978060922777,0.05538464973882531,-0.10867920491767605,-0.015287468158493519,0.12610022053371342,-0.008894574911634366,-1.2500334621399252,-0.0752286450366301,0.4481696017401107,0.027765968456867775,-0.08263549532701939,0.0790074007777801,0.549223520245625,1.7890625
0.0211331818904177,0.02023064747391355,0.06260313772453202,-0.01521901431130954,0.022784890778420216,-0.04082516578326613,-0.06477150993254492,-0.6603461568622355,0.12132433211773817,-0.8095859569079698,-0.0016829564556919833,0.04188020348102336,-0.1872756590183768,1.486538993206109,1.796875
0.00792141994284626,-0.08401208683725077,0.02396810745065241,0.03385237786303758,0.024205388638945034,-0.08334690733971316,-0.04494886625932964,0.02550524204316066,0.12309419308249395,-0.7970697789990638,-0.012930689403107092,0.06570351877741712,-0.17392622626093507,0.8893137957328995,1.8046875
-0.019653907345350156,0.04617717334321351,-0.0569438332222353,-0.01504185689152667,-0.029482252531977948,0.08580962066876574,0.07364743959510607,0.4016287063209577,-0.1642777830516251,1.0830256724894487,0.01011236700748163,-0.07493753684401444,0.2434368109320354,-1.582224105826561,1.8125
-0.03577139079760727,0.11308789467433762,-0.1042260901525517,-0.039641720707072156,-0.05936711166063197,0.17781868861223138,0.14092391502805682,0.6493746671971583,-0.3247000465865242,2.1328366313520637,0.02235343476416685,-0.15216325456784735,0.4769979020928752,-2.9948067590235183,1.8203125
-0.013965112332490395,0.06246533207021801,-0.04027817390784675,-0.023745669940955883,-0.025399260807945762,0.082933781438089,0.05870772926627786,0.1933930880037871,-0.14123771169883859,0.9261140826515485,0.01113813606896504,-0.06961634784438497,0.20557008487662481,-1.2253225908257668,1.828125
0.021445516075235642,0.011927994680111341,0.06350576433671175,-0.011564520110979876,0.02461324975204142,-0.04768736557971512,-0.06775626914520712,-0.6425882968069893,0.13039165633649363,-0.8648979784414326,-0.0028758143107902347,0.047247850437007036,-0.19960991951047205,1.537980152665261,1.8359375
0.020200513654438465,-0.07505003640366648,0.059865310593622906,0.026897662313911025,0.0373453385631423,-0.10911652575012608,-0.08299806392652896,-0.34263486221834516,0.19518238921208322,-1.276031764281045,-0.01432720087582064,0.09186698531404729,-0.2847176699310318,1.7558047417525589,1.84375
-0.011657715953476524,-0.12339602069802828,-0.03346798703553442,0.056925673891651395,0.007632348981020218,-0.06135860619748362,0.010006142104951701,0.6944965574867864,0.029298130656746964,-0.16640964291961355,-0.014307692521082526,0.03811690859996622,-0.025105985253975335,-0.3976924696722929,1.8515625
-0.02023561081448286,0.040350430339686404,-0.05865706122741371,-0.012247095633623637,-0.0292393481933858,0.08281553784411609,0.07434492736511122,0.4350612304688208,-0.16334111308332153,1.0744847169784266,0.009442678552020063,-0.07332421023541613,0.2429319004571155,-1.6020112971187486,1.859375
0.0035575852038532596,0.17932836389608806,0.01101516382544951,-0.07963888782468675,-0.023863254812675556,0.12354591804240318,0.027777826610443302,-0.6532263853573802,-0.1255547587404293,0.7935114606203566,0.023252215334301496,-0.08964435539522618,0.16431193584750037,-0.3567436705585541,1.8671875
0.01626122067093323,-0.04813973052238194,0.04837005048169663,0.01599153443704344,0.028236024902940065,-0.07871247224825823,-0.06412071255447231,-0.31633909318978115,0.1470839749811415,-0.9646761360256029,-0.009829880089358778,0.06693455931722585,-0.21590472019375795,1.3726567742644626,1.875
0.004367617869873783,-0.3079052292131428,0.013661302684409472,0.13260121280933904,0.05659697102991958,-0.24031490481959694,-0.08312625497764765,0.8063523468714459,0.2874488376014799,-1.8385760533508404,-0.0422293338268105,0.17932422057378128,-0.3900319955835667,1.421139845830322,1.8828125
-0.003810220294338831,-0.08274183174802269,-0.010433318366436382,0.03670376725791756,0.010238882744494134,-0.051622541979323935,-0.006505321406052956,0.35047299516904945,0.04615034958745683,-0.2864938138584789,-0.010389029229535255,0.03550738967061174,-0.05716995393020514,0.03003579797703001,1.890625
-0.0005009423162449566,0.30541663982115586,-0.0009669124494649958,-0.13344229234124916,-0.04916501747414989,0.22787799302906586,0.06891858430139554,-0.9221029130150057,-0.25713258494547814,1.641466356420954,0.04095120824638681,-0.1686763466224238,0.3452210897740316,-1.0977777941414613,1.8984375
-0.0004127148375691196,0.2364765059781791,-0.0006808660018952364,-0.10338126748796525,-0.03782984323299811,0.1764631119071046,0.05329866234631208,-0.7148524053878483,-0.19895744439130328,1.270823340912081,0.03169172819825754,-0.13075164989853252,0.26705215847233826,-0.8487541600680968,1.90625
0.0005422574048284766,-0.062465737441520966,0.0022731317013019387,0.026664991172661974,0.012028930776247117,-0.04794884981458248,-0.01618615094792778,0.16749670322250476,0.057123511416474454,-0.3636398871487037,-0.008569378536419238,0.03524977762183141,-0.0772060316158308,0.2742599731799921,1.9140625
0.006593588789715646,-0.009343806927216144,0.01995379140430523,0.0017950687253880143,0.010485016773222007,-0.024365835859072364,-0.024020359519226823,-0.16298491198763812,0.05175089830427813,-0.34080194264883534,-0.002701836748621391,0.02140689170266958,-0.07689893579134224,0.5281765882463277,1.921875
-0.0022034146318695284,0.21773640765492766,-0.005956271278597663,-0.0946796300109221,-0.036918125576970204,0.1672823066938714,0.055084403539194714,-0.6075735899363209,-0.19505779171219903,1.2464727509358229,0.02950754243138474,-0.12493409585419273,0.26439125498536103,-0.9132996330773386,1.9296875
-0.025521956688922674,0.1026994271355239,-0.07418816194394688,-0.03791039669623394,-0.0456283943140864,0.14298899772087237,0.1053880313253323,0.3936994798373526,-0.24962684258485018,1.6337494350130863,0.01885144124461878,-0.12054787685536732,0.3648702093902392,-2.207452765281424,1.9375
-0.026490562769826274,-0.24531374403610584,-0.07679935726550707,0.11411454253671344,0.010012544075258919,-0.11296277181074124,0.031165635824641914,1.478930072167028,0.03525332795792502,-0.1798114132802998,-0.027580197045798185,0.06751589738387918,-0.015916307600360686,-1.0503110429907492,1.9453125
0.0023469921355444346,-0.4477739393228803,0.007811409743924724,0.19429587957421565,0.07703516014760327,-0.33902959246428305,-0.1076869420270153,1.2885761979668557,0.3912988013500265,-2.497171340389717,-0.060591572658606124,0.25087485326974657,-0.5267965491078956,1.7677701887120774,1.953125
0.021350694241653905,-0.5241763533568883,0.06354245053717407,0.22225862862129728,0.11188329502874429,-0.4455922694852783,-0.18646506376513894,0.9889498241468935,0.5783694163341891,-3.721373847097093,-0.07468248376626802,0.34052844431433793,-0.79940879677727,3.424452804343981,1.9609375
0.016415070083604304,-0.48387192763276726,0.049098712990635944,0.20600328805878623,0.09949469842724687,-0.4026585140894904,-0.1614216191749902,1.003364504246025,0.5128544575175861,-3.295714527401726,-0.06823399391675153,0.3060452628789821,-0.7057210105639639,2.92266640098801,1.96875
0.015364496807901362,-0.026816699553663136,0.045775603747285,0.00693542404047354,0.023752361758764006,-0.06053956471528806,-0.056532652808923625,-0.3562687572268316,0.12360526248200805,-0.8125582849188825,-0.0067711876000253815,0.05310566833422417,-0.18342139965068815,1.2321807602662354,1.9765625
0.02042305863565266,0.7202625717419361,0.06010674546003662,-0.32024891833256836,-0.0921128147784324,0.4809730305073664,0.0928924742126653,-2.767174005658699,-0.4689424676019512,2.957084069024332,0.0922647150805341,-0.3432857525614283,0.6040060429435893,-1.037365466004516,1.984375
0.005078056202663828,0.9912872997907721,0.014917896430695786,-0.43408301161610724,-0.1544484608103958,0.7226794713970024,0.20308939612526486,-3.1617856938600255,-0.795155851457787,5.06282922488494,0.13169097315410644,-0.5303243813169287,1.0591968828018814,-3.114326069412087,1.9921875
-0.020529775196036222,0.4846729044801932,-0.05980873032974193,-0.2059387775196706,-0.10204757485198578,0.41374121780061446,0.17400948502015595,-0.9071199434583603,-0.5368687376753757,3.4583952151644852,0.06904179013021722,-0.31730710500485576,0.7438614655123299,-3.192629574145155,2.0
-0.020476138297601164,-0.10287597995852608,-0.05925885787558989,0.05029180163474582,-0.00613812223120037,-0.022912234310899903,0.043333820965353986,0.8770877597012224,-0.04474729403254702,0.32003783660269075,-0.009707500236406746,0.00462710832932284,0.08471937906585916,-1.1126940844678732,2.0078125
-0.000899787076558675,-0.1592022310429064,-0.0018812036343594228,0.06935152183407581,0.026146711893867167,-0.11622929313979666,-0.0329858162505727,0.5023638931038488,0.128886912988303,-0.8195104944947841,-0.021279561447475986,0.0847007208986384,-0.17147252932532586,0.5129874551101439,2.015625
0.003560225029643249,-0.02289272944850409,0.011051238236438707,0.008596213138006093,0.009148389761920433,-0.026510347260042325,-0.01727462128694993,-0.03592292233577489,0.043334584451103275,-0.28097451526130485,-0.003919773795804901,0.021184334303464423,-0.06269132926157261,0.35392992900651155,2.0234375
-0.006644069217132516,-0.23360838123207958,-0.01870656476173701,0.10330746033951002,0.03146902170867211,-0.15606901244806848,-0.03082690768390614,0.8888206707076503,0.15365597011860196,-0.9675930496419453,-0.030032540848782634,0.11093806897864883,-0.1982599364201135,0.35338925047209985,2.03125
-0.0069522829830245035,-0.5679750129630475,-0.01932739609734175,0.24921416800147642,0.08566286903048494,-0.403739661030511,-0.10405583572630514,1.912654915957357,0.43186904421323524,-2.741521959569031,-0.07475632668539084,0.29343560296036314,-0.5699691081286563,1.514357109122458,2.0390625
0.0010208555863440944,-0.46415863622270775,0.003999255184253686,0.20170549434421048,0.0781349362312046,-0.3477166652906113,-0.106946825534642,1.3742940206562508,0.39674244255482266,-2.530762008172259,-0.06248800004636234,0.25664758976114427,-0.5321899958063468,1.7302343500212263,2.046875
0.0006188936197008053,0.0014015390878619773,0.0024791678582250184,-0.0011918434381554429,0.0016914812055976005,-0.0008284068484365868,-0.002201348005233021,-0.02918690114211922,0.004267720025585381,-0.027546634456080018,-3.001499010129298e-05,0.0004548066456413735,-0.006275119386589329,0.05546209115808748,2.0546875
-0.004406542197536024,0.2377518475747826,-0.012432477558053039,-0.10275725861151236,-0.042796700987833634,0.18790654256796024,0.06670545634038638,-0.6074110104506878,-0.22619216849154664,1.4495607679217808,0.03267331987951641,-0.1417455057824246,0.3084349322441677,-1.144953846272354,2.0625
-0.0027358162273225708,0.07816720651685602,-0.007402091585049184,-0.03355136162514565,-0.014760817759116418,0.0648256541700831,0.025806716677594398,-0.1693844888702648,-0.08155001845917946,0.5244044252750131,0.010945067458571428,-0.04999243272909473,0.11314027805811137,-0.4566395212734068,2.0703125
0.0006690174343480518,-0.05332312195914999,0.0026989890612308513,0.022776243006265625,0.010735298972248218,-0.04179469892935135,-0.01456713775656672,0.13559858633313884,0.05081302928952215,-0.32350730823943397,-0.007382728389912998,0.030762433990072075,-0.06813658212796447,0.25607368529290886,2.078125
-0.0005866556217348664,0.07846903764397443,-0.0010863548631403772,-0.03444537440817293,-0.012246287786181814,0.0596113030269889,0.01874742226144245,-0.2291002300274274,-0.06774691358490564,0.4358547457988533,0.010530440469324198,-0.0445768508115044,0.09174889059508837,-0.30416645715363094,2.0859375
0.002321378999454314,0.21363412913640545,0.007301017728822659,-0.09420110309488973,-0.03088206942293569,0.15249930834920594,0.039343108475082385,-0.7211124750648462,-0.16242888533949057,1.0330539340944682,0.02805794646140917,-0.11135175060550384,0.21491813720869085,-0.5710252216357451,2.09375
0.014197461002425825,0.17176962998928277,0.04213387096535436,-0.0792495745748308,-0.01004626564718627,0.09011603297197665,-0.008575862082436526,-0.9262987475778418,-0.05062791539757136,0.2981108696255033,0.020034901193690946,-0.05854844843999704,0.05127814799866069,0.4445576998322909,2.1015625
0.019072237762726447,0.09270426976497818,0.056526544456915594,-0.046206954469465086,0.008622210812610071,0.01849706087044801,-0.042034096041914416,-0.8225319866141916,0.04741989864691324,-0.33427402476127005,0.008454460980344787,-0.0029766058014763026,-0.08574376577792396,1.0805881769351215,2.109375
0.004813442573872858,0.009235297109096189,0.014827274139122056,-0.0058835910296785345,0.005427251764140056,-0.00598738901844823,-0.014193573120172364,-0.170251812053798,0.02519833398346986,-0.16660185969028135,0.00018680767273879036,0.006834400348909524,-0.039376596722626826,0.3340748840056461,2.1171875
-0.010375419498716544,-0.1669724134784098,-0.029606576554633748,0.07523236193983505,0.01620584601417564,-0.09689316909709375,-0.0038570290920586685,0.78977779773713,0.07398470550061534,-0.4534515072138402,-0.02032419379653048,0.06510413469350183,-0.08708149588120574,-0.15370034725554155,2.125
-0.005246505621204746,-0.24025979319359864,-0.014583224749010732,0.10578553331774032,0.03414238576731807,-0.1648089443528463,-0.03677017140875524,0.868978848037887,0.16803650370209028,-1.0646632669307208,-0.031198968351507136,0.11814295120900112,-0.21910141665004862,0.47879342943345377,2.1328125
0.0019722755782156116,-0.0044318679738936835,0.006418960220475106,0.0009511339411003266,0.0042159155180154315,-0.008663674408099826,-0.007893899640688025,-0.049305765142670155,0.01763334181190739,-0.1168637597856132,-0.001089496793688536,0.007139074339267071,-0.025734348260001046,0.17470743432341732,2.140625
-0.016358096756587844,0.23420193290854352,-0.04741039210409269,-0.09782553443351566,-0.05619215663216925,0.21664488641639545,0.10468661319282559,-0.26134497669051976,-0.2999424492334433,1.943403012448559,0.03459635730553911,-0.16965989554922922,0.4217853660856467,-2.002035161312953,2.1484375
-0.0339914417697831,0.1306595902648388,-0.09900526642000257,-0.0475032672482571,-0.06000737499549912,0.18591111837321553,0.1389926284654713,0.5471712670841159,-0.32704030657342964,2.148542470330702,0.02428363246533627,-0.15724384116066928,0.47894534687657575,-2.9213008429509912,2.15625
-0.004896034003643727,-0.04043687225564099,-0.013665424277095462,0.01900087738918917,0.002144028602021317,-0.017722482635531816,0.006280879390702818,0.25400371372072267,0.00417753771251211,-0.013533799064025019,-0.0045921809222989034,0.009737989152210651,0.0005419169333613433,-0.19560686959507168,2.1640625
0.04502127331638149,0.06066190284628065,0.13252551846536093,-0.039303530874707546,0.04437854551944851,-0.07368703658034824,-0.13363311665969918,-1.449730686589692,0.24225493725319067,-1.6182496797243329,-0.0011888276218202333,0.07990639333042261,-0.3775598283617286,3.087206740481017,2.171875
0.045581275473847806,0.14852269742778654,0.13412772478071108,-0.07805082734076438,0.030649575833184606,-0.009628588374845847,-0.11579830790397182,-1.7341119438612258,0.1721408986745164,-1.174459431744867,0.010548577233065537,0.033006500906805444,-0.2841932156445722,2.8166788325392864,2.1796875
-0.0014919538995120567,-0.09266733984310951,-0.0036378039458783303,0.04020917358868811,0.014514684282230031,-0.0648655336314284,-0.016101826442941905,0.31406969096472254,0.06908524941924522,-0.4398678575373619,-0.012118031980732615,0.046519083635494396,-0.09051525457786372,0.23290998432524646,2.1875
-0.030481600497816376,-0.34715983520801413,-0.08843404453430148,0.1593215966496914,0.02186637528939055,-0.17767241506008002,0.021662602630415813,1.8987478285504467,0.09411212773197772,-0.551484882241181,-0.04032460932812936,0.11299900657058322,-0.09015162891017181,-0.9855533338957254,2.1953125
-0.026149485059066224,-0.25242601412590565,-0.07582190419504733,0.11681615717537316,0.011507732481955708,-0.11874773544240504,0.02853944166256464,1.4907184994214213,0.042708689745687686,-0.23100435808464265,-0.028555107337745772,0.07211951307661042,-0.02675747203154917,-1.005407575503066,2.203125
-0.02418704895893542,-0.004149688548733241,-0.07022446661415718,0.008087633925519712,-0.026667462553498868,0.06037266303916436,0.07731066107582464,0.6810963909718714,-0.15208034685465371,1.0085276035225346,0.004300455785398078,-0.05889113921252973,0.23213325359313247,-1.7366382636065298,2.2109375
-0.01950608690822621,0.09588519047332479,-0.05653627153542816,-0.03662110097477125,-0.03740376434223052,0.12209378298942238,0.08429319523109398,0.2457591947238113,-0.204747487525357,1.339126148918911,0.01673593360105351,-0.10182683580502382,0.2980047468251542,-1.7426949242277432,2.21875
0.011947992073133774,0.06057139754178267,0.03568376516246095,-0.02985020438909099,0.005501323880820344,0.012945814875792773,-0.026015153044769403,-0.525573854649284,0.029065784780372597,-0.20097502885038235,0.0055443136233688005,-0.0031134973466248935,-0.05178167426233505,0.680610924580995,2.2265625
0.033103765472516214,-0.04486937564292955,0.09773611139572795,0.01010663785801851,0.047637721231109015,-0.12085039414581311,-0.1183549696024315,-0.7957351231576109,0.2540715281189031,-1.6708957190778253,-0.012910759968610895,0.10800139554439177,-0.37856351216941114,2.5937603142409253,2.234375
0.003199090820570882,-0.16516953587416855,0.010156259862155211,0.07067147952099796,0.031951702035552344,-0.1311888674479136,-0.047672872451720597,0.40534739378037765,0.1602952028211363,-1.027074241513337,-0.02286772967004325,0.09844277580670888,-0.21857755682415694,0.8305726843842093,2.2421875
-0.028896051503504376,-0.0733407365499887,-0.08396872813599672,0.039509196103067676,-0.020897243807335576,0.021562276811364016,0.07727754977888618,1.0226433436212645,-0.12484054233552916,0.8413512539891522,-0.003966694685817444,-0.03288790274046045,0.20075116328712117,-1.8379928599208646,2.25
-0.0013956897781145833,0.2767868226848605,-0.0036133140125136423,-0.12075099691001462,-0.0455802152886253,0.20912337237411777,0.06550798270933482,-0.8096920026452123,-0.23951550344144173,1.5283206020474063,0.03729570719988971,-0.15543728861012648,0.3221393499663591,-1.0657152789813262,2.2578125
0.04561814500219104,0.44423069331118714,0.13404474639889286,-0.2068187520257679,-0.017457356274945716,0.20969507673368948,-0.05040588944756256,-2.6317463095450724,-0.07477498485238965,0.40339595436268527,0.05007438774719982,-0.1286619131469264,0.04652354148956209,1.7757296357981642,2.265625
0.039505137118834494,0.13938178033468562,0.11633191142958926,-0.0721450205927558,0.02506499238144029,-0.0006619085352979238,-0.09822330168510643,-1.5344173991668864,0.1409326682835512,-0.9601838674950784,0.010472701469862523,0.0229195511758212,-0.23477010290273653,2.407126724574148,2.2734375
-0.0019296805798760146,-0.19167338483132496,-0.004870323845486109,0.08390253791096694,0.030243460130172414,-0.13763163695192554,-0.03684639788799123,0.6293830212470626,0.14973369923465707,-0.9478949066826335,-0.025405051356879822,0.09982772760889207,-0.19750157520303255,0.5540881484623894,2.28125
-0.01580809718706658,-0.0413066091894375,-0.04564031279229461,0.02232942136044843,-0.010600583979162038,0.010451429137871308,0.04171080742045317,0.5605595206987477,-0.06592838279073723,0.44969405187931877,-0.0024307180376181756,-0.017460171160446097,0.10754426923045687,-0.9886050527958518,2.2890625
-0.003760915539618733,0.2978975688792075,-0.010550837029710528,-0.1290469192787677,-0.05171693349688831,0.23078308397705696,0.07780465120694018,-0.8068010373878595,-0.2719266998698921,1.7424437823121177,0.040563673111365536,-0.17282321286878996,0.368844378854479,-1.3088814921473315,2.296875
-0.0077421569829548365,0.21119065539835602,-0.022137086361381737,-0.09040247958272166,-0.04232209742514233,0.1770931798578325,0.07155283212544808,-0.4329587938424552,-0.2254114248382498,1.4509118161316004,0.02981292602913039,-0.1353939974377882,0.3110478736243291,-1.2958094255551875,2.3046875
-0.02563335212014382,-0.22669510613831348,-0.07427494328424881,0.10537709426989066,0.007925933351932337,-0.10093898453627531,0.032627534347614416,1.396621701800525,0.025061927788122506,-0.11761531985930551,-0.02515805931197796,0.05923096437553155,-0.003204941282504679,-1.0558956669964896,2.3125
-0.025368623464442304,-0.4268879774035579,-0.07339995979963614,0.19267525015441347,0.04084424415716362,-0.2503763413064059,-0.01267639589525407,1.997639738820076,0.19433401065265596,-1.196992434267485,-0.05205279583618049,0.16949297459700136,-0.23018361832880072,-0.329178955736558,2.3203125
-0.00739053481265832,-0.26722502540471765,-0.020842532298542306,0.11816863447604493,0.03601377774226284,-0.17921440843460784,-0.03579579598287836,1.0108113874164248,0.1771078114786453,-1.1164893592381582,-0.03437631846283643,0.1274605038119688,-0.2285029419520426,0.419050007159967,2.328125
0.0024056662372252528,-0.15247897821166664,0.007809310660441066,0.06542808914462396,0.028889182948097624,-0.11987872666514332,-0.0422239257042774,0.38858451656551224,0.14441587961577554,-0.9255061096407435,-0.02101759237948873,0.08943677452957102,-0.1963714656606501,0.7290034882014357,2.3359375
-0.0020482804979465707,-0.19386436805756307,-0.005197492609702967,0.08468650057077122,0.030405622002323093,-0.13894870616987479,-0.036856593695764134,0.6385245027799604,0.15015254976077097,-0.9567118362643845,-0.02564813139064108,0.10088975511903762,-0.19860923793942287,0.551103195061489,2.34375
-0.00550258873463914,-0.10721436055031065,-0.015395361360910756,0.047877574349952115,0.012201152127964228,-0.06545103794726592,-0.006311862454366029,0.4717874198023813,0.055298519042823374,-0.3466443185248382,-0.013339557822201501,0.0446723408276851,-0.06723169899658049,-0.006382998714597129,2.3515625
-0.00017837286900641177,0.10000674685354155,5.377856870290167e-05,-0.043907585742936156,-0.015296869563898419,0.07451908899041619,0.022338605768203214,-0.30629725721494067,-0.08354155177584678,0.5314245355414398,0.01332739434732111,-0.05539592119644038,0.11252695103654997,-0.3498144682294398,2.359375
0.007627841730575512,0.13347409664330587,0.022923904979184635,-0.06062913760944886,-0.011516214345909314,0.07882756376695638,0.004251999886808618,-0.6259220185091884,-0.060835864525355055,0.376164467262322,0.016221825689252147,-0.05402030141585506,0.07281722795494844,0.1015012682994434,2.3671875
0.01272426924012661,0.07501469058604819,0.03791743882263669,-0.03655424985321341,0.004036205961015726,0.021978442658517835,-0.025404673796572328,-0.5906741532901146,0.02128031457825103,-0.153731415589573,0.00735716832971104,-0.009204471140063899,-0.043321546234852536,0.6797603768111203,2.375
0.01807951018378326,0.23831683730773462,0.05350264549701037,-0.10927454858793469,-0.01629678314813419,0.12922271985240572,-0.006578302577553495,-1.2364897098899752,-0.08053412901459993,0.48774307744660755,0.028139054500242146,-0.08523275542158262,0.08670939226646626,0.49370388785006886,2.3828125
0.025101961221086516,0.4600428907884174,0.07393501684665797,-0.20792063575912037,-0.04418017371138813,0.2754413921787931,0.01985328997689187,-2.1065122608652396,-0.22049586512038194,1.3683410361770307,0.056399240112797004,-0.18898397632092365,0.26613998264361405,0.22381068243549113,2.390625
0.023330583546745345,0.34653013442226555,0.06882976357245876,-0.15791230388483032,-0.02774568296436342,0.19570140936656455,0.00046228217512874473,-1.7122829758262403,-0.13695376537902373,0.8377309908960832,0.04154616587243228,-0.13121006468067958,0.1566607797907079,0.49673757511239475,2.3984375
0.0017533760830877095,0.022442166409464736,0.00581322816024956,-0.010568492909832285,-0.0003342824828108688,0.011701812868173763,-0.0012653659655867326,-0.12459887012892432,-0.0055916577414511625,0.03550188497258546,0.0025406787711064727,-0.008033192008787146,0.0061054538596060385,0.06662151665250073,2.40625
-0.026478062463240394,-0.13195508884825716,-0.07683328988702504,0.06460038950278899,-0.008454513396074528,-0.0286125714229268,0.05631927287719177,1.1336879577943477,-0.05941528273646407,0.4253200728007673,-0.012361081039418222,0.005342884802414388,0.11101577530688485,-1.450198647819887,2.4140625
-0.02947260813431237,-0.14090374972719077,-0.08561667061239962,0.06927601146321394,-0.010532056855331377,-0.027267981063158513,0.06407261182933367,1.2447723342899188,-0.07146073119514186,0.5063334594794441,-0.012938890024711752,0.00257342565391255,0.13036387030506202,-1.6384967331616562,2.421875
-0.0007350168649446929,-0.16947981337686355,-0.0013773411710537597,0.07366415450357185,0.028013172277685554,-0.12409864014000054,-0.035796486272838775,0.5284748756941637,0.13857302805325422,-0.8811453919475319,-0.02264471928235513,0.09057070662724047,-0.18466630186207617,0.5600751407693781,2.4296875
0.021523318772328402,-0.122634291090464,0.06383473570007335,0.04702039048955271,0.046613634387085746,-0.14793235811253616,-0.09783416108325572,-0.23614867220795316,0.2435755772047197,-1.5872834989528293,-0.020922960248321305,0.1211167966877478,-0.3513208131610169,2.019682564931102,2.4375
0.003967055932300823,-0.03966593280106228,0.012329543577977917,0.015772998098393085,0.012359180540981545,-0.04014425979294186,-0.02225086513814781,0.0020228695017925303,0.06029230735444004,-0.390133636357979,-0.006210753643050373,0.03161879516489285,-0.08533573930117297,0.44475838546149365,2.4453125
-0.030136238838150354,-0.19543006532688267,-0.0875423721519865,0.09320564881297821,-0.0025021782468480007,-0.06606954795617763,0.05423393717770828,1.4279827132389824,-0.03065744622693232,0.24310561940220676,-0.020091742381262784,0.030970854283513698,0.07630133764501772,-1.4952259724106638,2.453125
-0.033922619713559504,-0.4414550101396973,-0.09851561392469328,0.2014780691939634,0.03310250040137172,-0.2387867563914974,0.012023266531897028,2.281025102298857,0.1503572302014877,-0.9080985379652294,-0.05226856154991191,0.15594698020283262,-0.16166398317365613,-0.9027014550672998,2.4609375
-0.00818854776352422,-0.29728466678492044,-0.023187466209504314,0.1314163456057174,0.03994791947528791,-0.19942714966483172,-0.039710856892217726,1.1236836359099018,0.19658529675308073,-1.2449781624873844,-0.038216040156906717,0.14172147591900483,-0.2534437394869801,0.4680318577547976,2.46875
0.0062878515530964685,0.12015908811482641,0.019020604111694688,-0.05454763076062395,-0.010971971674861742,0.07243999394158201,0.005767904314725781,-0.5491042241755029,-0.058349394930632514,0.36024664837856046,0.014741520269559482,-0.05028973014501659,0.0713407797009463,0.052445697858946164,2.4765625
0.001751530653803522,0.24349038454882746,0.005690919899888461,-0.10695981749896691,-0.03636402528025749,0.17591035813975672,0.04781124775471751,-0.7966692548296469,-0.19049925784330615,1.213423958573146,0.0321798604922075,-0.12911483012533917,0.2536430044801349,-0.7138979672315936,2.484375
0.009867549234486546,0.11460691643600736,0.029545789205397764,-0.053037069751572886,-0.005786905990967374,0.058890649689313325,-0.007277119665403571,-0.6312527837708813,-0.030102518097315335,0.17877692944228016,0.01323530983351983,-0.03804214404921881,0.028995934525680157,0.33168617201174155,2.4921875
0.029996187032850143,0.20767389285794108,0.08842959528212968,-0.09925171580350067,0.002740515144705953,0.0751479780126386,-0.05217411142462051,-1.475680943227183,0.022269479686508664,-0.18666491997921394,0.02155651396991778,-0.03820765760668691,-0.06495707203731294,1.470262725132177,2.5
0.02278601032826066,0.39133509221746127,0.06716016462160322,-0.1772376620967948,-0.035690713072377075,0.23050039289431465,0.01202113937166977,-1.831471614827026,-0.17809756546781425,1.104290775252026,0.0476050512107238,-0.15681519394432356,0.21196398963464597,0.29554516437545786,2.5078125
-0.008567216571829734,0.23096705786195246,-0.024599692334632803,-0.09851262352851381,-0.046476273768174016,0.1937721336104962,0.07848820765530122,-0.4682194246093656,-0.24700241568077091,1.5939455189979828,0.03253978877325426,-0.148057562519185,0.3411985039320083,-1.4250688694852043,2.515625
-0.011135161560124571,-0.02525406677415703,-0.03192268943390018,0.013797101617860024,-0.007742807459747435,0.0101863521444767,0.030085318235079105,0.3805658995425622,-0.04935630885821098,0.33419827166361443,-0.0012014356219421812,-0.014520612855361633,0.07951517173773988,-0.7063312573910232,2.5234375
0.020163453547073922,0.06129135445684548,0.05976585145661846,-0.03283406706235338,0.015000760213892638,-0.007826934517218062,-0.05245968725711672,-0.7586063685309944,0.08091044907958082,-0.550363933539118,0.004051803911460178,0.016750407167481784,-0.13169985627389785,1.2732144372250767,2.53125
0.02535254072451738,0.15352912700980512,0.07489566785374421,-0.0744976758966883,0.006063582865655899,0.04710208879176251,-0.04888065203549565,-1.1839023518316012,0.037307941504255905,-0.28057106626847195,0.015349734654211064,-0.02059142257411195,-0.07939328662946044,1.3258395886094998,2.5390625
-0.012380510388918143,-0.17923564456151778,-0.035511371610043065,0.08122480266707899,0.015856236276642937,-0.10071828587947489,-2.3517356725360885e-05,0.8829432506602224,0.07117142481025039,-0.4332683454348196,-0.021554227073911383,0.0666919537670002,-0.08054574481192053,-0.25466810760611036,2.546875
-0.03581866240344644,-0.4847151657104667,-0.10401736218044902,0.22100947554790729,0.03805745242553355,-0.2659462263560477,0.008410281923900217,2.4670172979913216,0.17493854273504295,-1.0553972104378697,-0.05771588069452675,0.1749000498809008,-0.19203547379905625,-0.8872668417767573,2.5546875
-0.01886529835392143,-0.2556718290964202,-0.05445539865823916,0.11643348760004392,0.02070519045283842,-0.14054342093889027,0.0041053567475249604,1.2970691896571755,0.09341480285304486,-0.5623586884714308,-0.030505648349053525,0.0921998938261806,-0.10254551757671716,-0.45722440775768525,2.5625
-0.003032257126393342,0.06630000451438563,-0.008247902355490777,-0.028343701233154,-0.013153664466922264,0.05685078441784387,0.024076440819476543,-0.12421536623505663,-0.07331486124770834,0.4746865185734013,0.009390849828610598,-0.04407392275756617,0.10225931342419331,-0.4378040205058931,2.5703125
-0.006172116118318127,-0.03710883654798742,-0.01741185540306362,0.017548919585794596,-4.740518757184239e-05,-0.011586152803293273,0.011345965332797,0.2775902032488616,-0.00757443001909509,0.05859374616027664,-0.0038074205139333947,0.004685671297134515,0.01754455096853436,-0.3040187094153532,2.578125
0.002920528208943625,-0.2049342012408534,0.009321271406573121,0.08801486577350916,0.038006576094526644,-0.15995823008342433,-0.055497983156498204,0.533352428421126,0.1913827873348288,-1.226431547324329,-0.028122064043194853,0.11928468951516746,-0.259950784524584,0.9499533186061284,2.5859375
0.022321969277053,-0.04633594432691774,0.06610016051350985,0.013368140965251666,0.03504087868023043,-0.09315817467897994,-0.08343476781223556,-0.4908239300160699,0.184598418891935,-1.2139064915181788,-0.010829644550895669,0.08109329841816733,-0.2735297705829017,1.8064100149709523,2.59375
0.011984382859629453,0.08565144658787678,0.035736405823200486,-0.04120274809180223,0.0013617719701698927,0.03198196637118399,-0.020504540298375524,-0.6026757954055777,0.0074073120072545495,-0.0662692251363871,0.00894704347839029,-0.01719441318510978,-0.023913661157651173,0.586604454722906,2.6015625
-0.019692852763998864,-0.023558807114634487,-0.05705333999386808,0.015380097386689615,-0.018174276922929958,0.034163552492421645,0.058336127348731025,0.614873668905096,-0.1067707673899982,0.7118190780556657,0.0007729628187783221,-0.03695452732043268,0.16598153925718337,-1.3408376096622319,2.609375
-0.022361427825775805,0.07898371837787274,-0.06494788454056048,-0.028526177745324524,-0.03802723596367547,0.11731449972954189,0.08977996290259369,0.377758825175783,-0.21004877561634963,1.3734352833744083,0.01505937750014875,-0.09958473448788181,0.30734128375709174,-1.8975464430780558,2.6171875
0.004506245772194877,0.4762780490955832,0.013585102713443186,-0.20919655552832,-0.07108538386848846,0.34156208205648564,0.09051269732256538,-1.5808103781573035,-0.36782909415115334,2.3382172282335754,0.06279597636569315,-0.24934768069708776,0.4875938252763993,-1.3360312781341883,2.625
0.01638162284635705,0.502021701406764,0.04840486894913112,-0.2236595105564037,-0.06125687186390393,0.32927127819566426,0.05754992071265025,-1.9909476822076553,-0.31178671450672385,1.9650746584493441,0.06379819192581145,-0.23359616701568534,0.3991078453981674,-0.557080994417361,2.6328125
0.006768453101450745,-0.03764989894064949,0.020547765397760383,0.014345884868309264,0.015376353852953047,-0.04628357068083585,-0.03095937096608168,-0.08203798039688086,0.07747325987315387,-0.5010866328504802,-0.006559712951616687,0.037540326121692315,-0.11090038009204169,0.646976819619731,2.640625
0.003172745135465973,-0.433599495040105,0.0102406706309287,0.18790512620890468,0.07566805874760947,-0.33081375927009643,-0.1071137238863383,1.2215710483140556,0.38526184354048304,-2.459620102691026,-0.05886477391449682,0.24517740550051395,-0.5189715735256762,1.7819099915193803,2.6484375
0.003850582000106854,-0.27118620524389575,0.012159259473307933,0.11677238558020926,0.04999252335354068,-0.21187841605928984,-0.07324990246359141,0.7086424596162542,0.2538200566336636,-1.6228407530417632,-0.03721269272619977,0.1579071636155727,-0.34370599505080424,1.2574677862540793,2.65625
-0.005484723445588927,0.0439479732203711,-0.015380649487774617,-0.018112171999332197,-0.012391928000255441,0.04685376987171125,0.027057326835786235,0.011962237311619757,-0.07044884171578286,0.4609625532328775,0.006938265545407641,-0.03820933972236826,0.10121811766492937,-0.5390015802961302,2.6640625
-0.005065331300935291,0.16046711352887688,-0.014281750644037921,-0.06902542777268139,-0.03091447887596473,0.13244589373096166,0.05153098020877272,-0.35315436201490175,-0.16572354978514728,1.067532317138322,0.022457665785702522,-0.10100085147586121,0.22773341267909433,-0.923391020454489,2.671875
0.018622455546465737,0.14134520425645564,0.05509315008286912,-0.06722193615865443,0.000139526392544568,0.05600803001537235,-0.02979467543310012,-0.9566550707253494,0.003504003210963227,-0.051219679449590196,0.015039890655622232,-0.030858596922120386,-0.026780975763693177,0.8725838529831709,2.6796875
0.027752964411971184,-0.038654340682297464,0.08198471210772171,0.008753656070150774,0.0403021019625326,-0.10173991341288839,-0.09944666780713014,-0.6652125235934209,0.21352608719536836,-1.4060314537107137,-0.010934398881045472,0.09072910751623764,-0.31830355050565495,2.177247867573398,2.6875
-0.0059598838912137495,-0.3732207713293495,-0.016554935084072082,0.16398612512916186,0.05511178732580257,-0.2616213572848413,-0.06398308487118759,1.2930613415264063,0.27511347649816875,-1.7450287053835758,-0.0488451287036847,0.18902030998224048,-0.36115184866462585,0.8989440329325783,2.6953125
-0.04209731331579652,-0.4328722016023065,-0.12242530562262505,0.20002559590381094,0.022145749717980202,-0.2109547622329086,0.04042220066394098,2.4840206746022537,0.09048430723172184,-0.5108736988739386,-0.0494504655276353,0.13072091546635145,-0.07200661743084442,-1.5298873283084364,2.703125
-0.034203298749018174,0.006231104915277254,-0.0996042506289811,0.006419778066458833,-0.0402291275027895,0.09427718357191921,0.11225032203227853,0.9291724371015863,-0.22598608794855335,1.4937614860062312,0.007731893365480907,-0.08969694122630181,0.3423725641445166,-2.5047825694121006,2.7109375
-0.0012574883949623278,0.3985756281408223,-0.003299250693611867,-0.1737268862886921,-0.06533228085922664,0.29889744129822193,0.09209434400815743,-1.1834614263797558,-0.34036347386765753,2.172067792838454,0.05352706586786062,-0.22147398223267348,0.45745409322579395,-1.4830863430391483,2.71875
0.01698550564017569,0.29552789416425235,0.050271547088238326,-0.13384217947562255,-0.02692596256226752,0.17435387161858962,0.009751540226024275,-1.3798257553818751,-0.13534815398699704,0.8383791596694972,0.0359871817215887,-0.11917949302505199,0.1620182428723551,0.21459815618380493,2.7265625
0.01892597558357756,0.07013516426832785,0.0561247630915315,-0.03616681543563154,0.01214804600709077,0.0019176181526243802,-0.04663302326920861,-0.7492878576921936,0.06591908781292236,-0.44778525137084385,0.00541745064507323,0.00901088423002373,-0.10991746812354079,1.151918476881675,2.734375
0.012369675513590583,0.06464741118635241,0.03689117843661555,-0.03202708168518624,0.005267294633213091,0.015229513329102285,-0.026439402054835505,-0.5499027547500159,0.027734637610657812,-0.19573938774135863,0.006051377731425096,-0.004513567741216911,-0.05143400379923579,0.6912128460540881,2.7421875
-0.0076150809934450135,-0.02502616906078058,-0.021650307403872818,0.012599592167243365,-0.0037056625898266157,0.0013791956087321876,0.018758766522269644,0.2809196527125995,-0.026922359114624497,0.18431093501981635,-0.0018630033782457388,-0.005706938496338253,0.045221079764137424,-0.4520547220510503,2.75
-0.021696751542909516,-0.26465021637813685,-0.06276146537745726,0.12100145517446255,0.018785067335240685,-0.1394778591001556,0.011361069831000868,1.4028335449002196,0.08238970117564456,-0.48869245107541176,-0.031089846489062215,0.0900549164708815,-0.08442966377345577,-0.6340902119162257,2.7578125
-0.00044361838596687023,-0.15274576643864793,-0.0005232242982011615,0.06631410873141448,0.025618577789133946,-0.11241360869469187,-0.033017347993909416,0.4688751627521432,0.12652535135160586,-0.8042526611797038,-0.02045180980419944,0.08233509624497062,-0.16849872541394903,0.5225805817714813,2.765625
0.02983753251095985,0.25910784892812444,0.08796057989680134,-0.12166376109111154,-0.0058350296625887515,0.11364469894208488,-0.0401346734328386,-1.6288838668315018,-0.021961344045496555,0.09202279250483456,0.028522933755665673,-0.06686269407400781,-0.0054353779093331556,1.2791426540227566,2.7734375
0.01828322892526975,0.23132463021026642,0.05410303749613911,-0.10633110817150691,-0.014916601230676618,0.12342299046479349,-0.008691544898342023,-1.2210294570768578,-0.07365639098486232,0.439951039152601,0.027150230800297586,-0.0807431614207471,0.07721476960557767,0.5335483357406474,2.78125
-0.017793992098420166,-0.2550662947175345,-0.05131311582807159,0.11576500202809684,0.021875976180133355,-0.14282885403316295,0.0007136294335740745,1.2656773553723177,0.09959415598150026,-0.6049563344906378,-0.03063980110807536,0.09464746538210676,-0.11237536618845964,-0.38286529049963663,2.7890625
-0.02345545352221202,-0.3792247191054185,-0.06781215027077471,0.17149219033096,0.0354277041637524,-0.22022210217862925,-0.008425424249165554,1.8006493275268618,0.16680922610514773,-1.0241273056920743,-0.04610290416727784,0.14827379347354205,-0.1956259782000881,-0.35701152513236833,2.796875
-0.004964400883326333,-0.00540664814344939,-0.013869068731094935,0.0034133721058877938,-0.0037714014429518737,0.008659483887234446,0.014449469901742309,0.14704698938590935,-0.02623375937169245,0.17543029381431544,0.0002132108077477683,-0.009908862834395002,0.04122401673040286,-0.32620016987636435,2.8046875
-0.0020259094447026196,0.17818899977836483,-0.005395112578752144,-0.07745107173404253,-0.030254107739860606,0.13739534586349422,0.045691156741689366,-0.4929850760962816,-0.16078768539769434,1.0285485828193857,0.024212362961788737,-0.10305843970649056,0.21796969312007602,-0.7605148834204123,2.8125
-0.0036895105020724704,0.07120072506549975,-0.010196624985122343,-0.03039986440305842,-0.01472175607097371,0.062489619860619544,0.027303349845477186,-0.12061290850395097,-0.08184902456648972,0.5296036614978894,0.010210794501775713,-0.04862394120142519,0.11422442794347584,-0.5053252581753461,2.8203125
0.013936355340564496,0.1677961792360429,0.04141460849209007,-0.07738634561540306,-0.009631298873973041,0.08776425859662995,-0.00870852448621067,-0.9060463026809151,-0.048305438385223234,0.2879501967420099,0.01952524805901983,-0.057006586482004705,0.048630994464466844,0.4410236530062951,2.828125
0.022961910622239942,0.31933621043087895,0.06775135151337766,-0.14578921724227137,-0.023684602231854084,0.1762947287404078,-0.004482649825964289,-1.6183079288305677,-0.1166656471335622,0.7088161389916947,0.03794250282064987,-0.1171284560081275,0.12959900449415518,0.566766258183653,2.8359375
0.0020601626605382195,0.018306489698461974,0.006646659016973707,-0.008634808060061817,0.0007130524017852244,0.0076852620698221715,-0.003266571712310515,-0.11920583415424875,-0.0003888602210387867,0.0015580137310821944,0.0018644934369557921,-0.004914573453967224,-0.0015920701472839631,0.10364164710993738,2.84375
-0.009552361390274806,-0.3816955521369865,-0.02713205018094077,0.16879257814236556,0.05217023658324858,-0.25857407811698513,-0.054218401995172597,1.4200991609372424,0.25891604722027856,-1.6329242383487452,-0.04931380883767831,0.18479442472787466,-0.33525646388911107,0.6657385287180653,2.8515625
0.01143022199457633,-0.19008478819349717,0.034289326758315,0.07910540568395157,0.04560466215982844,-0.1712971524318272,-0.07988029610054441,0.24977167911814177,0.23450519268434292,-1.5132779526807278,-0.027864308135801413,0.13267208895626087,-0.32718305189407065,1.5196918539996644,2.859375
0.019565592098557686,0.2655422622147341,0.057880737251055636,-0.12189806705829859,-0.01911944421574385,0.14561593200065445,-0.005108968537336339,-1.3633076133962654,-0.09401023160138675,0.5657498990756559,0.0315483641298489,-0.09632490094918335,0.10323276566829163,0.5058795283513136,2.8671875
-0.01526217330854207,0.17074361391712675,-0.04414326301545041,-0.07076150447081674,-0.04471257284870365,0.16680505671526058,0.08722911133503643,-0.10158785080627727,-0.24047025040892983,1.5557315518674486,0.025960227724197787,-0.13219821638521118,0.3400631842347002,-1.701850902672167,2.875
-0.04775734221433242,-0.31392644956762084,-0.13910331601907094,0.14966864815341663,-0.00395525574404037,-0.1075245876180785,0.08531749859135221,2.2804576049845635,-0.04572539318485481,0.36778742876922876,-0.03233655327383638,0.05120092244579067,0.11706685525569296,-2.3647050944510406,2.8828125
-0.03296852020259813,-0.38630076735232566,-0.09571999138562914,0.1771160235258533,0.025346098058762742,-0.20014843188575177,0.02099843970615408,2.087845633279056,0.11062429263937867,-0.6522647757545618,-0.04505998706547007,0.12802784137850207,-0.1097169602717728,-1.0298347450803105,2.890625
0.0032089122460398065,-0.01975146210920361,0.010093082697262348,0.007329155355846409,0.008287065372526815,-0.023310338108725088,-0.015441705129903697,-0.03679530129735996,0.03870874897774042,-0.25138461610003077,-0.0033779603502791834,0.018590074017764406,-0.05549563112826802,0.319758850139888,2.8984375
0.013572206308891681,0.13121299879627407,0.040379913120701265,-0.06122904254740545,-0.004095417200671265,0.06135247049591157,-0.01565196180827472,-0.7850217161350524,-0.02002084975323025,0.10778402878103252,0.01468829649756381,-0.03776932168814693,0.011338064840331086,0.5455512585083975,2.90625
0.001969429856562842,-0.021644242776760518,0.006469742517555003,0.008671394224912088,0.0071388353986245635,-0.021615727090012374,-0.011801486623460056,0.0038959743963503154,0.0328211894571814,-0.2095306567608119,-0.0034323756366710922,0.01677648253598597,-0.045733846307673826,0.23797553572915292,2.9140625
0.00588853376066109,0.042052453554464915,0.01790978613311136,-0.020242664494851875,0.0013735273458524036,0.015422917286742837,-0.010426683978412711,-0.2989682239245448,0.004859813392148986,-0.03785872989351507,0.004296796166243555,-0.008250838608589417,-0.01283884870519487,0.29892215851807147,2.921875
0.030984985665200034,0.36242399581543394,0.09124112369673026,-0.1668596807690108,-0.02127323179816673,0.18719461894552866,-0.021005010500494047,-1.973607954083529,-0.1005963478622567,0.5935251243040255,0.042064538846263926,-0.12048546250370035,0.09899661272513675,1.0009963939272948,2.9296875
0.042075124930910215,0.4073277618461468,0.1236912087560814,-0.18943170958871314,-0.01554627656161605,0.1912473160689746,-0.047109770926101066,-2.4201063743779656,-0.06638733788951448,0.3571755416871268,0.0458033709184268,-0.11722319093695435,0.03998773245086669,1.6522696997647923,2.9375
0.01947623039188122,0.0758030460667503,0.057672901412860154,-0.038699339026150054,0.011815489100673628,0.004635544911489032,-0.04709693313483142,-0.7819315508360146,0.0643050479220672,-0.4401746493474264,0.006057340138844109,0.007210749447186058,-0.10885002352070768,1.1709223231080463,2.9453125
-0.01211345936411142,-0.15274942086229346,-0.03473005483676244,0.06945459656349205,0.01179719373886179,-0.08167749684323038,0.005018637921738715,0.7944571752309058,0.05057102432508098,-0.3020425146363961,-0.01802905578643768,0.05267787294711307,-0.05356233045811175,-0.3309886747818687,2.953125
-0.024079890673660544,-0.103012938807762,-0.06981713841329752,0.05093081641920411,-0.010433408663522286,-0.013065153925273323,0.05500148048086927,0.9775660675066966,-0.06870402308649645,0.4778134396723072,-0.008892474227720106,-0.004632743875527593,0.1201732851020317,-1.381713710549734,2.9609375
-0.01933608228817477,-0.07017206147423434,-0.05595943292672965,0.03541288436484118,-0.010181372527828688,-0.0012213405349069592,0.046840634117192546,0.7457532298092138,-0.06539961418914389,0.4491289436414727,-0.005497524836329513,-0.010539518892845134,0.11021204052005562,-1.1508841799681593,2.96875
-0.01331235110148556,-0.15523751186600696,-0.03827147755957424,0.07107002087327137,0.010825661034505376,-0.08046289884916798,0.00836772706758312,0.8363285250624471,0.04504353357697657,-0.2650197790231631,-0.018173647574795598,0.05127198378209163,-0.04445511659122701,-0.40811910723337913,2.9765625
-0.012659233805905367,-0.21862969132541665,-0.03630371037798879,0.09864743668244516,0.02196963605223315,-0.1294212640743382,-0.007805840574854247,1.01068991278232,0.10263632859519435,-0.6335546204137444,-0.0268223843575748,0.08766273515899645,-0.12189432337158411,-0.13355519522828754,2.984375
-0.019426377682662328,-0.2701414787357369,-0.05608523588835799,0.12292760911639954,0.022400144250406748,-0.14984650388755488,0.0027870091182761185,1.356241053129711,0.10196001068231465,-0.6186731968267766,-0.032331661055348786,0.09887060448841489,-0.11299639619868594,-0.4452315559014251,2.9921875
-0.02331938931739889,-0.2557946907214944,-0.06750347078774784,0.11762294313253442,0.01544186454286304,-0.12882218022015893,0.018631531177369275,1.4213026874837165,0.06448043810182874,-0.3738528982685547,-0.029586007950484026,0.08117541155539096,-0.05861875362634516,-0.7822068916232566,3.0
-0.0021786839364188785,0.040153660714390985,-0.005738085277748762,-0.017379097709467158,-0.007927243637037567,0.035395408416534886,0.015505259147554703,-0.06911826465546939,-0.04636817066398463,0.29892955684640415,0.0057637989139227765,-0.027759994963630394,0.06474943515747822,-0.28569925589404116,3.0078125
0.03504741123902746,0.39437089423872185,0.10313331235653057,-0.18218132245778465,-0.021799374655371927,0.2004851406701822,-0.02706949738704687,-2.185752393252128,-0.10151695178418219,0.5913501894720907,0.045602324010104195,-0.1280207415483451,0.09484579907193033,1.1803931754856123,3.015625
0.04236086108236757,0.2812455638886524,0.12462698864656968,-0.1348627280359025,0.005302317325398187,0.09725213265824074,-0.07605154027919468,-2.045534262376189,0.04052103584730834,-0.32551102511894,0.028924122632786705,-0.04756800790976674,-0.10417440735135981,2.112621036231672,3.0234375
0.00931000119639307,-0.0880839412367141,0.02799105847559431,0.03538426232707375,0.02658904256977861,-0.09002671126232423,-0.05047922059887198,0.0010913766169328499,0.135268177165638,-0.8766567658347219,-0.013812719213478195,0.07151359482199289,-0.19247097059227475,1.0033135205101578,3.03125
-0.015764768501085106,-0.007287692586667493,-0.045530308675946984,0.007177106616424644,-0.01614611131427961,0.03585442640656692,0.049129010951974965,0.45585886303763,-0.09476064715727961,0.630122840004393,0.0021473550695871105,-0.03591735143523953,0.14526481147241405,-1.1104759564287394,3.0390625
-0.006481077168309734,0.3649971418322161,-0.01853488863610091,-0.15762502592827524,-0.0659151070545547,0.28769327667753936,0.10159659985118676,-0.9357177008809003,-0.34579847521838314,2.216564622971345,0.05013027964717451,-0.2164533585094062,0.47104284641839406,-1.7439795293339047,3.046875
0.005539368411327267,0.2704681462970318,0.016750568961285364,-0.11967514564745656,-0.0363333390962924,0.1857775610649084,0.041457169093703054,-0.9844117133091401,-0.18858903069566407,1.1961342706290559,0.03499489341952491,-0.13438906010017276,0.24660638283671957,-0.5315660694622779,3.0546875
-0.0008006148394586667,-0.15889898288689097,-0.0015838226106128408,0.06924243673392882,0.02619191068166422,-0.11625539267743525,-0.03323463223054951,0.49793691463489204,0.12950470420665972,-0.8217698157852223,-0.02123941886246179,0.0848142431545449,-0.1719697471729438,0.5202198639358259,3.0625
-0.0048978836348448586,-0.18224397773281933,-0.013590529567019519,0.08041398954055264,0.025144843368372718,-0.12258934524250983,-0.02500545125976073,0.6831435473832383,0.12227775529954443,-0.7708624179997643,-0.023507411122611108,0.08726639262719028,-0.15745104274295957,0.30211646347407467,3.0703125
0.0036157894133456376,0.0848855377188994,0.01120931467070372,-0.03848811229301152,-0.008369723591135655,0.05344351619740966,0.006645564344545001,-0.3671718451885659,-0.04608479807736451,0.28730724779956,0.010569391664740472,-0.03760657761933225,0.058072607851171326,-0.01931916096047968,3.078125
0.006931429166771591,-0.04320937950647834,0.021034800243427368,0.01653625703755389,0.01647467262975724,-0.05055602982429491,-0.032650075654435284,-0.07046214982702344,0.08279508626147229,-0.5389665190636583,-0.007274028191746794,0.040910328876794425,-0.11848331204153416,0.6761631348081076,3.0859375
-0.004502296251966835,-0.4812390772239102,-0.012202000560678081,0.21082575296032652,0.07444947950651888,-0.34590964928729073,-0.09279850482293463,1.58119693686859,0.3753430827355262,-2.383425839214118,-0.06366210328792467,0.25202953542195333,-0.49697408403387006,1.3882497832662046,3.09375
-0.020916897896833733,-0.5717332120781251,-0.060294029916654966,0.25485117358505327,0.06981746886108604,-0.36986623872525304,-0.059483288440361486,2.315782225077815,0.34446857169612893,-2.1591732887560138,-0.07246224165383992,0.2602317450810788,-0.43652701961424745,0.5077727309198804,3.1015625
-0.02643598342913847,-0.17532493426469892,-0.0767475741958036,0.08345281406549135,-0.0013828698846947017,-0.06078178380771415,0.04657976682987576,1.265058812549517,-0.02333492937965162,0.1930541415575546,-0.018206802166100974,0.029175373883281664,0.06233572054532502,-1.296691118279897,3.109375
-0.008233944286012977,0.2956265178594388,-0.023671020456895835,-0.12702499644378942,-0.05672621682163706,0.24111380036874616,0.09198072758875263,-0.6760371017572963,-0.2994791072637247,1.921992876939286,0.041216141888180395,-0.18293930277956733,0.4107426807075739,-1.630586593407369,3.1171875
0.021043151061808554,0.47926999307570073,0.06206533974862359,-0.21524834582266608,-0.05212829111437719,0.30031929370949934,0.03745172159224017,-2.053041679091244,-0.26316604731460813,1.6428715572726307,0.059852444850183054,-0.2097410009122195,0.3278498232773138,-0.1400908557265225,3.125
0.02396563534256644,0.3127155252889026,0.07074365719432829,-0.14342492265589168,-0.021506844631244814,0.16882969176921347,-0.009114701357749546,-1.6279808596326302,-0.10474100080246823,0.6298468630256976,0.03691375970278503,-0.11110718624937092,0.11229829031055293,0.6618487702625341,3.1328125
-0.002390036759156247,0.07263645316105849,-0.006371776415743701,-0.03142429439170459,-0.013433221477007276,0.05995870971422577,0.023326427915766536,-0.16103056406622474,-0.07477254697613395,0.4828629037413306,0.010120558055295211,-0.0460301429919689,0.10304543875283723,-0.4154564133370246,3.140625
-0.010989995673701597,0.09581902087305967,-0.031604070443011896,-0.03920079424848809,-0.02736928988185923,0.09996271656028127,0.05651458714423412,0.00847073664370432,-0.15006330533511772,0.9758076669557545,0.015016421671001423,-0.08050726452172309,0.213934734406489,-1.1259598922722847,3.1484375
0.012737076109475347,0.21886327064767105,0.037854863337371245,-0.09951695602296934,-0.019489567194005485,0.1289713470921031,0.006672498442977538,-1.0294707792119835,-0.09939098198715575,0.6117139761110897,0.026683291110492457,-0.08820592396165457,0.11816165414181656,0.1714728685738748,3.15625
