AF3,AF4,F3,F4,F7,F8,FC5,FC6,O1,O2,P7,P8,T7,T8,time
-0.004036897437827205,0.028133351095668186,0.005474754453842676,-0.047110959137138066,-0.0013331141711358698,-0.003704471428348115,0.0012841633998238722,0.0005067122002858667,0.029571499758018965,-0.0034870592024455935,-0.01048613185081627,0.0026169583459587603,0.004125326942135702,-0.0005763851949320668,0.0
-0.07960723815616495,0.3955871983250656,0.07966264990141811,-0.7275774035852282,-0.025154829121774636,-0.07406545739322469,0.03193791910923063,-0.003945655628833812,0.48371751758980186,-0.054957240558843636,-0.14698606306777778,0.04853436730735078,0.06477017205752242,0.007893981898334521,0.0078125
-0.17227960273607004,0.844860507714472,0.17035146138658577,-1.5596309586110302,-0.05428013231913001,-0.1601922771674439,0.06949155963422254,-0.009395575878297764,1.0401735833642336,-0.11799774226345809,-0.3138780786516983,0.10482832458350239,0.13897521805044513,0.01825571984725623,0.015625
-0.13350544806274878,0.6550058186946635,0.1322605152567833,-1.2115009361323583,-0.04197686053423595,-0.12411292628408599,0.053808369187639725,-0.007096063609157235,0.8078189511496312,-0.0916054910591827,-0.2437672114567852,0.08132785627484565,0.10792617821504091,0.013916862895010962,0.0234375
-0.07329025421313594,0.36272960858278963,0.07339630680335661,-0.6732605314608978,-0.023023647181730524,-0.0682922950418046,0.029485339941491523,-0.0035521223239551314,0.44729552406435513,-0.0507001477280597,-0.13550212882381713,0.04489043165964741,0.05987879800391847,0.007212776121435926,0.03125
0.018570277043764453,-0.08400740392983835,-0.016635374204370626,0.15247685512324244,0.005845941291140332,0.01718699363613131,-0.0077633394857100045,0.0018550124935605504,-0.10422945515735763,0.011894913025001631,0.02992297147098032,-0.010900989329646437,-0.013759823662494671,-0.00305713937304517,0.0390625
0.1579051665368399,-0.7633883241367615,-0.15350513303631377,1.4095401730111905,0.049750253965685595,0.1471526611435313,-0.06435788054647724,0.010078299020506255,-0.9420821615339325,0.106971596139717,0.28148870750191707,-0.09571990197734498,-0.1257760112248425,-0.018694264604192778,0.046875
0.18808639183662781,-0.9106034308494193,-0.18323398983880793,1.6834680252996592,0.0593063653684468,0.17535313729251314,-0.07663804111458355,0.011864741051509928,-1.124013407030232,0.12760298203810164,0.3361378314521467,-0.11415042170638398,-0.15015992681274629,-0.022101527504694258,0.0546875
0.11380488466488498,-0.547753463869661,-0.11024524874372223,1.0139670589684093,0.035864795158446955,0.10605308536424779,-0.04649368958066634,0.007472935123557119,-0.6775722298569065,0.07694867173200355,0.20198994611301765,-0.0689455103268717,-0.09052514488050342,-0.013763631211985317,0.0625
0.11545437745493012,-0.555320234262231,-0.1117803248060741,1.0278970747666625,0.03629524476169826,0.1076050147747833,-0.04717059691031354,0.007556503001524591,-0.6872722178353319,0.0780708462635867,0.20493882361599372,-0.06990096777547215,-0.09181594835653939,-0.013925516137832062,0.0703125
0.09340606446317765,-0.44857339600753926,-0.09031853682102399,0.8312850370531008,0.02934486798266095,0.08731075609982351,-0.038240046900250846,0.006256413293961239,-0.5552987606971924,0.06309624118190679,0.1655203878873343,-0.056536233224018025,-0.07420369666445996,-0.011472064699456552,0.078125
-0.14077885361327636,0.6918793155411331,0.13919426685192202,-1.2741455110029243,-0.044366140897138084,-0.13068601177317163,0.056767066043130116,-0.007551589726208899,0.8508456436014232,-0.09647614289756044,-0.2566842543574113,0.08578804049910876,0.11364412490059823,0.014727192633172627,0.0859375
-0.33200095187253653,1.6235396492415826,0.3267113408063713,-2.9952559004337194,-0.10458442351830749,-0.3089164132657139,0.13431377543039852,-0.018833663650255215,1.9993667884768405,-0.22678482322353374,-0.6017622718785578,0.20204782839757737,0.26710659619825605,0.03613908569135399,0.09375
-0.19812869450968207,0.9708281964196118,0.19537001253925365,-1.7914200728681036,-0.06243901645558599,-0.18428566125993062,0.07994031534110288,-0.010941226563625747,1.1951269520040302,-0.1355071378968089,-0.3603845912758796,0.12066917751220387,0.15969277250364827,0.021153474992718788,0.1015625
-0.02168385025622436,0.11063842107957463,0.022287630548914802,-0.20313432450030214,-0.006879837167532554,-0.019810855827205848,0.008344067320809095,-0.0005308213743944958,0.1347574229775669,-0.015264599561103622,-0.04202838425518136,0.013369769028880502,0.01806232234565019,0.0013902338506568668,0.109375
-0.05867044739333391,0.2916564467654944,0.05879820020944902,-0.536009667701999,-0.01855233465942573,-0.054257521445670885,0.023401120205030188,-0.002707796269197708,0.35660321011385465,-0.04061203361029154,-0.10882048379202813,0.035827538327341577,0.04777437939739312,0.005531965175365976,0.1171875
0.02960109343796329,-0.13722995171328217,-0.027420425807978988,0.2561692734571011,0.00925995642121948,0.027723631813294743,-0.012364657117323295,0.0025057230824904104,-0.17309036455790572,0.019396843164818992,0.05021085574791469,-0.01783563466880114,-0.0228872152491948,-0.0043450287273703175,0.125
0.4035986147474481,-1.960175823701002,-0.39424103442866515,3.619966841501345,0.1271622983852522,0.3759712214284172,-0.1640783429656505,0.024580919419331212,-2.4186825693135403,0.2743160058695922,0.7249073938516167,-0.2452061319758432,-0.3228743598773966,-0.04623122920267653,0.1328125
0.5264809320191881,-2.560879372651259,-0.5151186552160054,4.726731370910674,0.16597913508122253,0.490606348245892,-0.2139171508096557,0.03184133369833081,-3.156370140399675,0.3582389216413426,0.9467348120355342,-0.3199244412973129,-0.42156089332132374,-0.06000677666172237,0.140625
0.11045041917659795,-0.534049791254185,-0.10719892323812363,0.9842949511293031,0.03490906414379129,0.10314968289874271,-0.04513836024796297,0.007293637968920728,-0.6573079547657886,0.07480912616874297,0.19605329948011027,-0.06698890897446488,-0.08785906065830969,-0.01341206484983103,0.1484375
-0.3180940166793705,1.555977936195891,0.31339773811655164,-2.8730588894852116,-0.10020997064689824,-0.2963110805541563,0.12868931965677646,-0.01800563140964679,1.917225999960999,-0.21730396327672846,-0.577419903145,0.1936031085870697,0.2560368906475584,0.03461028128442569,0.15625
-0.3201540856395508,1.5676278125704,0.3156097950966143,-2.893320727437386,-0.10093021614681764,-0.29846243628845603,0.12954065592744907,-0.018140636048555925,1.9302357919665407,-0.21880666564742515,-0.5811978838689342,0.1949550601941038,0.2578064055649744,0.03486895998357517,0.1640625
-0.12207657987890663,0.6024533971777021,0.12120963874641293,-1.1108988384598864,-0.03851218005844522,-0.11380373771825339,0.049286356239006866,-0.006457926763443308,0.7406772429513793,-0.0838819235961071,-0.22360153722138848,0.07463595628025549,0.09891760519262284,0.01269098567571062,0.171875
-0.00544724879220251,0.0336179311000921,0.006733244317451245,-0.06014220837912465,-0.001761621008690529,-0.004872556194250509,0.0020542993295131133,0.000425585528519633,0.03959419368483353,-0.0044530185427821755,-0.013020864047781673,0.0037512678887587454,0.005302620452240201,-0.0003832904937877805,0.1796875
0.06003879404637628,-0.28579883587571536,-0.05739340947217727,0.5302829470703486,0.018842456700543443,0.056236165312554716,-0.024568098286039484,0.00429567209781661,-0.3547381317238215,0.04016210229863294,0.10519557606423739,-0.03617487276465591,-0.04730879972559389,-0.007735610977737614,0.1875
0.09434417135237547,-0.45334317826886544,-0.0910598230055959,0.8392465635568225,0.029673029835864784,0.08813552704754887,-0.03861319973957858,0.006324295444729791,-0.5613226420678102,0.06363339860204532,0.16719877728483046,-0.05716198619789221,-0.07489079229855833,-0.011591848644740516,0.1953125
0.04660144108568233,-0.22085069921380956,-0.04445275765086323,0.40835326133019334,0.0147081131963394,0.043555418331532855,-0.019297862376602408,0.0034997479440118076,-0.2740645456579966,0.03123241532781841,0.08098551326783561,-0.028119603799335462,-0.03655177946798456,-0.00624579622130327,0.203125
-0.04494871757978255,0.2255583451376178,0.04520409782989933,-0.41675313258844987,-0.014114173788205186,-0.04177133899311498,0.01785656335342617,-0.0019143329604210935,0.2762086543202095,-0.031124904950837775,-0.0844575089640338,0.027618173350895673,0.03696881135801249,0.004013741667959466,0.2109375
-0.15245339117455525,0.7490714755443321,0.15061752828717068,-1.3817174707366562,-0.04804442645104373,-0.1417141626966559,0.0614270877057909,-0.008250714526836248,0.920583623519126,-0.10445139104567175,-0.27825605430956396,0.09287452203661324,0.12309651837920942,0.01604361025074491,0.21875
-0.22490423615359328,1.1006254440004897,0.22154807605298446,-2.028064993919321,-0.07089989475776125,-0.2088552160228958,0.09071977259098304,-0.012499525100799472,1.3536084631157612,-0.15382688852089224,-0.4082548461446543,0.13668510208269435,0.18091988529344097,0.024125997975443705,0.2265625
-0.06706787327222687,0.33054861376385,0.06664753507687694,-0.605390437398073,-0.021118615107078156,-0.061797646753937945,0.026669201596585635,-0.0031712972055460554,0.40534422372965795,-0.0461742248953475,-0.1231469017437534,0.040677651724642654,0.054174741575182976,0.006428295119750301,0.234375
0.2948504397234211,-1.4320211120481674,-0.28806768603954314,2.6473054127481843,0.0929414193688265,0.27495051973772733,-0.12004386067763712,0.018174189448884492,-1.7665110184323323,0.20045505655972612,0.5292624537465831,-0.17915213792253604,-0.2359405697117117,-0.034084419786513845,0.2421875
0.4038208799770452,-1.9611559251865733,-0.3944946256953724,3.6221612538541255,0.12721415165653743,0.3761633264235903,-0.16411789397630586,0.02458948686627984,-2.4192418923732197,0.27451012832753724,0.7251549608987048,-0.24522496828227108,-0.32304907370203545,-0.046240225395905415,0.25
0.05721410222259423,-0.27143080028478617,-0.05435165466509727,0.50069357737332,0.01794968838319389,0.05332378083005533,-0.023442527503617496,0.004132470172955764,-0.33678219892228983,0.03813848929204077,0.09963593214077221,-0.03446863821206852,-0.044852793580666524,-0.00738563840521583,0.2578125
-0.2643719373844632,1.2949861318332923,0.260903655497402,-2.3929724472200666,-0.0833328258539052,-0.24623398614813852,0.10702018129598054,-0.014846125609450868,1.5952674400032631,-0.1809003187079994,-0.4804959165664028,0.16107644356755693,0.21313626980716766,0.028630723737587373,0.265625
-0.17421779271957757,0.8548096117231122,0.17227894336561542,-1.58055194361034,-0.05486129174892529,-0.16240688108553003,0.07040615798053387,-0.009530562972203352,1.0540943987974627,-0.1192218188736295,-0.3178246801964195,0.10631300686647664,0.14074985957078343,0.018506211692462613,0.2734375
0.016052318813210134,-0.07251617046744901,-0.014394025760436678,0.13369873099218182,0.0050615030291577875,0.014829107294077113,-0.006849509057102884,0.001696736403956555,-0.08953560202620493,0.01048298920067219,0.02562556240442375,-0.009421614932198032,-0.012021344437661952,-0.002831591905808849,0.28125
-0.042455686371495875,0.21306055120341266,0.043014603432363345,-0.3912251051198258,-0.013449433002260145,-0.03948756727827012,0.01685510667311552,-0.0017552791773356464,0.2607846634673489,-0.029527873310267728,-0.07970238626967799,0.026067169870978197,0.034823202437465256,0.0037153250314613255,0.2890625
-0.09711145682760779,0.47977962415426867,0.09662684684218928,-0.8838295589414189,-0.03067008730926794,-0.09030353084576413,0.03906700628170997,-0.004983947776443548,0.5890561882053499,-0.0668192471050079,-0.1783999489607788,0.059319409129866836,0.07871573664626083,0.009852567372331816,0.296875
0.18143220727467982,-0.8775819572523355,-0.1766049348715796,1.6211069034729506,0.05716492853362777,0.1691916533817968,-0.0739018522088266,0.0114543110635023,-1.083746410200387,0.12306754001878698,0.32391343297381336,-0.11003223386650032,-0.14468917815454554,-0.021330132495269008,0.3046875
0.5126918425232224,-2.4918482837462173,-0.5015793609805937,4.602204292431242,0.16158283025821052,0.47790123639713256,-0.20832716124743747,0.031013237446670266,-3.0741717311064622,0.34878468179302674,0.9216535617599467,-0.3115821388237164,-0.4105081300000467,-0.05843746427651637,0.3125
0.3730915658209944,-1.8115027659164313,-0.36475138495022336,3.3473719636909665,0.11760764902966901,0.3479523640533887,-0.1517248813829608,0.022783895688460946,-2.236268216387499,0.25355674754550345,0.6700576338095752,-0.22679252653653423,-0.29857538769393904,-0.04281769525442616,0.3203125
-0.15446018448805707,0.7589400255561334,0.1526199749957353,-1.3990788201639213,-0.04859222430336164,-0.14358641759806456,0.06234194072954713,-0.008348961026596463,0.9331988636786857,-0.10591852839990012,-0.2816475747221178,0.094093870264171,0.12471526700128328,0.016265352890023257,0.328125
-0.424635207517966,2.0748115087529007,0.4176470224578242,-3.829676792906125,-0.13373637245831846,-0.3953449679472582,0.17197879375893807,-0.024295165047095314,2.5566422574932828,-0.28992810754543186,-0.7690290766386206,0.2584847229772654,0.3415019660251468,0.046532225860861066,0.3359375
-0.21423608168875377,1.0492729660168363,0.21138941425147173,-1.9352852596007077,-0.06755774063626238,-0.1992347271823416,0.08653340228223587,-0.011879588607668046,1.291952023317507,-0.14657312199555192,-0.3892272827046287,0.13046838383373824,0.17260736230263293,0.02296715976021669,0.34375
-0.1058692361229507,0.521519659123774,0.10517854390795225,-0.9595911246651907,-0.03352536201980022,-0.09820808519510481,0.04245733801338218,-0.005488772167490043,0.6400044218990595,-0.07280979532450808,-0.19366472751557517,0.0644767621075418,0.08559497626893023,0.010825832556466037,0.3515625
-0.47949151812631896,2.342439250907934,0.4716537690333811,-4.322614861624282,-0.15122174561079257,-0.446389992155485,0.1940646656193707,-0.02754228037835313,2.8849430157040894,-0.32737215705167516,-0.8680288260200452,0.29174256321585257,0.38544900885490757,0.05268251020603024,0.359375
-0.7202336914781687,3.5158538310016443,0.7078264415102611,-6.490982714287845,-0.22696188803785355,-0.6708429113821267,0.2918859050763301,-0.0417484657349277,4.332691430286291,-0.49133736009511175,-1.3026824942365696,0.4382620798468201,0.5787719415295016,0.07966671612482687,0.3671875
-0.16086539622131707,0.7908556179501115,0.15927648957997723,-1.4595288536116788,-0.05065817489990257,-0.14986111906860394,0.06503472709993907,-0.008737482060240023,0.9733468080082066,-0.11020268226293493,-0.2935889455343046,0.09813286069965592,0.13006409029615426,0.017019429246691455,0.375
0.7246232349969854,-3.5235852106024,-0.7092444855121598,6.507871804265623,0.22833307907925532,0.6749968608016875,-0.29428989559825003,0.04351400808772052,-4.3464375625540335,0.49312100439559226,1.3040025459230113,-0.44038895766215425,-0.5804541644162075,-0.08218213952696747,0.3828125
0.97522713013475,-4.745647974096597,-0.9552163564794843,8.76415599878214,0.30730688584419774,0.9085132147652583,-0.39607886027120137,0.05830246865799015,-5.852879151242866,0.6639387524108655,1.7561755573925615,-0.5928287097056385,-0.7816796514708247,-0.11027920005549058,0.390625
0.5539429684783025,-2.694161661740063,-0.542146561746175,4.974470258651522,0.1746091775989274,0.5161733149122938,-0.2251469788184215,0.03344751645005466,-3.3223759782151348,0.3769587460307802,0.9960973374445884,-0.33664777808433616,-0.4437588187260437,-0.06309879727430369,0.3984375
0.16806982001435103,-0.8139867888841065,-0.16360351243705074,1.5014243598053325,0.053023478788219426,0.15670013250933104,-0.06847262189400076,0.01067769387884248,-1.0034672245219511,0.11399938574000194,0.2997805739463412,-0.10193878575910349,-0.1340765524479618,-0.01985990942209353,0.40625
0.042701491669801854,-0.20233671021596267,-0.04049987405138912,0.37232210184399445,0.013461244105667004,0.03981101936348295,-0.01755387071221606,0.0032741518664071746,-0.2495636191347836,0.028502408709530323,0.07353016232906655,-0.02562610737013618,-0.033366611215028895,-0.0057979723502628675,0.4140625
-0.17325077979196482,0.8498026060512374,0.1712951771218784,-1.5691574765450806,-0.05463802036091086,-0.16128345605526825,0.06998601770352673,-0.009468641531030447,1.0471668128144207,-0.11863987210793728,-0.3158109106914532,0.10567770429542872,0.1398532436293494,0.018391738506494667,0.421875
-0.4903407608051087,2.3939130599453975,0.4821559469211098,-4.419672092971206,-0.1545632478557933,-0.4563995821228969,0.198555451180666,-0.028171499709586306,2.950850166585345,-0.33466363374276875,-0.8875191850208485,0.29838370786717067,0.39410808243775236,0.053899375466916734,0.4296875
-0.48352462462364754,2.3607310984095364,0.4754059487564761,-4.358257518937065,-0.15240661387584659,-0.44991790225418044,0.1958053637091067,-0.027765086825943846,2.9097056513047335,-0.33005489516378517,-0.8751535863884191,0.29415529868558543,0.3886133458492677,0.05313550263901618,0.4375
-0.12913884399422332,0.6354836913876406,0.127929284859784,-1.1709859648526892,-0.04073193241795675,-0.11991906836376015,0.052065237109351785,-0.006856074271716463,0.7813171098776762,-0.0886612259234688,-0.23587374049497087,0.07866016993520847,0.10440215594488399,0.013446529334137076,0.4453125
0.047399763236679916,-0.22316016104424674,-0.045071606457100316,0.41751531560845734,0.014909536537393134,0.044381441076696636,-0.01957721419015633,0.0035579353026799136,-0.27936810764300235,0.031597091005906394,0.08267378822218892,-0.02867190469636511,-0.03716842736254411,-0.006330331600796057,0.453125
-0.1484585565248284,0.731728517212957,0.14707314925693674,-1.3449517260196955,-0.04678639494439349,-0.1381338083002969,0.05985382567764184,-0.008005680738106365,0.8967224045187966,-0.10186004622695144,-0.2707682277563025,0.09045023093921875,0.11997912917129332,0.015606586706145736,0.4609375
-0.24235621437688543,1.1892949686951142,0.23915356975001525,-2.193113244984889,-0.07637414367895304,-0.22570484038732858,0.09796783553985178,-0.013559214108336829,1.4614092123443287,-0.16588369888319235,-0.44058327131620173,0.14763233678026896,0.19543424943719503,0.026142511173840883,0.46875
0.04449060467806853,-0.20849285596378653,-0.042154374435584514,0.3847601342696491,0.013987271665300475,0.041398753517108165,-0.01837558338411219,0.0033607105615296715,-0.2606192546709016,0.029530576772840413,0.07669533106930708,-0.026712232444175844,-0.03453421059418359,-0.005968826451238923,0.4765625
0.26916515175115174,-1.3040724517569335,-0.2625060050931589,2.4084275907428787,0.08477385203878951,0.25076645714019263,-0.10953798316816622,0.016628933229728984,-1.6104988248939303,0.18270263707007503,0.48231791004346963,-0.16337368121891907,-0.21486076491125464,-0.03114932199412177,0.484375
0.08294556307034633,-0.3984840188146053,-0.08002110052642956,0.7378036695984127,0.026128783947332382,0.07747805863203942,-0.03402597089635344,0.005655182368600588,-0.4930554580017325,0.05600007756650169,0.14663365008400167,-0.05023843975626205,-0.06578965804767205,-0.010325060721407231,0.4921875
-0.0870195657169354,0.42776579636023826,0.08643471826277802,-0.7896006270423671,-0.02738490592647997,-0.08081521708232098,0.0349142289546168,-0.004369261761648121,0.5277545152936558,-0.05967322655651366,-0.16011748409062412,0.053115284665883805,0.07029736155428257,0.008696004776182712,0.5
0.2064107152721714,-1.0031765672543038,-0.20145681687338698,1.8497786475540474,0.0650924612859376,0.19243824415589736,-0.08410433654904761,0.012948550308133603,-1.2339856810180088,0.14029435631199585,0.3691748728230274,-0.1252379767100915,-0.16515608152960168,-0.024174198642248495,0.5078125
0.5824518477263029,-2.835408756684988,-0.5701850403116662,5.23344011092933,0.18358289729929633,0.5427588039928247,-0.23662100509673384,0.03514564636863009,-3.4925714383149176,0.3964967363316452,1.0478053193939916,-0.35391032005331097,-0.46676479914023655,-0.06630453241119298,0.515625
0.4263619513514934,-2.0732230055447856,-0.4169635715152162,3.829027592878704,0.13437871308616678,0.3974776589441064,-0.17328090347942812,0.02593183236787604,-2.555591345426562,0.2900595519011744,0.7662686295305279,-0.25908225732398094,-0.3414098743027105,-0.04881785186628446,0.5234375
-0.13590216360561258,0.6690266949324003,0.13462852399611844,-1.2327102161472516,-0.042855211766227086,-0.12629181811532067,0.05480335861960324,-0.007267045459302151,0.821505398757522,-0.09323189533310423,-0.24842043396653085,0.08279521029291252,0.1098839433289914,0.01419822342787216,0.53125
-0.47828855684655075,2.338855505049693,0.470599940261974,-4.316065190250783,-0.15080918159330226,-0.4453515622214314,0.19369432832070682,-0.027483647904317357,2.878404845842122,-0.32669921399325147,-0.8663247866053536,0.2910358477288726,0.38474379939473646,0.05258322113814976,0.5390625
-0.35488373896650033,1.7367629679766756,0.34964840987734,-3.205095631692388,-0.11190693769027053,-0.3304212769931802,0.1436541789030981,-0.020188245209371423,2.1373638854699317,-0.24261816918535553,-0.6435185743131505,0.21599803097322637,0.28572951790720647,0.0387535871505915,0.546875
-0.05536989850639708,0.2757579210923914,0.055770888552140865,-0.5086738314544059,-0.017445537062012302,-0.05134766679814063,0.02214326681566353,-0.0024971796573221195,0.33847532932740093,-0.03839661132177246,-0.10298563620024989,0.03384336941391549,0.04532871249425042,0.005183031828235531,0.5546875
0.09017166250397407,-0.43338508557492905,-0.0871541557939476,0.8003542603718745,0.028437874145553852,0.08421670411381184,-0.0369667941405359,0.006082984991122303,-0.5353865634386414,0.06086501153832293,0.15953984127879275,-0.05462620253605123,-0.0714748017348295,-0.01111748634040314,0.5625
0.01935693335072381,-0.08676854038191052,-0.01771749349113674,0.16291606448808793,0.006050449053723616,0.018160342787553907,-0.00827973797258184,0.0018832316972515152,-0.11011148653644869,0.01256704377318798,0.03178624382137677,-0.01150663661128072,-0.014666183026940246,-0.0031753638209658214,0.5703125
-0.1226826105250533,0.6061627647616183,0.12170958520167031,-1.113240688241363,-0.0387577547286661,-0.11418968368764741,0.04940387881382713,-0.006500444112272818,0.7424081581086344,-0.08430812127552598,-0.224257465521974,0.07487127840591123,0.09923776347170857,0.012728909031243718,0.578125
-0.16716075237652225,0.8219048001974072,0.16539091328979055,-1.5125215643959449,-0.05271944756867116,-0.1556297388381931,0.06753186315489443,-0.009107697826311828,1.0094917770320277,-0.1146248404754383,-0.304376002984241,0.10190915390679543,0.13491924061084234,0.017705366120247888,0.5859375
-0.08718924628899596,0.43079194801347925,0.08690651907732473,-0.7952035280008776,-0.02743135923165792,-0.08120791774086888,0.03509850576289267,-0.004378726154573401,0.5301796925325981,-0.06004546715044731,-0.16030914120053724,0.053322776269058354,0.07086595429359104,0.00875667026097632,0.59375
-0.006307719733084882,0.036187913568948606,0.007517685678120873,-0.0696641943956301,-0.0019196026188800987,-0.005896454508151588,0.002262280097178034,0.0003875827243939532,0.045130344509630375,-0.00485231283440085,-0.014755341729710427,0.004176287701964272,0.006024875935721701,-0.00029831601220347583,0.6015625
0.0017833848191211158,-0.003274208322875201,-0.00047000931557760145,0.004263892137039015,0.0005932749139057415,0.0018152583735967585,-0.0010237593212570804,0.0008600478179379538,-0.004341520496260776,0.0006535162224417765,-0.00029969725166298036,-0.0008039300364646892,-0.0006024627940497396,-0.0012174390682888794,0.609375
0.06627289303680592,-0.31816093995647066,-0.0638234976215102,0.5875877222632865,0.02088176849638019,0.06215115409584386,-0.027229107003459187,0.004672720207368616,-0.3934382911506604,0.04458293947046241,0.11628259111651758,-0.040137585290061374,-0.05252741549145428,-0.008460559438715279,0.6171875
0.3251499914374908,-1.5803972716443258,-0.31783641658405243,2.9187118514198875,0.10246292337369328,0.3033649965794717,-0.13235425120432256,0.019956255036870325,-1.9491465646352075,0.22107926598143374,0.5836865900231517,-0.1976174170418828,-0.26027073695138525,-0.037476532555069476,0.625
0.5714058288061904,-2.779903319129418,-0.559315468604104,5.133875412292635,0.18007463351308753,0.5325824988830872,-0.23229083429829073,0.034482614299542656,-3.4275445496584562,0.3889829959228164,1.0280113040732528,-0.3473178956658078,-0.45774155160282554,-0.06507096188233001,0.6328125
0.3782891674743101,-1.8372918408217183,-0.3696764839582348,3.394248748961291,0.1191938124966312,0.35252288391744296,-0.1538421273019348,0.023074975345747595,-2.2665070364791444,0.25730563428327374,0.6792564244358266,-0.22980323111688578,-0.3026706277810878,-0.043424942059828636,0.640625
-0.23666184352202688,1.1603233333667353,0.23364374434978244,-2.1403190246748363,-0.07463615613645913,-0.22030016085173088,0.09574152276845913,-0.013218359866877407,1.4274502660190642,-0.1619265540020399,-0.4304974460534648,0.1441581941935157,0.19075657699037135,0.025490678340252457,0.6484375
-0.6214018117770082,3.0348983584611298,0.6109020652299599,-5.6015119058059435,-0.1958744155530748,-0.5785936087209651,0.25180943076177387,-0.03591728406555063,3.7379788136643,-0.4241486147358523,-1.1244734955665847,0.37804930382457264,0.4993621928922169,0.06860037376497519,0.65625
-0.3374843198160524,1.65105179029088,0.3322239541550542,-3.045600429152573,-0.10635324034057009,-0.31413244062111306,0.13657256277054755,-0.01915692044114102,2.0325993777107945,-0.23060335932055953,-0.6118571874674966,0.20537154500287702,0.27148276575811287,0.03678405129114628,0.6640625
0.15507567837064126,-0.7488310445519696,-0.15086263551375728,1.3861190636502092,0.04888141044321066,0.14455299329219165,-0.0632320559282538,0.009911759750434235,-0.925280022559351,0.10502672168037364,0.27695437512045235,-0.09406391304950082,-0.12366988850623835,-0.018393824397495855,0.671875
0.18037584931422962,-0.8720020580681888,-0.17543529281489526,1.612703980343282,0.056802482609749065,0.16802655937593763,-0.0734668293876594,0.011406423141351483,-1.0767963738225912,0.12217603491787667,0.3224943642371358,-0.10936573932012998,-0.1438616146705085,-0.021212027629665686,0.6796875
-0.13941362682721764,0.685484555324842,0.13830650868943253,-1.264618992971176,-0.04401091987640758,-0.12979092955275398,0.05619426199539383,-0.007462073890175072,0.8435560978723623,-0.0956921714149542,-0.2545518591699134,0.08503688343544688,0.11274003137565193,0.014612189146270375,0.6875
-0.20459828713788283,1.0022658188833176,0.20203985937117203,-1.8509812237391159,-0.06452003622604956,-0.190399231165014,0.08253936760941182,-0.011312141788786883,1.2345582543940123,-0.13994099063865437,-0.3722426546402856,0.12458644860428508,0.16502851326852813,0.021898569819403357,0.6953125
0.02715419452839191,-0.12682709756777752,-0.025438131662505314,0.23249962543284688,0.008563615430781518,0.02546947301141497,-0.011444834369493978,0.002351514527239121,-0.1571048817136193,0.018030699605604536,0.04563714949896434,-0.016270773832902843,-0.020831924805532715,-0.004062325216288264,0.703125
0.08467498601936643,-0.4062345385542387,-0.08178347034089234,0.748303054246843,0.02670362676792223,0.07898770720431963,-0.0346396333006904,0.0057373788971762305,-0.5021053334526313,0.0570849188022903,0.149231813583536,-0.051117554575126366,-0.06691485153157432,-0.010491086650879273,0.7109375
-0.09457261239040406,0.467618676525396,0.0941238968378163,-0.8630540253671332,-0.02978494731415454,-0.08793918254899523,0.0381404033908198,-0.004833264952815284,0.5740143184823009,-0.06518380454603857,-0.17396856926117304,0.057841247476557785,0.07676808929342122,0.009583164687861783,0.71875
-0.08429748198932595,0.41724951484314676,0.08397850303431044,-0.7674967649286611,-0.026537178404823416,-0.07828748261627788,0.033905808583017706,-0.004214477197196296,0.5113947636142143,-0.05812805339445032,-0.15509654171503393,0.051440690047501035,0.0683168024813307,0.008408872190126093,0.7265625
0.1771182743382127,-0.8568936831177927,-0.1724911898042064,1.5855085686365682,0.05583814288863583,0.16519539594558477,-0.07220027573978914,0.011213419259061188,-1.0587267003113567,0.12013904805517753,0.31656808267801956,-0.10754547205225484,-0.14143301602097463,-0.020880720140252468,0.734375
0.2449425514782103,-1.187376688535444,-0.23894764157717055,2.1948688114385275,0.07717599633220405,0.2283512540757587,-0.0996930875825303,0.015211356007459714,-1.4656084324518388,0.16637448773895888,0.43881372749703473,-0.1487070229298534,-0.19571043464719778,-0.0284644961687256,0.7421875
0.03397236993798024,-0.15943873930932062,-0.03197680508094955,0.2970223847296458,0.010661770493506742,0.0319656818835161,-0.01411950937383973,0.002767015315192442,-0.19887537283456133,0.022513611154338614,0.05835953207072749,-0.020456501410936155,-0.02642275233386116,-0.004828585363250548,0.75
0.024787712209615738,-0.1150995781764121,-0.02302408880357505,0.2154296901848094,0.007770989499587701,0.02352188549335782,-0.01048616066609127,0.002235390177860905,-0.14453598991683014,0.01621110311510685,0.04202870647449541,-0.01499855217565275,-0.019160205966350957,-0.0038105617719950834,0.7578125
0.31589230746151775,-1.5339445778141623,-0.30854504552923867,2.833588890000334,0.09953419321853606,0.29454680369190417,-0.12861221106085657,0.019412446832837275,-1.892536051419653,0.21467077571536186,0.5669792658629351,-0.19199805810911563,-0.2527417881498301,-0.03642031834125974,0.765625
0.3197467601657779,-1.5526793696878922,-0.3122420428863302,2.8659075724682874,0.10078021838186657,0.2978976593619119,-0.13006969852966668,0.01962857615048376,-1.9140963458938491,0.21739685199752665,0.5733815012255834,-0.194183385983382,-0.25574983110594773,-0.036841132420173076,0.7734375
-0.17759842498846146,0.8710270383365935,0.175548437458551,-1.6095341258881426,-0.05592897788205963,-0.165457108214993,0.0717880253447865,-0.009726830646224672,1.0739661585006275,-0.12151469900257865,-0.32406144822322797,0.1083167668270407,0.1433106220374337,0.01887132624927347,0.78125
-0.53691996979457,2.6222019120123123,0.5278767494083622,-4.841312509371316,-0.16918177341665575,-0.5001153965741645,0.21751705792372264,-0.0309325937787622,3.231595584853574,-0.3664113821183331,-0.9720268589622617,0.32675111864146716,0.4315626047637123,0.059110886467137226,0.7890625
-0.34071376170119805,1.6665627197215933,0.33546642955173994,-3.0751699630005374,-0.10741929321754472,-0.3172836692176997,0.13784363686624554,-0.019360579313479686,2.052158404879823,-0.23272189537635635,-0.6178297523768592,0.20740612269644265,0.27415460603954955,0.037130554777652286,0.796875
-0.05692110196733792,0.2841297509811031,0.05726576785188144,-0.521721983940054,-0.01805614241920729,-0.052798804784278494,0.022719974535753543,-0.00261923128824915,0.3470838650678025,-0.03936587780141931,-0.10588372437043453,0.03488058223656207,0.04652963834846913,0.005354751038560148,0.8046875
-0.12338407309921894,0.6079414280908303,0.12246506383244685,-1.1197638236688716,-0.0389986207647969,-0.11457483883940453,0.049712827002671475,-0.00653560886375617,0.7462797079923176,-0.08471338198953489,-0.22582262320820248,0.07531519115646272,0.09989231957372943,0.01281520064409607,0.8125
-0.2274743424595141,1.114639747708662,0.22439615289669207,-2.0571991269528365,-0.07171600755925561,-0.21161774169931427,0.09193008653085719,-0.012667604622105512,1.3720744876833255,-0.1556486526554976,-0.4135556190156868,0.13859438273226932,0.18341821510825088,0.024481471357464125,0.8203125
0.01970444346371362,-0.09018272725517945,-0.018147013473585265,0.16514603422027,0.006270622140723756,0.018409831587346062,-0.008330154178844707,0.0019224569070333366,-0.11174019896182348,0.012816148085651133,0.03238133703400996,-0.011684056919112281,-0.014879548780239874,-0.0032100540484044362,0.828125
0.4081544643080797,-1.9828270451957692,-0.3990793037689255,3.660388935701421,0.1286965813750237,0.38024520762646513,-0.1658576458124953,0.02484662969547216,-2.445002863693182,0.2774675450015866,0.7332422685702688,-0.247876173567953,-0.32657267929100586,-0.04673610159699586,0.8359375
0.5023321072912187,-2.441154456378069,-0.49133555747659896,4.510505686514216,0.15831297868560668,0.468196513941149,-0.20407149955631476,0.03041087471470232,-3.012006573573494,0.3415356032651129,0.9034231928236051,-0.30525782158961456,-0.40225222258631965,-0.05730313721362854,0.84375
0.2172635515677472,-1.0517416313553536,-0.2117123276611383,1.9475410903840509,0.06844276242277417,0.2027656807769733,-0.08850881526438635,0.013594733872262853,-1.3008124076962377,0.1472603552807514,0.38936178894491724,-0.13207641705337575,-0.1736452776372927,-0.025378669233370676,0.8515625
-0.1342880989997627,0.6607929342410035,0.13302726879732066,-1.216775867832177,-0.042294670912088404,-0.12482493035721044,0.054094873748397346,-0.007152978567874488,0.8113783365091486,-0.0922058955386796,-0.2450135096021659,0.08169934693030913,0.10841449881665632,0.014006405947491314,0.859375
-0.17694054621961589,0.8676447067124102,0.174812909327296,-1.6024802650026664,-0.055688182721123296,-0.16469771867166333,0.07146911065212962,-0.009676637711860281,1.0689195298585554,-0.1211601544280198,-0.3222972198236658,0.10779727656824108,0.1427178083974648,0.01878924361689889,0.8671875
0.061723751993123896,-0.29555468508726096,-0.05920663211469459,0.5448790559063711,0.019466744880568602,0.057563055265934346,-0.02536070047618774,0.004400016818191294,-0.36431260557540246,0.041554948876349355,0.10809244546614452,-0.037245042004348354,-0.048695830214400805,-0.007945847205041075,0.875
0.1180638519617965,-0.5692656454917553,-0.11433959669824023,1.05228116639417,0.037112807323579466,0.11002463450368291,-0.04831836759030088,0.007715359744542163,-0.7034092594442982,0.07998703613931497,0.20963049735842323,-0.07156197961308475,-0.09386290586564389,-0.014249870737282878,0.8828125
-0.1729879526066784,0.84954416985154,0.17115134249848646,-1.5671677440910503,-0.05463297134091069,-0.16104818433107204,0.0697439853258053,-0.009465884697314079,1.0445344322972225,-0.11838327630686561,-0.3156440673263307,0.10540001068532098,0.13967057424721546,0.01836944665648054,0.890625
-0.3159118450699137,1.545509196243077,0.31120453408510135,-2.8535622872984874,-0.09960634528378999,-0.2940571569828925,0.127830800089499,-0.017894551529009654,1.9034485105119106,-0.21585820941776274,-0.5735466237275839,0.19239105216297417,0.2543402460013483,0.034385703418663094,0.8984375
-0.04617811236438692,0.23062317051705344,0.046503844459210575,-0.42579224662508014,-0.014556411226596086,-0.04272601876088579,0.018449674349266695,-0.001969621080481965,0.2834593166696726,-0.032066908182123245,-0.08670114979860588,0.0284164852922525,0.03791717086014779,0.004161696636696163,0.90625
0.10612727938983824,-0.511367344087913,-0.10290879858005596,0.9448949270096619,0.03343050199919662,0.09908730571738622,-0.04339317358437074,0.007014279953633076,-0.6316624076695805,0.07178298635621444,0.18822207802871116,-0.06423954033514417,-0.08428698633860865,-0.012905646406337401,0.9140625
-0.16306018353670246,0.8003663740699017,0.16116412379892076,-1.4775782425610788,-0.05139840476296243,-0.15171741383929635,0.06579102940828323,-0.00887537713405533,0.9851141612417325,-0.11161688486835852,-0.2974655095000827,0.0994048265151006,0.1316448871209071,0.017245342625410137,0.921875
-0.24254702838594355,1.1872029736852308,0.23916056535630234,-2.191446023744054,-0.07641363553515518,-0.2256979597252121,0.09806242134288198,-0.013553620812424621,1.4625728803847278,-0.16581304339139763,-0.44063982656996786,0.1476949027782766,0.19530597342818598,0.026131666335467943,0.9296875
0.2523307324730101,-1.2241788044927706,-0.24621428882560656,2.263733932582852,0.07954602944080176,0.2353358289672962,-0.10272987628531213,0.015665684246175742,-1.5102208662065082,0.17138316178771218,0.4527163325595929,-0.15330636098321293,-0.2018241834105389,-0.029325091067199365,0.9375
0.6279865153263725,-3.0536360508733336,-0.614619838913067,5.642918510013515,0.19789499115125614,0.5851525953732039,-0.25515588761067903,0.037827334491410076,-3.7666141749393147,0.42733589380957415,1.1304834997576219,-0.38172837443628377,-0.5031256961296285,-0.07139548827014096,0.9453125
0.2668903232157786,-1.2932202103267072,-0.2603715015348696,2.3896246712482325,0.08409074503466366,0.2486284033008211,-0.10858321187422182,0.0164990455340218,-1.5968259566470098,0.18117787455551135,0.47831900475150685,-0.16200923159455238,-0.2132199400861014,-0.03091094066068236,0.953125
-0.31589561698683877,1.5465445607585202,0.31125199157472677,-2.8560464956703666,-0.09953270294690533,-0.2942185374899531,0.1279364463406132,-0.017894981526823294,1.9042528210402418,-0.21605931419849897,-0.5735349103189288,0.1924476410935245,0.2544142447160926,0.034385199338774645,0.9609375
-0.38773618892884093,1.8962581111084402,0.38163295937943864,-3.4997956904055405,-0.12215492099360968,-0.3609468619115421,0.15702674876298983,-0.022120768425782096,2.3348494643753237,-0.26501181109130284,-0.7027086425004151,0.2359995925320114,0.3119410688905154,0.04241318001902202,0.96875
-0.1108857800601068,0.546937013594906,0.11004643412892036,-1.0063254478153822,-0.03494654199642641,-0.10296325051678369,0.04459000897519561,-0.005776861722722524,0.6706750947889165,-0.07626523109687326,-0.2027781335870118,0.06750889817139721,0.08975112765438106,0.011388362553048089,0.9765625
-0.023148252568422737,0.11889976327752981,0.024071985927865622,-0.2177537894833883,-0.0073548148093928525,-0.02133797795215674,0.0089741241269925,-0.0006043901361531789,0.1437348063105668,-0.016429178123469754,-0.04474184712870409,0.014210058591031003,0.01940940808920028,0.0015748094804989982,0.984375
-0.11979171493130943,0.589202867500018,0.11891983413514785,-1.0882804488320605,-0.03783709497526766,-0.1114525186803736,0.048228182691795095,-0.006310563798069799,0.7250285675707927,-0.08227970161798148,-0.21946443350199307,0.07310598618580261,0.09695917304692103,0.01241516196137841,0.9921875
-0.06786364231546863,0.3358799181652243,0.06787686490311824,-0.6196157089505766,-0.021450475047247876,-0.06301483375599569,0.027151936642084817,-0.0032449720886365773,0.41315183656237103,-0.046808699679879676,-0.12563754554087878,0.041534801512442265,0.055199345541993274,0.006590278061926011,1.0
0.14748061783099847,-0.7134794288600947,-0.143480401979589,1.3190261286452116,0.04646627553937815,0.13765702885540962,-0.06025349502128353,0.009462228701855372,-0.8807724921180436,0.10007805810850887,0.2630536096359554,-0.08949549877101914,-0.11763938638089742,-0.017548367417115407,1.0078125
0.26820746862834993,-1.3016925635197536,-0.261870710015776,2.403449706580702,0.08455938104413897,0.2500617284524709,-0.10920367954926309,0.01658459011677641,-1.605537425535396,0.18237308431879318,0.48059930063553624,-0.16292662951163053,-0.21443642659872056,-0.031073983558020133,1.015625
0.1997902678932028,-0.9678668849635975,-0.1946331495531542,1.7851913228903256,0.06300704743244206,0.18622004943411574,-0.08135573511302938,0.012544480097332273,-1.1934263551412785,0.13563926443223492,0.35684777753544317,-0.12123546741965015,-0.15940995254643,-0.023397044291413382,1.0234375
0.08524102617079267,-0.4088983698604058,-0.08217600375256212,0.7539917312887457,0.02687982134787886,0.07944063139736852,-0.03481696468130244,0.00577913977829144,-0.5047522461645764,0.05750277453920432,0.150223724487492,-0.051470468437478524,-0.06739143028155735,-0.01055514494735006,1.03125
0.03116572343235036,-0.1448296536817821,-0.02905425169054386,0.2690443973493708,0.00979687100227533,0.029032371744074786,-0.012882693813454235,0.002584839398440499,-0.18048439548635684,0.02066226703503491,0.05285962033662528,-0.01857540080139783,-0.023990695800559087,-0.00450430955601258,1.0390625
-0.02591060984092535,0.1335068552630213,0.026989042041257637,-0.2427593170427982,-0.00823233865230663,-0.024093023578649352,0.01022108575076526,-0.0007797798684969658,0.16136328870808286,-0.01827235080587578,-0.04997552422318943,0.016028025519416896,0.02168218284691656,0.0018750711350028263,1.046875
-0.14229935207118138,0.7007049275787828,0.14105634479618231,-1.2893907396577684,-0.04493289765799267,-0.13236754144444507,0.05738830024393246,-0.007645096106269465,0.8600684883656561,-0.09769189025168133,-0.25975716772496815,0.08671402551078754,0.11490617171631666,0.014910549251013726,1.0546875
-0.21624013737280118,1.0604043854241134,0.2133049264344734,-1.9546234471983532,-0.0681928616369708,-0.2011128026831679,0.08735817202676388,-0.012007366921651877,1.3044578520586392,-0.14808845465622925,-0.39285171554451115,0.13169412254107415,0.17416680827514305,0.023195762596465632,1.0625
-0.1357495886839928,0.6665996520612756,0.13409217591552597,-1.2295160416567648,-0.04272917872947021,-0.12610315034935832,0.054671412988688016,-0.00724649416322533,0.8209869146045483,-0.09312119313388229,-0.2474042040818002,0.0827566964251256,0.10957292233512016,0.014162184561763413,1.0703125
0.040527692545775394,-0.19355879514523672,-0.03884476330915158,0.35757579908513343,0.012876807074179552,0.03809313012994854,-0.01689560589058596,0.0031720926135712386,-0.23843623843690756,0.027070344647313338,0.07059477104329914,-0.024533510129948442,-0.031899656304256084,-0.005607099699693272,1.078125
0.17060416246984994,-0.8266340256780368,-0.16620898632725364,1.5267658157959536,0.0538101339771072,0.15923513934499323,-0.06967575282156922,0.010845598615781188,-1.0200235064775112,0.1156538825245478,0.3048991201056113,-0.10368811303893674,-0.13621373412267032,-0.020165253872734733,1.0859375
0.1737399600716324,-0.8401522249198634,-0.16898270302495788,1.5520657442218093,0.054705457369496405,0.16204548456083676,-0.07085928996939493,0.011009645034750748,-1.038205146567189,0.11773868169950227,0.31003135719602964,-0.10547844229042784,-0.1385203043108277,-0.02047525736195679,1.09375
0.027808340170623665,-0.1285384976037241,-0.025723679612730133,0.23809731811937335,0.00870353805679856,0.025983924711527613,-0.01154516905672085,0.0023872939952072343,-0.1609890195670019,0.018334954917788512,0.046528292449736046,-0.016601310102208156,-0.0212988607411029,-0.004111626757863603,1.1015625
-0.196286260973945,0.9625901783614238,0.19393595297313831,-1.7762694300635142,-0.061872795561603265,-0.18273425034586352,0.07938253409196701,-0.010829642950704028,1.1848889559847124,-0.13430245055680645,-0.35753933524068254,0.11965427077260538,0.15838859860049742,0.020974901330849997,1.109375
-0.29874228893187393,1.4614457286767315,0.2942607200055241,-2.6970095175246778,-0.09415260484555166,-0.2780472881438911,0.12087557431781155,-0.016872513443149027,1.799969268110016,-0.20408959520807707,-0.5421556800752898,0.1818839812060528,0.24046054019975657,0.03244827145757717,1.1171875
-0.17825935528370673,0.8750557346165065,0.1761514150603584,-1.6145750211683534,-0.056212252261637306,-0.16581932719511416,0.07194483335606876,-0.009769651935456206,1.0765441560259292,-0.1220089486629142,-0.3248939218894348,0.10863095264894636,0.143869284118918,0.01897112383080031,1.125
-0.010894985658466564,0.06023353995407944,0.012194537744629854,-0.11022309895580595,-0.003470160249447751,-0.010076418282450775,0.004061384878798527,0.00010565520335819681,0.07158835865373003,-0.008038019324985674,-0.023075038179300754,0.006904215070628032,0.009702461549795241,0.00022707634185337261,1.1328125
0.03418057199854502,-0.15941656909864468,-0.03195699248824439,0.2960137681146274,0.010754745161422889,0.031797302596302125,-0.014185084994006659,0.002771888428666393,-0.19936757948959294,0.022580257344820942,0.05839070091714962,-0.0205055357268558,-0.02652784777231606,-0.004841213992373078,1.140625
0.06999941737183252,-0.3343470326978913,-0.06719180099142408,0.61944922169452,0.022031922726590488,0.06521420038679873,-0.028691688716574282,0.004886176285331287,-0.4148108188867736,0.04696118807292541,0.12318123486368245,-0.04229508270749037,-0.05539247269880362,-0.008862841481234732,1.1484375
0.23371062304725465,-1.132484574061502,-0.22785179928874202,2.0926505453565722,0.0735975908755522,0.21786361786587852,-0.0951083736364856,0.01454435182176467,-1.3980598503576984,0.15858390521258078,0.4185185564034938,-0.1418441504140776,-0.18674519908831355,-0.027195762029288136,1.15625
0.3928417486855349,-1.908275273921427,-0.38396388942439347,3.52456250708953,0.12375870581625542,0.3662181829122828,-0.15968576055910946,0.02394001622986333,-2.3536749991933816,0.26708456087778315,0.7056252146147133,-0.23864063187640314,-0.31435603233773396,-0.04502662288855851,1.1640625
0.36026936796740866,-1.7498537921349575,-0.35207619098479304,3.2318589681645733,0.1135405943882222,0.3358907692819444,-0.14648792005661682,0.022025322892857246,-2.157913712838105,0.24489531062434344,0.6470169988154484,-0.21887116638753362,-0.2882008620488205,-0.04139550856231638,1.171875
0.18025199871252987,-0.872819488995207,-0.17558337461998477,1.612072415744921,0.05683948761537373,0.16813812124970962,-0.07346196205418667,0.01140130881304579,-1.0765498817755972,0.12222995790829988,0.3223013504742164,-0.10939372462000915,-0.14377513015874896,-0.021237658953397312,1.1796875
0.01885882663486903,-0.08641529947999729,-0.017303350225021757,0.1599889689431298,0.005970458269834866,0.017769381514724823,-0.008009997084220647,0.0018727950748891951,-0.10731101528370801,0.01229485878840785,0.031035560057580673,-0.0112428114390314,-0.014309356293705564,-0.003153523734311785,1.1875
-0.06742026458503153,0.3339872737299486,0.06731976235706733,-0.6153650606571137,-0.021237759197815634,-0.06255691802645381,0.026943065260406088,-0.003217729376284509,0.410375372669645,-0.04645654872776735,-0.12462938785043579,0.0411735516946526,0.05485359506768396,0.006513967857865808,1.1953125
-0.17492573006736095,0.8576263473257273,0.17271404012332164,-1.581933196741143,-0.05511497695070316,-0.16267369577007662,0.07052854158424522,-0.00955893967207938,1.0557487708704718,-0.11969918821360671,-0.31851442523629697,0.1065034999843961,0.1410601944946093,0.01855405931851789,1.203125
-0.4074289593163283,1.990235909674725,0.40070125263632494,-3.674159853321224,-0.12836737803999435,-0.37928348650871435,0.16485523170768193,-0.023281114085804053,2.4523994374584124,-0.27811235479030183,-0.7380723990080867,0.24789882458590923,0.3275880458067555,0.04459666999884517,1.2109375
-0.6435657077854113,3.1410764763275565,0.6323376168462616,-5.798736885695166,-0.20278839479402977,-0.5992607638923029,0.2606362455938516,-0.03722019568169132,3.870718843374273,-0.43900176130156404,-1.164284994654049,0.39148956869850954,0.5169855335338954,0.07104799315562654,1.21875
-0.5748783742471989,2.8073867941443766,0.5651071674951549,-5.180246987238293,-0.18118933107440516,-0.5352710675176563,0.23276041124958285,-0.033169401744929106,3.4578375782323194,-0.3922522385204413,-1.0404223994340223,0.3496978619913431,0.4618165268873681,0.06336100129568836,1.2265625
-0.15907475368560134,0.7822360051436839,0.1574501753178193,-1.4406613539899469,-0.050191459356230594,-0.1480032056913222,0.06417608795698224,-0.008634799810732506,0.9607483089585159,-0.10905448200814108,-0.29028125898182183,0.09693095128001959,0.12834363903822782,0.016806190405036708,1.234375
0.23023636009347567,-1.114620798841862,-0.22430468861687233,2.0583982769836533,0.07251354294851438,0.21454529537537412,-0.09358398348508346,0.014333613553552149,-1.3763273780100342,0.15612230208381,0.41190552867774033,-0.13962043221948317,-0.18371200335319846,-0.026775642501669278,1.2421875
0.36147514901287525,-1.7541850641058871,-0.35301604457647107,3.237333241249621,0.11389534409539427,0.3367525782040413,-0.1467609231034334,0.022073924233190753,-2.1639410643099524,0.24555414855171298,0.6485423825851467,-0.21933485034160105,-0.28885777255143313,-0.0414650270386172,1.25
0.4253531835393106,-2.0651369116189575,-0.4156059939409252,3.8139130403666663,0.13398866458082853,0.3962472262250321,-0.17276538291482557,0.02584752827664889,-2.548292532053597,0.2891169477993557,0.7639748543723047,-0.2582699970893897,-0.3402043699759958,-0.048629060697041315,1.2578125
0.49671649591371414,-2.4128602575966345,-0.4854971542683603,4.458221306135437,0.1564361120830271,0.4627076346194295,-0.2017895671947504,0.030069859288266537,-2.9776136854260224,0.3377296159393645,0.8930451931614675,-0.30177783502674543,-0.3975656798882373,-0.05663805881092596,1.265625
0.35016479343580764,-1.6996049726873088,-0.34184328192188534,3.139893906877997,0.11029320575857822,0.32627307003838807,-0.1423331045506541,0.02142844173879141,-2.097304714429996,0.23787158588274862,0.6287754091371609,-0.21268925326162827,-0.2799975206470554,-0.04023687484214019,1.2734375
0.0646256254207331,-0.30904115445646524,-0.062073931336635475,0.5713738851937126,0.020375178137432504,0.060494124454951795,-0.026557665695054133,0.004575965514596306,-0.3825963721471932,0.0433980348226412,0.11363958184614116,-0.03910662603376129,-0.05098901004650451,-0.008270450413449062,1.28125
0.033004802296175216,-0.15484842202218024,-0.0312007157033256,0.2890962475664342,0.01039292488783098,0.031145858672219393,-0.013872386289494255,0.0027075938044482397,-0.19380332226222888,0.021945108124415597,0.05668054839419966,-0.019993336842946633,-0.02577710735620815,-0.004746136441049917,1.2890625
0.17058705242252953,-0.825070503209603,-0.16602543043865678,1.5278366046228273,0.053707423861942195,0.15919247075040965,-0.0697247497938358,0.010829788432707856,-1.0203974100603244,0.11570075301139401,0.3049100615597612,-0.10368112627799837,-0.1361843275401711,-0.020161931510832117,1.296875
-0.032680357862110807,0.1645413844881448,0.03328785594945758,-0.30300390653228904,-0.01028515457863766,-0.030248875655521756,0.012835814930645858,-0.001164582569354003,0.20186649937753018,-0.02278935612380858,-0.06201445297200896,0.020038092474123245,0.0269758285770758,0.0026165787762197994,1.3046875
-0.5432068818877849,2.6507594519976694,0.5336176757718273,-4.897735827046422,-0.1710450374943335,-0.5057022812768573,0.22000149698102006,-0.03129500835236418,3.269360748795614,-0.370571062399594,-0.9832173543068372,0.3305620143564406,0.4364889060906252,0.0598114420429345,1.3125
-0.7346494926429152,3.582831899968539,0.721190282131592,-6.618672047848513,-0.23134804289673552,-0.6839462876445098,0.29764230659483554,-0.04258725969291908,4.418815541050493,-0.5010028963184496,-1.3284627551431571,0.4469344227686495,0.5898783812088952,0.08125170698268049,1.3203125
-0.37264836963995207,1.8193927016361944,0.3665249014201342,-3.360172967580282,-0.1173537612508531,-0.34691049341056907,0.15082480550833274,-0.021213177265908243,2.2438858592192643,-0.25446820873557585,-0.6752266830766499,0.22678985738056295,0.29946652293140824,0.04069255596008721,1.328125
0.1140452181298403,-0.5504664681780065,-0.11033244397174938,1.0175135823470722,0.035928845420465524,0.10620417840417945,-0.04654346679326699,0.007501679867564225,-0.6791382193575501,0.07708638749210522,0.20263526377830549,-0.06908477335715622,-0.09070626900318712,-0.01382394795281584,1.3359375
0.3282974232734107,-1.5922831110063913,-0.32039162884742284,2.943280336076031,0.10337586050866296,0.3057689583812987,-0.13351300568758723,0.020116996959822674,-1.9658967281105593,0.22317273441138352,0.588868647560684,-0.1993358344980196,-0.2623655242527183,-0.03780556468874621,1.34375
0.27820615617111455,-1.3468108183256307,-0.2713710897538933,2.4922120700189563,0.08751739937199252,0.2592822941090695,-0.11329469259104634,0.017141890021877226,-1.6656630175735287,0.18907933107586603,0.4984878500712616,-0.16893890356523977,-0.22217989750702372,-0.03216752835904387,1.3515625
0.13298445682409651,-0.6393809550054539,-0.1288704544135421,1.1854596867260987,0.04173276461654797,0.12410406975968309,-0.054324932310840124,0.008580920033698128,-0.7936864441441956,0.08994333929581738,0.23669808693321254,-0.08064432524641735,-0.10570734639634492,-0.015882886681487497,1.359375
-0.0033617814904145053,0.024025152888777768,0.004944777073426807,-0.04241031643369655,-0.0011643247388957462,-0.002971068632722045,0.0011436167606566747,0.0005500652080384748,0.026030081830682082,-0.0031349952011240955,-0.009224691635968283,0.0023576025303165154,0.003737825801737604,-0.0006136192285061821,1.3671875
-0.116886752036655,0.5766004693914502,0.11617974522239873,-1.0643386230316243,-0.036859424714884965,-0.10881725829172481,0.047227190330275615,-0.006147011228883453,0.7087445159780683,-0.080428440640559,-0.21417204040983345,0.0714413017273799,0.09481580238078136,0.012089138212079416,1.375
-0.18214133149746467,0.8940815834541047,0.18002653091965642,-1.6503608160323193,-0.05739510483417966,-0.16958074924511168,0.07361138113030764,-0.009994357780373735,1.100668231620099,-0.12475530619104082,-0.3319717637365405,0.11105040597728762,0.1470086691444965,0.019395479867549335,1.3828125
-0.05314544179733011,0.2645905124333113,0.053424262371377824,-0.48850240106378723,-0.016718315025674155,-0.04927111362681307,0.02123893842726978,-0.002366232012858304,0.3252385561495293,-0.03685836647323917,-0.09910882402905624,0.032514774564161755,0.043334270132494364,0.004952514767571897,1.390625
0.29807155476480185,-1.447266355639176,-0.291166567244981,2.6720672509631087,0.09400268588358991,0.27802147512662423,-0.1212512583497968,0.01836878707915795,-1.7850233238174393,0.2024105562235055,0.5347703002890795,-0.18109497360489252,-0.2385085862871541,-0.034393712326866846,1.3984375
0.4896892098536295,-2.380077723192502,-0.4791851190892166,4.396684971099872,0.15436714742057786,0.4564774481509857,-0.19905671178630874,0.029664671752789497,-2.9364494017508327,0.33301837387846683,0.8805931300358032,-0.29763019573814437,-0.39220341107362017,-0.05587690556119384,1.40625
0.19259210461932122,-0.9314748682117796,-0.18764941083929287,1.7239545710922919,0.06066020274271139,0.1795796349178136,-0.0785905955409029,0.012119080553054468,-1.1519023657720249,0.13062665459888995,0.344485025057948,-0.1169816463004089,-0.15376657996641457,-0.022611968971827764,1.4140625
-0.23659853841197423,1.1588858812574556,0.23348369786258624,-2.1379881794037865,-0.07461301081032996,-0.22026234464105726,0.09556426488019767,-0.0132023007681585,1.426483787202394,-0.16182739554626968,-0.4299875693925203,0.14401352002919415,0.1906314745952712,0.0254573299463198,1.421875
-0.2676448713518323,1.3080285709677937,0.2638326557885416,-2.41710133178746,-0.08431781534633091,-0.2490732864101902,0.10822097671570809,-0.015020914968806249,1.6131304780121047,-0.18291934803136609,-0.48595113975525567,0.16291925060635676,0.21552076254377883,0.02892147678196241,1.4296875
-0.07224816697003823,0.35532897885608855,0.07195379140900855,-0.6578156598865852,-0.02268516684280602,-0.06698348878898702,0.02895675882164811,-0.0034933955454211456,0.43921534152860664,-0.0496294634080171,-0.13329474663079344,0.04414231037526877,0.0586916836618801,0.0070251744315909005,1.4375
-0.09369395546872165,0.4616107446683751,0.09301312774577082,-0.8512103057642965,-0.02949537359572398,-0.08703846415355487,0.037671726836806745,-0.004778400980192914,0.5681894802941806,-0.06422942985106819,-0.17210542193535744,0.0572625680739532,0.0759415307193041,0.009453283609298143,1.4453125
-0.1733082820368219,0.8514753702131357,0.17132049132530955,-1.5704901547680101,-0.05466326798940557,-0.16131014037437005,0.07003243574654061,-0.009489105362318628,1.0472783462122148,-0.11866551294011372,-0.3160031480037104,0.10575676155394073,0.13997629554253144,0.018415796751750296,1.453125
0.01861361747715244,-0.083668407806072,-0.01687015641324422,0.1549233876340837,0.005823560025350711,0.01744244769875243,-0.007806818578874243,0.0018440219668088616,-0.10487780343165248,0.011998876978667096,0.03030111454108436,-0.01095584721055795,-0.01394884765550794,-0.003074987104489381,1.4609375
0.20120880626542145,-0.9744775406048741,-0.19609882344600452,1.8003054346031122,0.06342936526495524,0.18751567774539718,-0.0819496021928832,0.012633693069075176,-1.2019330651728708,0.1365585902619244,0.36002420066254104,-0.12208876224152476,-0.1605983654198319,-0.023564596502072186,1.46875
-0.010444771110440608,0.05662333190100022,0.011477650578968357,-0.10185356893516762,-0.0032582925024478055,-0.00971715819659184,0.003836169063290451,0.00014670481340121397,0.06880357879805252,-0.00752414050786623,-0.021835570638108162,0.00652493041525365,0.009074817010502886,0.00012101700577301,1.4765625
-0.335487901088393,1.641320686436425,0.33045080100669894,-3.0280490627807963,-0.10575734760676646,-0.31251869530104137,0.1356711210134703,-0.01904165059435227,2.020988516720934,-0.22913798480513942,-0.6085979600380363,0.204154721919469,0.26991505418185074,0.036548792474006,1.484375
-0.25789572133955113,1.2639258828521494,0.2544667227639764,-2.3320949733961434,-0.08136976198034399,-0.24011708757465702,0.10420603001595174,-0.014467513771423366,1.5547599124656966,-0.17649302666291192,-0.46872941180790095,0.15699092531210587,0.20776266052185752,0.02787893222589714,1.4921875
0.20968286212645812,-1.0143762669798395,-0.2041576184891036,1.8758174829474346,0.06596969657534635,0.19558716430218484,-0.08543624747883738,0.013123678905531054,-1.254268659212598,0.1420918812833499,0.3750832955862049,-0.1272884595156114,-0.16739777492235502,-0.024497826006538027,1.5
0.5997692369866158,-2.9152090790662957,-0.5867953326036657,5.387076086051484,0.18890974786164955,0.5590030767465457,-0.24362668732441767,0.036140357097496335,-3.5977315329890995,0.4080032361042757,1.0789958411081848,-0.3644366640132211,-0.48039973022753263,-0.0681943667552275,1.5078125
0.5027962342727393,-2.4430124633868857,-0.49171495491677264,4.513291112133772,0.1583675447393678,0.4686602066637261,-0.20426027551485657,0.030419485624705155,-3.0150445628745413,0.3419037639383874,0.9039164478959059,-0.30546784997617277,-0.40253726878221674,-0.05731933548733244,1.515625
-0.06651727599943007,0.330109312948077,0.06656908242259375,-0.6110568508049977,-0.02098316247061285,-0.061657398553227855,0.026682862395610928,-0.003164756984990407,0.40511098509047466,-0.04613904208417481,-0.12329099504643196,0.040655847079036064,0.05426633009266524,0.006455620460403006,1.5234375
-0.5867937299677385,2.864475611737651,0.5767499875201146,-5.291300346720452,-0.18486210572304945,-0.5463105880428377,0.23773650306023258,-0.033856704236092945,3.5303490152781016,-0.40062468480864644,-1.0618035925196705,0.3569817112349194,0.4716232271253697,0.06471551499213578,1.53125
-0.5253868558716472,2.565624137263192,0.5165410978775097,-4.735784102979946,-0.16549429473027272,-0.48914982719375416,0.21283221158598056,-0.030235388701511434,3.1611302957598757,-0.3585986550162846,-0.9508187083350359,0.31966276353033557,0.4223072014044162,0.05781484785552028,1.5390625
-0.015339392049467259,0.08099965196968138,0.016379433431629044,-0.1452966186061384,-0.004798147980135327,-0.014079043939527563,0.005916040773328739,-0.00014376161870911937,0.09732037058687358,-0.010906107562673526,-0.030590502138236685,0.009545754243773479,0.013144158674290026,0.0006743483011525781,1.546875
0.36261009768813407,-1.7609251153591463,-0.3543038472795075,3.25343823014915,0.11430180594151432,0.3378969136322962,-0.1474205158394212,0.022157806085605393,-2.17213939975756,0.24665960086887148,0.6510753852369826,-0.22025428330582444,-0.29002690286795696,-0.04165482962817319,1.5546875
0.36807606071651855,-1.7882799868607364,-0.3597480699482623,3.299901251483398,0.11605411557795392,0.3428520346114971,-0.14964672369839394,0.022479101135439744,-2.2039268032906207,0.250356044624271,0.660675013757913,-0.223532432725773,-0.2944298191189077,-0.04225379205867616,1.5625
0.14407421253748592,-0.6967999982917004,-0.14013265795721203,1.2842689105562841,0.04545736411229805,0.13418364970949526,-0.05879585370266071,0.009257394895045816,-0.8583354378906572,0.09767047547373754,0.2565637739760319,-0.08729943928771654,-0.11478921351612689,-0.01715470414944642,1.5703125
-0.19225183045520375,0.9422157456251669,0.18967239646747694,-1.739162077687905,-0.06056807559029463,-0.1788906171158842,0.07761105788765608,-0.010585955091482274,1.1609221081167336,-0.13155696907037331,-0.34988976441286346,0.11714444906922653,0.15494314552251873,0.020510658694073074,1.578125
-0.4127843386799354,2.0163766346515453,0.4059595907577394,-3.7210318853146043,-0.1300849119073273,-0.38412611556623766,0.16706536165449434,-0.023591071150802456,2.484771029010044,-0.2818510378236173,-0.7475183206056963,0.2511630435803509,0.3317836861963567,0.04519756264169282,1.5859375
-0.1817080680485131,0.8901814639216874,0.17944103843425263,-1.6418607944372163,-0.05728857359880316,-0.16896191393144294,0.0733259176441493,-0.009955682188693372,1.0965682598894655,-0.12438559013786707,-0.3306632044016896,0.11066532233537218,0.14637543214183524,0.019305077586117433,1.59375
0.2742367623373021,-1.330545198510388,-0.2675517595373341,2.4595768610303748,0.08634209529568632,0.2555527176829721,-0.11166508638364527,0.016938613758621966,-1.6422462556612336,0.18630990855954127,0.49183477594326963,-0.16653807678065521,-0.219337135100429,-0.03176718119982068,1.6015625
0.27275436437443146,-1.3220517425289349,-0.26600422386931977,2.445200695170962,0.08585120946972456,0.2541408512911685,-0.1110838014324074,0.016842784772103263,-1.6333031687346815,0.1852947426571763,0.48910682134701916,-0.16565498517116112,-0.21798633222201283,-0.03159339115835586,1.609375
-0.1560673041786375,0.7678428084936901,0.15455244100325263,-1.4154969976246417,-0.04925349180266741,-0.14522553789153456,0.06293309966623481,-0.008464611805654334,0.9431541824137848,-0.10697138325465776,-0.2847788044897907,0.09510961562201986,0.12622896982497125,0.016463359348133214,1.6171875
-0.2431083070954814,1.1919371647751422,0.23990915869634,-2.2014051757653976,-0.07667269434290631,-0.22629947045904,0.0983274646040242,-0.01360601068250791,1.4665708381647793,-0.16641258750347152,-0.4421569273544952,0.14814535674216175,0.1961494655381335,0.026240355453489378,1.625
0.12305467318364956,-0.5918536393120618,-0.11920044074593344,1.0935446154865345,0.038682926042456156,0.11477613523251148,-0.05021192553588616,0.00799740602738617,-0.7334551431399292,0.08301659127235322,0.2183739560402195,-0.07447248794427506,-0.09771714418937484,-0.014773037030888676,1.6328125
0.23763378803349933,-1.1499807826130928,-0.23162212393434486,2.127840740642788,0.07480191721381892,0.2216147450053618,-0.09674405948247172,0.014768949505368403,-1.4227382848665346,0.16116600604531026,0.42531647496685165,-0.14429782961919105,-0.18984908929525038,-0.027630445366047064,1.640625
-0.029977112323027667,0.15310620142995887,0.030764140365682938,-0.27832563186555653,-0.009444405302955138,-0.0275845510667843,0.011841426153149105,-0.001003284849143625,0.1849904709885613,-0.021072549520356355,-0.05730298720885019,0.01830642323289096,0.02475861415832416,0.0023356016904399813,1.6484375
-0.07303770855055951,0.3617660843271074,0.07295219930952328,-0.667516229183718,-0.022946428781603235,-0.06781174694533229,0.029400658458821102,-0.0035365344337080777,0.44511307927445204,-0.05038819180135776,-0.13498129969357917,0.04459799290610564,0.05938567444340356,0.007175405896214427,1.65625
0.1726233810597316,-0.8355806384226636,-0.1680402854909008,1.5411853069273014,0.05447045350966749,0.16084812116724917,-0.07023898037477505,0.010951312331123042,-1.0295805647668408,0.1170430140208121,0.30820302416206946,-0.10463269217218044,-0.13761990528841844,-0.0203305902212199,1.6640625
0.1698423703239011,-0.8221342340335609,-0.16540590906943967,1.5170706130990366,0.05358580387835145,0.15825572850540387,-0.06920883939146115,0.010781992542631465,-1.0131911404592397,0.11529038315004791,0.30323572909450497,-0.10299559891351497,-0.13540676965740875,-0.020034008598755086,1.671875
-0.08452725683489494,0.4164132423370363,0.08404612504462303,-0.769733563698444,-0.026569934206527878,-0.07856589970825974,0.03387543547827142,-0.004218281172161778,0.5139701951749324,-0.05795022306865297,-0.1555276289007298,0.05154411595265254,0.06861152938651513,0.00843443394403084,1.6796875
-0.14714129872751155,0.7205968454587853,0.14553498981075277,-1.3319307991328115,-0.046328048819142605,-0.1368369186445184,0.05924825205260564,-0.007903196375890936,0.8894080630191912,-0.10073895958991808,-0.26823388260788367,0.08963255542414297,0.1187901291213101,0.015433057946639664,1.6875
-0.08719380548181602,0.4289130701332666,0.08678649308166807,-0.792075586106276,-0.027483415863525904,-0.08101751625370562,0.03495732752940044,-0.004372521080312654,0.5286894765789082,-0.060084015521598574,-0.15990095571557308,0.05327616050085058,0.07062351378609116,0.008710929092762651,1.6953125
-0.2184580723585741,1.069744104523121,0.2154661431454275,-1.9732457649538597,-0.06885937380156922,-0.20324130662392834,0.08823493740814706,-0.012133188004041548,1.316652120063413,-0.14958156050331148,-0.3968265678975076,0.13307463734460107,0.17588863536317018,0.023410107434203936,1.703125
-0.30851123305858197,1.509377408386109,0.3037564258219714,-2.7840969957162764,-0.09722855162796923,-0.28700202541082315,0.12477414759328852,-0.017453558917040774,1.8573804721519989,-0.21089053544751213,-0.5595766521142266,0.1877325823616226,0.24817683456818151,0.03349982260819077,1.7109375
-0.04001514428607275,0.20189491393091963,0.04054701797457831,-0.3688784848754241,-0.012650639931495037,-0.036870687341936825,0.015869236779985873,-0.0016113832713162467,0.24479835809298425,-0.027915228638037172,-0.07537351571572681,0.024467589486789062,0.0328692711469306,0.0034412431768539612,1.71875
0.2768108043880161,-1.3406369465312955,-0.2699947459768527,2.480900101822939,0.08713177750787185,0.25809244182682967,-0.11259733629645048,0.017076049178719375,-1.6574653279621105,0.1879688742252798,0.49611896851989673,-0.1680497711025955,-0.2211951863968191,-0.03201541388125148,1.7265625
0.23535889636146767,-1.13825936111881,-0.22925446629144372,2.1063215432149898,0.07405961550811971,0.21925085601040104,-0.09571982811214826,0.014622058373856179,-1.4071636141856168,0.1597830647898952,0.42123186248279104,-0.14271316385716293,-0.1878271020727908,-0.027342756676976523,1.734375
-0.0004879178736058259,0.009664539417344568,0.001991076056612682,-0.016892026468154794,-0.00021349372217246426,-0.0005655591294655305,-7.582790932462764e-05,0.0007107454529851244,0.010309934568780791,-0.0008386651138624175,-0.004313649061212536,0.0006950639610908781,0.0014231869996662644,-0.0009262824710016779,1.7421875
-0.07819882597239859,0.3870596107991577,0.07807604298666222,-0.7157419811287,-0.024651770413366286,-0.07291335962072427,0.0313427363833041,-0.0038610732580852745,0.4767341733072083,-0.05379563144367615,-0.14447581721075417,0.047822920329064496,0.06368245062016668,0.007748898269466252,1.75
0.056284458906047864,-0.26819961404146453,-0.053946721189754625,0.4949956914869108,0.01775423953242231,0.05251482235537567,-0.023256085479143183,0.004082396623341769,-0.3318338920558739,0.037755546272381514,0.09817582965416843,-0.03407231628686673,-0.04432096314140901,-0.007333802488269714,1.7578125
0.2775006133333105,-1.3462112487177313,-0.2709991382055244,2.48548729479172,0.0874800838314195,0.2587448577814297,-0.11294911102536305,0.017139119184778073,-1.6608489006117026,0.188471721768747,0.4972998188665577,-0.16861027223050112,-0.22182906812487266,-0.03210602933655322,1.765625
0.3741848839548376,-1.8184922149121223,-0.3658049889398228,3.3560791478285363,0.11793850279130721,0.3488623040550873,-0.15215734512615678,0.022849683136110743,-2.2416842899475196,0.2544387771157186,0.6718322982346222,-0.22737885533871868,-0.29940328201910066,-0.042933483444403106,1.7734375
0.1132145565963472,-0.5472393040691715,-0.10967091345911242,1.0095501140119203,0.03565257941324129,0.10568757165866753,-0.04633430510683449,0.007451833711542627,-0.6746918097105593,0.07662608589756646,0.20110002533330745,-0.06869792310342869,-0.09007295989843292,-0.013718446055910374,1.78125
-0.3276208708546057,1.6023492642975397,0.322885767946399,-2.9565236089743765,-0.10330434253214286,-0.30504868422133735,0.13252608034336605,-0.018569567844914883,1.9727464936576977,-0.22393507403629032,-0.5942400093886161,0.19937586514576347,0.2636066485393958,0.03565264795747468,1.7890625
-0.3961242522231694,1.9374123994161443,0.3900437939454254,-3.5741453820398466,-0.12486265985457362,-0.3688534883957791,0.1604319259542749,-0.02262018840766952,2.3845233023204817,-0.2707703050870399,-0.7177878298203967,0.24112924515494305,0.31864464994462455,0.043341649610172235,1.796875
-0.048045521037514125,0.240543952791511,0.048408731256647436,-0.4425103135173465,-0.01511015306668031,-0.0445122106066439,0.019276383294705275,-0.0020787196575833672,0.2942789128672393,-0.03350022185043267,-0.08956881532433002,0.02955268023524126,0.0393838147344166,0.004365627720627416,1.8046875
0.09695980566128302,-0.4672827267134095,-0.09402121544429516,0.8639096998583857,0.030601453203089084,0.09069586050114693,-0.0396239319022514,0.006482704686154746,-0.5769403311732456,0.06549197674876574,0.1722732418438687,-0.058680478853801885,-0.07710611667141877,-0.01188226200953056,1.8125
-0.1471241682470355,0.7222264034365379,0.1453363538101638,-1.3312643968784788,-0.046348689662028736,-0.13658584374000898,0.05931542288616302,-0.007921887207478974,0.8885461119639043,-0.10082007105113672,-0.2681013293810135,0.0896289705459245,0.11860601164654483,0.015452614792796093,1.8203125
-0.20151200609797357,0.9880171242098038,0.19875217317909946,-1.8217866245519891,-0.06350271774303835,-0.18732424498538316,0.08137326858104804,-0.0111337963704084,1.2153470383004394,-0.13797415696980528,-0.36641773307080977,0.1226999484686258,0.1623323599411872,0.021548147303445127,1.828125
0.13326219597689848,-0.6432286072722,-0.12944946252900308,1.18925872194311,0.04200397652994904,0.12428464211495219,-0.05443124257448976,0.008624050523042468,-0.7946810738132261,0.09020504375133029,0.23735788192738555,-0.08079079092374318,-0.1060798630110008,-0.01595267656422615,1.8359375
0.25943877650623215,-1.258250312855059,-0.25300136241223364,2.3248741432129063,0.08174672981871155,0.24163054057511876,-0.10563758913984943,0.01607105724221195,-1.5521098765752428,0.1763652706381959,0.46479916516870096,-0.15749908910376959,-0.2072343244607768,-0.030089945492866692,1.84375
-0.07831392595844708,0.3880959021533643,0.07838508697115566,-0.7143574501936952,-0.02472652097075881,-0.07298409816206579,0.031390647823213144,-0.003868046591528334,0.4766031045982675,-0.05372286037163088,-0.14475756587965205,0.04785026307048539,0.06376528003598263,0.007757293901843891,1.8515625
-0.30590795526167414,1.4978668011524912,0.30152947796450885,-2.7643982067637998,-0.09643396221007768,-0.2849349155448425,0.12377371402872168,-0.01730835177834259,1.8439989794043476,-0.20891907657074674,-0.5554726626122051,0.18626699343792252,0.24644052878850153,0.03327154383407054,1.859375
-0.07600977152706465,0.37754358909135244,0.07589964702163568,-0.6975390156882405,-0.02393479227833254,-0.07081089403993075,0.030538205367488015,-0.003740539986910029,0.4635638915767928,-0.05240738224028888,-0.14060628836964642,0.04650905371845662,0.062037205525060694,0.007509635486750656,1.8671875
0.18125079076566977,-0.8767824155301175,-0.1764567833662749,1.6187665063412664,0.05712532276384418,0.1688760473807801,-0.07386062874208703,0.011449997822713276,-1.0823244271384564,0.12279386401217715,0.3237835113639268,-0.10996347451175321,-0.1444942254542198,-0.02134223447167281,1.875
0.11580535394640894,-0.5584327410452253,-0.11225370572225069,1.0330003659899287,0.03642025622833992,0.10814314692850749,-0.04736272171243903,0.007591633241690531,-0.6906588031318266,0.0781626534939112,0.2059257105685841,-0.07023182379469672,-0.09220309017195277,-0.014022081520672419,1.8828125
0.0017624342114162753,-0.0029043663376827063,-0.00045204953258197163,0.007767424526461061,0.0004461501248755919,0.002074969383389353,-0.0011085111595887617,0.0008588976491078426,-0.006036198790719872,0.0005123869696301289,0.00015048334151291582,-0.0008791719342602412,-0.0007875945594577231,-0.0012234678934347324,1.890625
0.1221073858130452,-0.5895769070194922,-0.11851847492471816,1.0890945734792472,0.038437852755864865,0.11406636153496373,-0.049890741632836536,0.007963509628544401,-0.7279069623482733,0.08261800956714623,0.21706523305744038,-0.07402363149284195,-0.09725526899552352,-0.014692517228354098,1.8984375
0.2989497805934111,-1.4516026593903897,-0.2918892927884374,2.6793492575379303,0.09424673722860108,0.27863261880298396,-0.12158090747815128,0.0184094557752854,-1.7895602571723537,0.20313328420499077,0.5360379633388276,-0.1815694507999256,-0.2390411046004711,-0.03452212305749679,1.90625
0.26517122902318485,-1.2867765204452506,-0.2587097198268154,2.3760387669789154,0.08360535626402675,0.24721870440115234,-0.10786100809714436,0.016418556353972845,-1.5873144864031874,0.18003794206898538,0.47526202644130827,-0.1610412963676679,-0.21192751427401765,-0.03074614907833045,1.9140625
0.03908771262446211,-0.1843003751924804,-0.03706481139578631,0.3421122410986626,0.012314507737946843,0.036744396951352405,-0.01617835317465067,0.00306469219436632,-0.22982819053182957,0.025947286987229232,0.06752623994161454,-0.023522818729063946,-0.0305669346528454,-0.005393089754663131,1.921875
-0.16805070502788208,0.8256068016134909,0.16599410306118906,-1.5220764041466177,-0.0529857275467094,-0.15627131910621506,0.06779688393101196,-0.009170855734012943,1.0148540304247864,-0.11513375666007741,-0.30619920389592653,0.10246039076701445,0.13559478009260464,0.017827017175967685,1.9296875
-0.16991831795303014,0.8345024318137336,0.16789082199192296,-1.5384202212125744,-0.05356830481629744,-0.15818894735983094,0.0685285087545819,-0.009277055316574245,1.026642712435332,-0.11632935690200333,-0.309560135210931,0.10354922089068712,0.13707159072985975,0.018011423133342634,1.9375
0.00837581689799724,-0.034697563230836025,-0.00682923149491193,0.06662402596913472,0.0026349930497178713,0.007840055123286829,-0.003771912622893877,0.0012579394187395246,-0.044267166958913126,0.005163212868800786,0.012205429214544202,-0.004914978002859646,-0.005949337252724083,-0.001982223702535287,1.9453125
0.09152448579834883,-0.43989940227558977,-0.08831563514005342,0.8135107817488706,0.028863461441165972,0.08535730244717345,-0.03744705219881094,0.006170172997842187,-0.543613796077366,0.06177175448804785,0.16211330068831556,-0.055453810306401355,-0.0725547575838541,-0.011275404981838745,1.953125
-0.0875755650276298,0.4328465550682504,0.08732509807837549,-0.800208549870845,-0.027558508453102367,-0.08146251890102456,0.03523538588212178,-0.004405316405506384,0.5324511966468221,-0.06027579396492884,-0.1613415008856833,0.053490536050458816,0.07122491887360347,0.008811165794494931,1.9609375
-0.28431285491200875,1.3913491051152047,0.28026028015384474,-2.569506557638781,-0.08958571611804009,-0.26475227172310545,0.11501613729353789,-0.01602258550556167,1.7137526352747234,-0.19428214821604448,-0.5163636971897395,0.17310639253960797,0.2289951014576117,0.030832435389894886,1.96875
-0.24843967672171724,1.2167621003830549,0.2450430942679165,-2.243158790045653,-0.07835345290490252,-0.2312603256860151,0.10041683844996879,-0.013907422902592724,1.4971261640579394,-0.1698449970817892,-0.4512944850365384,0.15125669080879564,0.20004665273317382,0.026789031485154994,1.9765625
-0.1767226730187285,0.8680122190783927,0.17463221517037128,-1.5971262376080544,-0.05579102115398701,-0.1643008109119611,0.07132359641112175,-0.009676015789890986,1.0659129465331485,-0.12109708911895933,-0.32168023828036196,0.10765974350923142,0.14249464789052138,0.01877017907351154,1.984375
-0.2751662041727371,1.3478464465570694,0.27110725125404034,-2.4862579996174623,-0.0867560582744617,-0.2559539670198598,0.11130428586605678,-0.015488104348268668,1.6581904309419437,-0.18822846489643094,-0.4995499844011539,0.16757789502469186,0.22166399462748998,0.029825852086427615,1.9921875
-0.2560046570689463,1.2535182368971902,0.2522679843977454,-2.315687324991692,-0.0806199476092431,-0.2382114897857052,0.10354742677628337,-0.014356650913810469,1.5441222298969393,-0.17500388603617528,-0.4652618549132854,0.15595556997134527,0.20638982500735317,0.027667897314238986,2.0
0.12558557705958037,-0.6067703808735705,-0.12198831373501828,1.1201486965363239,0.03965831600521773,0.11713038145041067,-0.05130186178801305,0.008168751835828875,-0.7481321797636017,0.08519307726026834,0.22333440801496374,-0.07612281678139685,-0.09993112940706124,-0.015115153730308022,2.0078125
0.4836614305487249,-2.3514260485951675,-0.47311848034615417,4.343726118171103,0.1524445504351598,0.4506551738364478,-0.1966176203858018,0.02930563345778941,-2.8995948925675763,0.3291089568419433,0.8695754908992679,-0.29392111399135945,-0.3874039932445177,-0.05523671156993278,2.015625
0.4054642578122862,-1.9699016543852192,-0.39633276462804545,3.637846996888025,0.12775630254046955,0.377820771534778,-0.1648842743543579,0.02468935516460644,-2.429725264526119,0.27561683347349714,0.7283457655991318,-0.24635914147783405,-0.3245955478974578,-0.04645367609674556,2.0234375
0.16003515004944896,-0.7739141232951902,-0.15557358672824656,1.427390017711223,0.05041080290383638,0.14921272925543938,-0.06525231925819035,0.010200182750404836,-0.9550177077996527,0.10831860719340548,0.2853494450442811,-0.09703862030483133,-0.1275124768392851,-0.018941234777227946,2.03125
0.1693782296832153,-0.8191901138858918,-0.1647190138990295,1.5128087191607953,0.05333380471560222,0.15796554376369634,-0.06897183586100616,0.010749037172380916,-1.0113280708941572,0.11470303051003285,0.3023425959225806,-0.10266996120786755,-0.13500645579461276,-0.019985350326205038,2.0390625
0.298571455203033,-1.44807515356105,-0.2913923166599785,2.676753724297886,0.09399684654141817,0.2783548154816521,-0.12135080294434417,0.01837469085094834,-1.787738490949613,0.20265104910141477,0.5356088472526651,-0.18125113986456143,-0.23874923358380404,-0.034455582904476915,2.046875
0.2648203890197905,-1.2836753583364668,-0.25829985085263185,2.3718153644389988,0.08335406904940892,0.2468701824908064,-0.10769495535734468,0.01638388743470718,-1.5846916828545607,0.1796089776779237,0.4745995840085697,-0.16075492759464666,-0.2116348128526725,-0.030671220291445957,2.0546875
0.19706488130373292,-0.9544832808766184,-0.1919428226828835,1.7612680788924215,0.06204206765695768,0.183661729787548,-0.08030557986635305,0.012383158614651588,-1.177331006726708,0.13363263811528378,0.35225302645912027,-0.11955215622935993,-0.15718043091926476,-0.02308800376445936,2.0625
0.2212803956161409,-1.0729152889843419,-0.21573948463214052,1.9813754150839997,0.06968712484054912,0.20620535930076117,-0.09021993287060133,0.013810910588745375,-1.3234053027881663,0.1503838736728094,0.3961608698931912,-0.1343157083789832,-0.17665393559394646,-0.025813345717370643,2.0703125
0.030137985078151255,-0.14104406317305723,-0.02822365004834044,0.2642362710953882,0.009457695763766384,0.028257098214223935,-0.012705509273863136,0.002537511140296845,-0.17635915667923835,0.020193045137393072,0.051525470573317675,-0.01821717490521691,-0.023459910672633484,-0.004408538498991607,2.078125
-0.5499995132834342,2.685850245129192,0.5407007489182606,-4.955482413438102,-0.17328155592484965,-0.5120227751751601,0.22265168352708006,-0.03168650456901036,3.308030275347528,-0.3751708431000022,-0.9952572277458823,0.3344131533713348,0.4418720570239254,0.06057352429048805,2.0859375
-1.0278867567783738,5.013850613451734,1.009197775438116,-9.256800305014762,-0.32377245594133736,-0.9571630587718528,0.41653874164193566,-0.059885767245133614,6.179142768447764,-0.700803716669411,-1.8576649164292578,0.6250095539483533,0.8252851230013891,0.11409917006559948,2.09375
-0.8798669541385511,4.292889677375664,0.8639999583934586,-7.92632814236215,-0.2771260401605941,-0.8194079469133988,0.3565658458887544,-0.051163909542841474,5.290814558959866,-0.5999797868841309,-1.5906565424362646,0.5351766077279084,0.7066354281512789,0.09751868081991195,2.1015625
-0.34415881973886864,1.6839379690725977,0.3388764072749987,-3.107306542832845,-0.10839566379831547,-0.3205241219979048,0.13937449099949692,-0.01956186163260181,2.0734080586517596,-0.23514240981010884,-0.6241229696328775,0.20961025227085014,0.27698811392946515,0.03752107301250877,2.109375
-0.0038018158870646553,0.026246633366146903,0.005331042139281377,-0.04544027846209441,-0.0011976827596870967,-0.00345330249955597,0.0013784368904704554,0.0005295343380461755,0.028889981942589398,-0.0034402070454454333,-0.010046879732609561,0.002680777220986469,0.004021333825359147,-0.0005939562883965772,2.1171875
0.11866042203042498,-0.5707651785821268,-0.11475381223202824,1.0566852557587252,0.0373551851284567,0.11074503457483438,-0.04834344281882262,0.007765731191670132,-0.7070749266586409,0.07994572341126645,0.21101427596443972,-0.07185500496706002,-0.09419238339210644,-0.014304319772681017,2.125
0.39356333188495524,-1.9102749185984649,-0.3844441423141504,3.530228665461085,0.12389556751853238,0.36685346836160193,-0.15994960122795382,0.023979226289727363,-2.3584466261924324,0.26733435386803955,0.7071400562836903,-0.23902989482478626,-0.31470882991744714,-0.04508575777011734,2.1328125
0.7221636431238818,-3.5111955302076807,-0.7068216258083502,6.4863627559985515,0.227381275277193,0.6729138075905569,-0.2933032479719013,0.04335403143924987,-4.332049445880383,0.49132636270027086,1.2999612379809722,-0.43879791454233075,-0.5783650930403597,-0.08188402822122522,2.140625
0.6218837769983574,-3.023800826095917,-0.6087158890644463,5.584395826455847,0.19585534929666654,0.5795551338905828,-0.25264859172847054,0.03744052762175279,-3.7295820493365346,0.4230739910104791,1.1188686457244514,-0.3778343197247904,-0.49811531879085225,-0.07066004831750412,2.1484375
0.14259640103343282,-0.6909833063984979,-0.13893378681229243,1.273369777132466,0.044964840666116696,0.13315717283435285,-0.058229379787936214,0.009179274572150557,-0.8504911983242301,0.0965983569931457,0.2540478567629098,-0.08645301733680877,-0.1138540255083259,-0.016995321796313172,2.15625
-0.08706831684124831,0.42669643838750837,0.08629689941197512,-0.7923624558846688,-0.027352274484863444,-0.08089390128748793,0.034954100600203285,-0.0043621280246020815,0.5295848532688331,-0.05976903456960082,-0.1603459133341068,0.05319779665781182,0.07034856696148557,0.00871772506724872,2.1640625
0.16497848910468768,-0.8003070733563113,-0.16063747993804492,1.4746008213892918,0.05202711989498179,0.15369171172609264,-0.06728062956178554,0.010502993449924494,-0.9839895299157214,0.11203813457591562,0.2943059443750814,-0.10004391701934139,-0.13169234147070766,-0.019512986732160658,2.171875
0.41147404621701117,-1.9992865062186653,-0.40213266364729067,3.691442784606227,0.12965657745562711,0.3832595938788775,-0.1673008607604478,0.025038044240144542,-2.4651002198771037,0.27995469499909176,0.7389281402734127,-0.24998956916534398,-0.32928095843327465,-0.04712409541954413,2.1796875
0.22975320055934365,-1.112712462741256,-0.2237992494838035,2.0563359637074607,0.07238888761181139,0.2140649483367195,-0.09360242398027703,0.014312171263120317,-1.3744243510101897,0.15604544585658583,0.41103952840794583,-0.13957573106292417,-0.1834195397128409,-0.026778496784107292,2.1875
-0.22129989086804944,1.0851547533239034,0.21859127554109922,-2.0013911134597793,-0.06973866578475788,-0.2060452212851452,0.08939501379339783,-0.012303765328434283,1.3344863170002805,-0.15133629561874487,-0.4026729681908899,0.13468974877926057,0.1784914690778442,0.023740322441379514,2.1953125
-0.5602690894348621,2.7369528612322807,0.5510026493856492,-5.050412521037021,-0.17656200462390872,-0.5217395752891569,0.22691996831279077,-0.032306617941750417,3.3702670454005808,-0.3823384726088967,-1.014035382140377,0.3408340305947631,0.45045142981486275,0.06171996144291283,2.203125
-0.5866426841573418,2.866126711408959,0.5767966598691062,-5.286996656662408,-0.184893303181417,-0.5461725086064596,0.23761706199128768,-0.03386387671135,3.528076737753526,-0.40041675339316235,-1.0613607680945012,0.3568570728470773,0.4715372226690124,0.06469057753887593,2.2109375
-0.32727883392409274,1.6026187133377205,0.32233082259132767,-2.953156535380668,-0.10316305567517803,-0.3044810759224967,0.13242916282934372,-0.018559855115667562,1.9699420461178763,-0.22377798249626576,-0.5932939059156672,0.1991455358702639,0.26333026861485487,0.03564192085400888,2.21875
-0.03137723870462757,0.1596178362453804,0.031973674314968115,-0.2907739166875658,-0.009874307719386832,-0.028869239751279682,0.012422641178014822,-0.001095846238710441,0.19324171713472021,-0.02207794624794979,-0.0594154202527951,0.019274315513660434,0.02583663050695534,0.0024865802943460536,2.2265625
0.012040095867349797,-0.053828484980087285,-0.010780634728125162,0.1000944892156746,0.003844747698707246,0.011545396091565784,-0.00524021074256697,0.0014744639263282917,-0.06679503432536696,0.007650269271640069,0.019045276657008253,-0.007087186414132283,-0.009028763100301315,-0.00238122367078212,2.234375
-0.12978474392861414,0.6368424257094053,0.128315623430885,-1.176311403410281,-0.0408907271504803,-0.12059028475181595,0.0522026294914679,-0.006892154657145275,0.7852833133729664,-0.08897623595171668,-0.23671978984515332,0.07913924198908616,0.104817065577883,0.01351910083312628,2.2421875
-0.11030375389553809,0.5435780542457042,0.10945467693844416,-1.002813604501955,-0.03482829004315847,-0.102599926667167,0.04430699203880923,-0.005753790864276977,0.6686183932859404,-0.07577276217163442,-0.20189839956668112,0.06730660378539086,0.08933505649113663,0.011355216677356197,2.25
0.10680934376855405,-0.5129142852985034,-0.10324916961598612,0.9485927437673911,0.03360281980128892,0.09943159860493209,-0.043645773717389764,0.0070486926009535635,-0.6345420698127572,0.07217950054498468,0.18916542225335228,-0.06465642753706766,-0.08473586307144193,-0.012962162984141911,2.2578125
0.20178743278780387,-0.9762639492265922,-0.19641149542535227,1.8028301865660117,0.06362125540979476,0.18792002974900282,-0.08206028076737576,0.012662193668956307,-1.2046175811412632,0.1369125433505653,0.3602727022133641,-0.12239367718668902,-0.16095037133735868,-0.023612065470077666,2.265625
0.11163789809240504,-0.5380906446779666,-0.10810487627155446,0.9928985337290397,0.03522563908568326,0.10418182458420176,-0.0454635776948515,0.007355306401166728,-0.6640717338581189,0.07534406522846776,0.19799850272071906,-0.06761304853097812,-0.08869296481774246,-0.013520431991505537,2.2734375
0.10435190878139229,-0.502381321286824,-0.10092810190646781,0.9279951773164926,0.03283032717688927,0.09750184738706708,-0.0425448886786274,0.006920274609302922,-0.6213730286610306,0.0702230195743652,0.18520957716439929,-0.06317813832590564,-0.08283722054872207,-0.012699422096419527,2.28125
0.1998419802163276,-0.9671634908874166,-0.19448486200701207,1.7867885534953651,0.06285116991025097,0.18629858821904838,-0.08132834992470345,0.012541831164902545,-1.1946328547576222,0.13535449803211116,0.3573924130085626,-0.12116132450647284,-0.15938428558558124,-0.023388923612808497,2.2890625
0.16507711635921377,-0.7986327926670563,-0.16043292930661354,1.4741358343637283,0.05194125851740649,0.15379149157496405,-0.06725104732752664,0.010491566782081487,-0.9848453376439122,0.11186870482134266,0.2944747922117706,-0.09994514733065044,-0.1314987015090198,-0.019496971509784095,2.296875
0.07374088224907398,-0.3548448531008899,-0.0710051997866462,0.6536356212716643,0.02323708410925428,0.06880448327773507,-0.030221627895666917,0.005112293080832944,-0.43632440525728616,0.04974733615289138,0.12974537379110296,-0.044431056087809374,-0.058317762240958575,-0.009281251757020515,2.3046875
0.16011803836254182,-0.7755816023477909,-0.15582447937989674,1.4321640603343753,0.05048108330299683,0.14938741249073573,-0.06534626070747232,0.010209729937753945,-0.9564112298532723,0.10865355115062648,0.28569968719007954,-0.09711060298890989,-0.1277384913745051,-0.018982227564695326,2.3125
0.21463713238389331,-1.040364145866174,-0.2093877971964721,1.923674453230921,0.06766681780838792,0.20019284372614787,-0.08762088194450042,0.013421327728965525,-1.2850759070119449,0.1459147476184564,0.38409164123274153,-0.13049520315231075,-0.17159797206806224,-0.025114992925880777,2.3203125
-0.06376030424139333,0.31610448741347497,0.06348797723074429,-0.580212215397217,-0.020024984029566432,-0.05907813064991788,0.025200824651264882,-0.003002347012883383,0.38667801805569085,-0.04368491724618154,-0.11806148927021362,0.03861443430749086,0.051666871580744435,0.006057302103982809,2.328125
-0.301518244732517,1.4742317564499483,0.2966214633896776,-2.719735223231773,-0.09491758877550986,-0.2804788865190631,0.12170494748427045,-0.017024494767118228,1.8152424887548484,-0.2057499566696194,-0.546902573170084,0.18321212524434813,0.24247280066906463,0.03270123951408491,2.3359375
0.0002860819581614736,0.0045648841301479315,0.0009080610775143346,-0.0074217960979032545,0.00014588625226711325,0.0004890026097444721,-0.0005392280440251269,0.0007784666995549101,0.003916300648222128,-0.00029137055856772614,-0.002622955829651301,-7.686366884261213e-05,0.0005834324122631763,-0.0010715895441963336,2.34375
0.37654659358143333,-1.8271167673249717,-0.3677212610007054,3.3745301298454513,0.11861466405570008,0.35069617462319563,-0.15300884285377195,0.022966054669032294,-2.254706225665131,0.25586772022881293,0.6759194207173892,-0.22862292655416988,-0.30106642591382776,-0.0431801537152281,2.3515625
0.009793195530591683,-0.03938645700515328,-0.007954803846519061,0.07542472140689545,0.0029660191755179334,0.009137381193812523,-0.00417891123014371,0.0013204114313481756,-0.05219682823761827,0.0057637507310984385,0.014503998168389261,-0.005556562174696852,-0.006866411998793911,-0.002078353146570381,2.359375
-0.7523948081210292,3.6739090877967437,0.7393642423995858,-6.778535405187453,-0.2372193543463771,-0.7004553259153572,0.3049921976357434,-0.04364510093186511,4.524237405048442,-0.5136767870105985,-1.3599890563192338,0.4577858595449048,0.6044410312055261,0.08329415536312684,2.3671875
-0.810770761354926,3.957694982882332,0.7965665625096933,-7.302552014562647,-0.25557181243484917,-0.7547401546243806,0.3286660789099896,-0.04708080181213065,4.874460868645626,-0.5533661259112699,-1.4652191314406968,0.49320276148514797,0.6512431321712501,0.08982003029166702,2.375
-0.13088993116305456,0.6445492618571209,0.1299167770772406,-1.1875895435350536,-0.041288248229258404,-0.12176620233481612,0.052880931550842586,-0.006962553283080015,0.7919578522663602,-0.08992670786682953,-0.23914355219562713,0.079850609090016,0.10589896748207929,0.013653171337039062,2.3828125
0.2767969985185937,-1.342333322622813,-0.26994015551030315,2.479316636208152,0.0872157160716113,0.25778848417407724,-0.11251249050701069,0.017091018801268752,-1.6561049313721816,0.18799080818419595,0.4959741853702261,-0.1679820368880964,-0.22116679763880673,-0.03202084573714828,2.390625
0.12166337975466748,-0.5868187919205242,-0.11800645371978681,1.0840023005098445,0.03838028103526931,0.11341043180002401,-0.049616386926694865,0.00793599018049649,-0.7244464499864987,0.08235291451816357,0.21603727592793012,-0.07365961659328904,-0.09678152175890678,-0.014644695746310032,2.3984375
0.08827942510245168,-0.4244597775930407,-0.08532451828774044,0.7822870391466831,0.027893817549571535,0.08234316363062798,-0.03607952813489981,0.005964634102618269,-0.5232542345778372,0.05965282703705524,0.15569562370316192,-0.05333078134407301,-0.0699451288200946,-0.010896148324870836,2.40625
0.36077636551586895,-1.75288246750265,-0.35246618214766406,3.2319391900636063,0.11372660013461754,0.3359994629942043,-0.14662913961865767,0.022042177589146224,-2.1590073976485473,0.24532957223287072,0.6472137546295198,-0.21893954586892378,-0.28844762977176275,-0.04141511000048199,2.4140625
0.38981724369364756,-1.8954839498106235,-0.3810539821238249,3.4955075497535875,0.12281331912074733,0.3631293842004771,-0.15852271083798633,0.023761022886100745,-2.334508223977181,0.26511249049327135,0.6999872154073201,-0.23666386171178933,-0.31185673808235553,-0.04468809796083086,2.421875
0.1256603802405012,-0.6089293398605822,-0.12231006367548404,1.1243637259340717,0.03957007525148616,0.11745661867849788,-0.05153424487402979,0.008186020268146448,-0.7504407288768397,0.08519141299947391,0.22400516792580757,-0.07630248518231403,-0.10021560679419604,-0.015131422605230092,2.4296875
0.08275402794918776,-0.3989585453421076,-0.08028562501124256,0.7400277156675507,0.026089558715150316,0.07763148644434861,-0.0341630306407052,0.00565825502107371,-0.49362927572430915,0.056010847252936216,0.14660826478320238,-0.05036572391573467,-0.06587062689353958,-0.0103362049235774,2.4375
0.24268825356010307,-1.1763600356006996,-0.23678814816699326,2.1753014468473797,0.07647868386056915,0.22631882295858693,-0.0989149972852323,0.015082533253786935,-1.452955878909349,0.16487257925397275,0.43463318667105344,-0.14749218797887828,-0.19396634860232445,-0.028236007599627393,2.4453125
0.1351142479284738,-0.6508769755656552,-0.13102286598825952,1.2045252137569455,0.04253947813958731,0.12589708467758054,-0.05518840921356451,0.008720073837858344,-0.8059433721070037,0.09140339110434142,0.24033671268634157,-0.08195888404690249,-0.10751251688540009,-0.016176033987524218,2.453125
-0.18705426664889627,0.9189440602603248,0.18484043435043018,-1.693034029231344,-0.05897120621290329,-0.17405087855128637,0.07547564540261015,-0.010290548947399895,1.1285577378765,-0.12812210388189274,-0.3406265209599474,0.11384352162188457,0.1508440270754064,0.01990640654904985,2.4609375
-0.3220647021359799,1.5765000818248398,0.31718843432341615,-2.906866164567442,-0.1014914216814936,-0.2996649760175237,0.13027560197872418,-0.01825310126478237,1.9392860093903974,-0.22005510285992913,-0.5840774799946469,0.19587985916526265,0.259073521013626,0.03503835995400179,2.46875
-0.3022268796095872,1.4802324999958958,0.2979906623896079,-2.7306690893993144,-0.09528301693826774,-0.2813411205249352,0.12238853507894269,-0.01708917292825659,1.8212175705092395,-0.20664552119782365,-0.548514512469925,0.1840312888870369,0.24334851670921734,0.03285189467261755,2.4765625
-0.30368479321509584,1.4876799819354385,0.29957784199437115,-2.7457748954756314,-0.09578189983406836,-0.2828677160893159,0.12306161659490561,-0.01718011360388224,1.8307876345123815,-0.20779356833277018,-0.5511783205597754,0.18512553539331406,0.24473199699123874,0.03304164785211386,2.484375
-0.1356492287788001,0.6679930893320469,0.1344750850538851,-1.2321855399461696,-0.04276804902272525,-0.1262332913201215,0.054772028096804065,-0.007250592434802791,0.8209656683957862,-0.09321144167242922,-0.24767362823718506,0.08283164682865657,0.10980808500436338,0.014204904423348508,2.4921875
0.22449992250911657,-1.088285276191371,-0.21908038878527358,2.0109134095046186,0.07080200827858162,0.20937548462902672,-0.09145162866451964,0.014018593569687206,-1.3428367975396747,0.15241465891419864,0.4022190733440181,-0.13636716961668527,-0.17939832698868122,-0.026166975509527284,2.5
0.2979093335988604,-1.4461968022252996,-0.2909663889101304,2.6712169973298936,0.09391321153918362,0.2776017589790137,-0.12115515751380139,0.018347090394700026,-1.7831429889778923,0.2024793628494453,0.5342751787356635,-0.18091810027233135,-0.23828720449029223,-0.03439492511254739,2.5078125
-0.052371549525569654,0.2611211883851901,0.052826233968895964,-0.48172857107982614,-0.01652746593625833,-0.04886143517632406,0.021063230403878565,-0.0023354278235219656,0.32150816271667154,-0.036295235331882954,-0.09800682064338803,0.03228521386447364,0.042949452363704656,0.0048514145748695435,2.515625
-0.24582387916237539,1.2031633604320189,0.24243288760179726,-2.2208362932523826,-0.07749047485805052,-0.22887054849007438,0.09945118920707768,-0.013748833962125747,1.4825573651190134,-0.16806419764174563,-0.4467724659258598,0.14984614307945227,0.19812298804715986,0.026510356135957307,2.5234375
0.012250247901732576,-0.05578111066884003,-0.011013124081244894,0.10403567707661099,0.0038442040885978165,0.011891678156325266,-0.005467387718023933,0.0014909466337509488,-0.06920973485248928,0.007943097319935543,0.01930003058920723,-0.007343127983569278,-0.009227410830021217,-0.00241934134504007,2.53125
0.22648362366054253,-1.0999268504693065,-0.221221058045662,2.0313841763251204,0.07133782514976972,0.21153267136037246,-0.09246012129207944,0.014134303094928373,-1.3560994525988694,0.15390533760208147,0.40594318781010313,-0.13768634429074877,-0.18123472365540286,-0.026413756168752144,2.5390625
0.07170276524129006,-0.3445183707138682,-0.06925675156653589,0.6358491274053831,0.02258250952082121,0.06715486375925613,-0.029571085987881825,0.0049975072980858026,-0.4250823070470038,0.04826095743460697,0.12656247328163395,-0.04346009279829705,-0.05686655004534593,-0.009057099355639716,2.546875
-0.05989131521295414,0.29788588723264375,0.06004632036513497,-0.5497661223026405,-0.01884690615437526,-0.055618991443975176,0.02391011243500177,-0.0027677520687688826,0.3659440071112937,-0.04147737985015383,-0.11100398315825327,0.036596583243834135,0.04892558290080499,0.005683537895082306,2.5546875
0.0988858839369336,-0.47488676203510904,-0.09534077532725489,0.8783830474449432,0.03114624256597618,0.09211837082693469,-0.04045277927469879,0.006592322471130486,-0.5881093091939438,0.06676964370159025,0.1751368247509732,-0.05993414154013693,-0.07834305962953304,-0.012108675381398142,2.5625
0.1839299558824792,-0.8878437410175686,-0.17844128272835033,1.6411989980736064,0.057869107298887404,0.17115222234818692,-0.07485054573621973,0.011588829563940625,-1.0985768794990938,0.12466135733691368,0.3280482486666869,-0.11148848860056883,-0.1464229922970704,-0.021611447595756478,2.5703125
-0.043233189081461086,0.22035618195476872,0.044283786875392944,-0.40533478089663894,-0.01368672959418309,-0.04045414681925466,0.01740403315958233,-0.0018240764478794722,0.2667757769640839,-0.030326678976871798,-0.08200244807817461,0.02675171300000169,0.03591508673671334,0.0038693035642128728,2.578125
-0.21806473940182608,1.0718031248735043,0.21532860996552297,-1.9767637897710364,-0.06867407259273371,-0.2030467327142275,0.0882669013181727,-0.012121272096241465,1.3165021852669365,-0.14953073315421084,-0.3970217052461979,0.13289159918388024,0.1759764516034595,0.023446013719474346,2.5859375
-0.056354428099473636,0.2816974555505739,0.05638086314591265,-0.5170053435754914,-0.017668591489457694,-0.05217697538235315,0.022510073280699247,-0.002558005097404482,0.34376041004190994,-0.03914801913646747,-0.10474214981576782,0.034339831359709916,0.045894241351391946,0.005285733884953271,2.59375
0.15161435664750797,-0.7339462573711408,-0.14770890094280106,1.3568959189827308,0.04784846111380755,0.14156619677344986,-0.061895634353100394,0.009712052617249955,-0.9058067239987425,0.10284937846128836,0.2705794984325171,-0.09207385441189278,-0.1210986632355798,-0.018041876719839322,2.6015625
0.08030089503389444,-0.3879252488124274,-0.07784836097457029,0.715221092086848,0.025350850090154708,0.07511025234756316,-0.03291766956972721,0.005492680916796582,-0.4768282929902169,0.05442206397944693,0.14180838261651854,-0.0485494183917302,-0.06385045885100855,-0.010053671381303139,2.609375
-0.14383104753446294,0.7036970666608544,0.1419838740498844,-1.3007689020786628,-0.04534374046638564,-0.1336570710330419,0.05794858075059595,-0.007731688648708761,0.8693537580206678,-0.09829570095491855,-0.2624638124368846,0.08771259836643586,0.11596129874597394,0.01505729286902213,2.6171875
-0.2538851030678306,1.2405364635031388,0.2501976054060355,-2.2895570411810873,-0.08013468170861435,-0.2362425047619976,0.10247168046256028,-0.014216091820856383,1.5296493456796276,-0.17337827779249898,-0.460759374979529,0.15451297034622655,0.20427449404621228,0.02738615599204096,2.625
-0.19861061076805692,0.9725017279365357,0.19627003784131697,-1.792809730289231,-0.06275462644872021,-0.18482978697773064,0.08005988622472814,-0.010951964657831116,1.1976580701795672,-0.13584038289968647,-0.3609156042385483,0.12092987943691565,0.1600998005241083,0.021209121116237652,2.6328125
-0.02639193567207721,0.1344441510899582,0.027296028681308843,-0.24565379216677125,-0.008409577572100832,-0.02429322399978172,0.01031335602622409,-0.0007953922831655189,0.16389631507428784,-0.018585828249494226,-0.050316422432420266,0.01630673550042586,0.02207064596876661,0.001942324423822376,2.640625
0.2213100946331385,-1.071845338933935,-0.21583956492380377,1.9812986715009717,0.06971894144427726,0.20658702554515068,-0.09012372078693952,0.01381687569819325,-1.3236911257378552,0.15015574560717473,0.3962973661242691,-0.13434016169358848,-0.17671485571838233,-0.025792210545243565,2.6484375
0.41657653315230053,-2.022456784313965,-0.4072344034387424,3.7369559684081475,0.13126576545296129,0.3883351504126437,-0.16932444858781134,0.025340479175396138,-2.4964625226627035,0.28315536161537463,0.7482254019984397,-0.25314366911690517,-0.3334044221646314,-0.04766622191504355,2.65625
0.42521715066575666,-2.0635059267854037,-0.41539952979686157,3.8125144357787653,0.13402423048986126,0.3960521643549047,-0.17271563218143848,0.025851836227132077,-2.5476011823941316,0.2889424547848149,0.7635680138364459,-0.25832566505217663,-0.34012971758955735,-0.04863134388635508,2.6640625
0.25524702774942515,-1.2349178890744816,-0.24864447275822962,2.2814684796949085,0.08053798344265821,0.2375720351204659,-0.10364985063371157,0.01581916004576697,-1.5259439788308777,0.17307562626697814,0.45697862258335414,-0.1548447556929775,-0.2035660654479934,-0.0295867787941365,2.671875
-0.03198652876884739,0.16401921475750225,0.03284481057780172,-0.3018494466106997,-0.00995030174966826,-0.029890150645506014,0.012793021019513707,-0.0011334520564005384,0.19894163744803456,-0.022573107958812604,-0.06095103742472503,0.019782152779390143,0.026751955208969558,0.002578786752487712,2.6796875
-0.37303282518359204,1.8248040049735674,0.367165899345889,-3.3675864318266786,-0.11747124353724271,-0.3474222757606561,0.15095674146914634,-0.02125541844827955,2.246431839412296,-0.2548774376649254,-0.6760255988923161,0.22699785004380718,0.30005834644249246,0.040760674580893774,2.6875
-0.5778251993402735,2.8218516427525295,0.5679848455848499,-5.208813873316579,-0.18206616285202598,-0.5380490962361087,0.23397402482874977,-0.03333610823749666,3.4761326301832858,-0.39442823960645584,-1.045497664011336,0.3514561867724437,0.46422448392131727,0.0636922631474074,2.6953125
-0.45484468673485884,2.22168249849368,0.4473133747625175,-4.102926302822375,-0.14336276419846986,-0.42335688623453377,0.18415302352691368,-0.026085209253236884,2.737802695206991,-0.31060809982423393,-0.8238093043791148,0.2767801943249619,0.36563874154081655,0.04992667273332554,2.703125
-0.12715802991195477,0.6237980695293325,0.12587137579759475,-1.1546758166520668,-0.04017273203537843,-0.11806632377162926,0.051228688169641066,-0.006761335438439436,0.7697393332041883,-0.08714460047193767,-0.2328394943801311,0.07763687727000855,0.10279491425344796,0.01322473094424233,2.7109375
0.10183186929712039,-0.4926811083365286,-0.09865429886079745,0.9075988368365101,0.03191627834424839,0.09516752974025933,-0.041747396993480165,0.006748003388413799,-0.6061832888595574,0.06907778317306629,0.18024346431468447,-0.061622519527049974,-0.08099075726042003,-0.0124426908379525,2.71875
0.17060744503613193,-0.8273176760874746,-0.16600688311588477,1.5285660559621366,0.05358834812033938,0.15916296770083888,-0.06966216382479577,0.010817076040003898,-1.0199330265578697,0.11591941065777822,0.3045105830680043,-0.10351088192514442,-0.13622601609503854,-0.020161130447878328,2.7265625
0.21127817753890124,-1.0244241623008896,-0.20589296229647416,1.8944454263673607,0.06649356419210874,0.19703459386716118,-0.08605849586972575,0.013229475038164781,-1.2641576728951183,0.14348373470881515,0.37805988822585224,-0.12823487109278706,-0.16879628463265633,-0.024705191367494002,2.734375
0.21993781645433963,-1.0660130650484307,-0.21443203901245775,1.9707213997520063,0.0693339659205385,0.20504693974604699,-0.0895023844670989,0.01374581731233148,-1.315476503293868,0.14935564536795393,0.39366690939332566,-0.13347035020616202,-0.1756461588268587,-0.025658157544688788,2.7421875
0.13755966521127386,-0.6643306946951436,-0.13364943638989163,1.2288936501479817,0.04342709212104473,0.12822022874228312,-0.056157996509587485,0.00888538669780012,-0.820461348198605,0.09328217857163541,0.2450949394778412,-0.08344097852458973,-0.10953473378680063,-0.016439958495290962,2.75
0.07378226383073684,-0.35279180460505444,-0.07112086413730127,0.6555110284324875,0.023322272455795594,0.06882337087482522,-0.030387033025408197,0.005121652238909384,-0.43798112558082813,0.049727809208516695,0.13037263291087653,-0.04475760447912364,-0.058396908932155406,-0.009314540820811954,2.7578125
0.1039568795835178,-0.4988237583250497,-0.10072851204019002,0.9257100147520502,0.03283398896069142,0.0970194429140282,-0.04257911125526788,0.006900623731875871,-0.6192679066060353,0.07005297862231247,0.18505341899520514,-0.06308104580446551,-0.08255754190925223,-0.012680437252487598,2.765625
0.07545339457479633,-0.3597016783887128,-0.0726466304227633,0.6657396319653297,0.023878304996378306,0.07044403178487461,-0.030857527023497696,0.005214230167806271,-0.44680790813331844,0.05053848868012607,0.13331289025579246,-0.04562239808726055,-0.059551096752244494,-0.009448576173066376,2.7734375
-0.06655997982903177,0.33175853997607246,0.06681491858130731,-0.6136402965201803,-0.020897182314137362,-0.06193364490459626,0.026797969318070162,-0.003171200819369791,0.40700313516072967,-0.04611389362440256,-0.12338235959196868,0.04076030156042822,0.054424072998045865,0.0064718938570642376,2.78125
-0.06376048061382314,0.31754177191890703,0.06401244994706812,-0.585526080007827,-0.020106205508304602,-0.05922019023842711,0.025532244215962625,-0.0030059637612033395,0.3889774911872686,-0.04413544880810959,-0.1182489714756176,0.03893173004997493,0.051988967238259555,0.0061317704998776635,2.7890625
0.1964781254122659,-0.9511479332379071,-0.19147990012589125,1.7596792765948528,0.06183137229348499,0.18345126848096258,-0.08012817038659452,0.01235650615103679,-1.1757199893604813,0.13311569598628234,0.35167953758834913,-0.11938215383447988,-0.1570142675516963,-0.02304157249279541,2.796875
0.3152089597883833,-1.5305471788413179,-0.3079809045755032,2.8276900218481633,0.09923372326181819,0.29406728729070875,-0.1281938837637242,0.01936095968594288,-1.8884018956329716,0.2140217554487137,0.565715440928251,-0.19143457308610584,-0.2522223125355267,-0.036332562332854694,2.8046875
-0.09050286665501682,0.4459460434848934,0.09018016618903969,-0.8252852508753481,-0.028639121070885402,-0.08414908678494094,0.036511108217249226,-0.004597821222833772,0.5501081831655825,-0.062226099391073125,-0.16704619705001825,0.0554532133751466,0.07350263479358264,0.009127630623763266,2.8125
-0.6927384607022385,3.3809067509543467,0.6809668059815073,-6.244023113838167,-0.21844985369025124,-0.6453140849639548,0.28075347629648095,-0.04015018971258019,4.167622608282538,-0.4723985429434996,-1.2539539006404217,0.4216243007854974,0.5567224788999671,0.07658034735847673,2.8203125
-0.7634963172505912,3.726189361304987,0.7501425452576067,-6.878620973503974,-0.24068890658946432,-0.7110941824785211,0.3092948479842847,-0.044314888338426964,4.5916409485981395,-0.5206212519473391,-1.3811161915855679,0.4644674136050643,0.6133303646096248,0.08449302864849467,2.828125
-0.14457788512107148,0.7103601596587439,0.1429108808051109,-1.3096146911315165,-0.04552042276528109,-0.13447582747820147,0.058169339860706604,-0.007769726460091974,0.8739825488043708,-0.09898409200602273,-0.26385521612178103,0.0880590209653865,0.11671527968637084,0.01516630919212322,2.8359375
0.5175706978441075,-2.5159900126546213,-0.5063746227177269,4.646466406038632,0.16319590874536086,0.48216780909942725,-0.2103792615445266,0.03131131516618492,-3.1026357966017106,0.3521625656797867,0.9309216070752321,-0.3144920254151907,-0.4143898837620563,-0.05899806138182868,2.84375
0.5753876063882977,-2.7971402103413525,-0.5628233736958911,5.166163409513129,0.1813659262025134,0.5359408706805302,-0.23378140696129188,0.03471816336685873,-3.450186953182596,0.3914974955573191,1.0351874215889114,-0.3496362715832852,-0.4606884629268829,-0.06547842491449832,2.8515625
0.10795667044969788,-0.5192483574909376,-0.10435310320971866,0.9610068797048479,0.03403843132428339,0.10070212449639304,-0.044123137500310126,0.007135901261185538,-0.643230214287933,0.07285098763157026,0.19190823008096913,-0.06548500361197426,-0.08572264278209445,-0.013123099746237266,2.859375
-0.2681022142143422,1.3126679439204132,0.2643238325224046,-2.4228007724033027,-0.08443011158350584,-0.24944610788073585,0.10850171744072766,-0.015051378512268045,1.6158093300199847,-0.18348055725867612,-0.48663534729442304,0.16319586249514925,0.21594120601676361,0.02900638616248092,2.8671875
-0.15034584688495953,0.738342802007221,0.14873367854356737,-1.3630679527007685,-0.04731760678555117,-0.13978409923344565,0.060767124278267665,-0.008106031869909297,0.9088224660233232,-0.10318444796421049,-0.2743571677151488,0.0916803696799866,0.12143086802007803,0.015814962965771773,2.875
0.1989858671189906,-0.9639205174408981,-0.19393570934347015,1.7821081014720275,0.0627032447296328,0.18565474403628815,-0.08101860744991916,0.012502904065545349,-1.1902237196243295,0.13493905078277643,0.35594172342877534,-0.12075500097842064,-0.15896598509884832,-0.02332794784986855,2.8828125
0.2141550665811873,-1.0378315959563986,-0.2089375767783045,1.9196427854424118,0.06743819259654289,0.1999311144546321,-0.08727613162240733,0.013395475083974498,-1.2818715115977808,0.14530778238906544,0.38343555917382505,-0.1300556936874546,-0.1712421890164346,-0.025025339933943028,2.890625
-0.15886994034999175,0.7796013971848774,0.1568004562598121,-1.438894596116611,-0.050101301838464854,-0.14760114186181,0.06401792197426753,-0.008624521381058329,0.9598754220818007,-0.1088258726723736,-0.2897655006637549,0.09682896439362791,0.1281196574668911,0.016783847299887664,2.8984375
-0.32670431450696075,1.5971753457700948,0.32144622006205414,-2.951022792749829,-0.10297688077755568,-0.3042169021411394,0.1321145016733433,-0.018536167689903457,1.9693036032983167,-0.2230871333704074,-0.592858171616518,0.19899754848250978,0.262903501341654,0.03559514988136489,2.90625
0.03270237675430817,-0.1542073083699768,-0.030881405742983085,0.2842324219639741,0.010272604128448392,0.030458538731003244,-0.013695710217881138,0.0026809016991028714,-0.1898444145827022,0.021881016971600026,0.0557038571611582,-0.019604931080652258,-0.025458690577246673,-0.00468764723055775,2.9140625
0.41615679236545833,-2.0224167095010626,-0.4067495591276617,3.736370185627116,0.13110024662406936,0.38775715145866835,-0.16923880855481685,0.02532509580489822,-2.494016249614072,0.2831314168878533,0.7478508424809492,-0.25291348453314305,-0.3330989474561668,-0.047663937460670346,2.921875
0.3247788509544818,-1.5760550302985439,-0.31687575804457274,2.9131992281294763,0.10228308078174667,0.3026306291004741,-0.13208541471499147,0.019932635283136966,-1.9451129547908428,0.2207487413542412,0.5829877164098705,-0.19733497288385832,-0.2595920452413272,-0.037417797482574365,2.9296875
0.04664580998517495,-0.21887404409253997,-0.043850897876682025,0.4088284969951239,0.014577090549517509,0.04340312850748079,-0.019168624865412622,0.003503496309329049,-0.27437406917721957,0.031073923907856207,0.08099383008965351,-0.028110142527073827,-0.03625920039126094,-0.00623810945563444,2.9375
0.0073441353265735814,-0.025923756489224244,-0.005263300023286534,0.05489440269231023,0.002155707214746976,0.006832353304978217,-0.0032092416610025416,0.0011732509826503387,-0.038915907775565556,0.0041702137095529675,0.010046245258572622,-0.004219599632327514,-0.004762560201467166,-0.0018248987749127485,2.9453125
0.015624434704262606,-0.06678965023952348,-0.013659233054821853,0.12859106790206903,0.004847621997179516,0.014767148776830007,-0.0065784349585773436,0.001662815990276091,-0.08857927404494925,0.009813102705901139,0.02489744208549119,-0.009282697889249791,-0.011536395137949226,-0.0027473213704267184,2.953125
-0.199065657504469,0.9768942383962147,0.19642635759408356,-1.805010644400125,-0.06263244970700851,-0.18508858570625983,0.08051994379315844,-0.01099935146937249,1.202203473931196,-0.13635880069071205,-0.36269688981749626,0.12133901111746348,0.16059869229115287,0.021306578596702225,2.9609375
-0.40961800110454394,2.0000668419147805,0.4025003174087736,-3.6986691241557033,-0.12886871637286096,-0.3811653013698949,0.16588105176485035,-0.023410130206384997,2.4671620060625616,-0.2797192441820649,-0.7425325162950257,0.24937336552162506,0.3292955685175312,0.04487734434102124,2.96875
-0.3858784263854281,1.8827199297182893,0.3790552905016697,-3.4809428163733203,-0.12141544356894442,-0.358949209367254,0.15611108626280368,-0.021990499225446887,2.3231256310632635,-0.26350282014491017,-0.6992467606358196,0.23476388170875506,0.3099420899518053,0.042185423440611845,2.9765625
-0.2515562416711477,1.2280951483893605,0.24752559384496564,-2.270276465906626,-0.07917847986998088,-0.23389583404605863,0.10154421246954605,-0.014057433969274129,1.5156194117926391,-0.171953443983184,-0.45666164060315445,0.15301185414024118,0.2021599330446984,0.027123453798640416,2.984375
-0.07104876186941089,0.34983024198814733,0.07094283187379999,-0.6481990821576068,-0.022362622892297197,-0.06612609003643759,0.028408769104159456,-0.0034185354634951237,0.4325798856954429,-0.04893600770875566,-0.13120861026142838,0.04344759498642872,0.05770610335759723,0.006914858956160435,2.9921875
0.17624921089075946,-0.8530978561053436,-0.17125416527090284,1.5757691180980848,0.055509130172861056,0.1639731563789818,-0.07180651965237962,0.011158064437332312,-1.0521665853214197,0.11956439383344362,0.31487739697835165,-0.10677063627275112,-0.14039287780940413,-0.020779626911883193,3.0
0.2423771213452029,-1.1737185144588154,-0.23611232587405687,2.17351618042667,0.07627300387818445,0.22576611965804563,-0.09869352580099806,0.015054827963951444,-1.4506766638311959,0.16463023979026897,0.4344928528738107,-0.14713051096927746,-0.19351355124746836,-0.02819692415775177,3.0078125
0.031060627405132647,-0.14367308280913166,-0.029026712621467762,0.2741248609376418,0.009631557647439249,0.029207014889428624,-0.013092933571979284,0.0025833071307807694,-0.1824784059588216,0.02068176078174469,0.05335524000775161,-0.01882443236101707,-0.02414508107324239,-0.004526305271619591,3.015625
0.026733575413373345,-0.12261100290094129,-0.024777962702659532,0.23217034353902205,0.008261449755440095,0.025103045212177846,-0.011291316215365825,0.002316373911257389,-0.15543027207355503,0.017717895938157452,0.045095745695258975,-0.016079063264499125,-0.020587491378738484,-0.004017909009913778,3.0234375
0.4495369953079182,-2.1824157183309683,-0.4393075479166843,4.03182288411678,0.14150392474515014,0.418737143146859,-0.18261550108456928,0.02725008320201663,-2.693278844524546,0.30571839284760405,0.8073785955588072,-0.27290468451553695,-0.35958345310680045,-0.051352696397306274,3.03125
0.6240588800464963,-3.0330767366397917,-0.6105291199468331,5.60161320951733,0.19653684864371088,0.5813866893725421,-0.25332484184464144,0.03755164246339268,-3.7413471940345895,0.4245894722876252,1.1222611877760118,-0.3789892413643072,-0.4996250415109433,-0.07089568971512027,3.0390625
0.11668393072664852,-0.5625536934272373,-0.11320998340198857,1.039749625114068,0.03676008311479556,0.10903928702981185,-0.04760992613750062,0.00764303999062281,-0.6949788550143214,0.07889160128983423,0.2073877189366202,-0.07071390094925882,-0.09285572453752919,-0.01407304751233802,3.046875
-0.3653484898100241,1.7847977079085675,0.3593823387971687,-3.295295690666256,-0.11501697163814051,-0.33988858114845755,0.1478175852191796,-0.020768368409358147,2.1994354374117036,-0.24960368448751455,-0.6618511138388025,0.2221754613927609,0.2936719452155577,0.03990667920435806,3.0546875
-0.2077561707565781,1.017593388026766,0.2049823570556204,-1.8790124125323753,-0.06532710972708569,-0.19324588787716823,0.08393423906394284,-0.011468509405488716,1.2531289917089485,-0.14231582051354214,-0.37768104276582276,0.126374042298182,0.16736864933139492,0.02224594809322562,3.0625
-0.003875108426951904,0.025518857444725564,0.005245367648391259,-0.04745480355898149,-0.0011354534433710701,-0.0034875980485049086,0.0013381554158281427,0.0005370232613653694,0.029426461025286496,-0.003380021156531052,-0.01039442036562001,0.0025611097615218592,0.004066071855080593,-0.0005870188184776516,3.0703125
-0.34547984900689127,1.6898125630353547,0.3402633137598997,-3.1216921784601808,-0.1088284551703247,-0.32170741884318965,0.13989684086131032,-0.019633015461780257,2.0816327846014433,-0.23606810066512313,-0.626933254639264,0.21033576853456415,0.2781934329495832,0.037687601535546136,3.078125
-0.5933814820936173,2.8964894538867916,0.5832012730938596,-5.350436979888739,-0.18695401760913824,-0.5525491248229726,0.24031378867362457,-0.0342490599065074,3.5701101627805873,-0.4049956479167771,-1.073800638674001,0.3609881803050734,0.4768980728149284,0.0654533804189566,3.0859375
-0.07136194653559128,0.3523764126096325,0.07107244680253841,-0.6515968043564279,-0.02246037971800706,-0.06622297782146783,0.028442338056392676,-0.0034368385213825975,0.43401393401723876,-0.04929556408535916,-0.13156029818061563,0.0435067150275497,0.05790566890119433,0.006958689680709549,3.09375
0.5545950889165225,-2.697250723950474,-0.5428414565520765,4.981219344451747,0.174766108418004,0.5168403806807416,-0.22545676738872483,0.033486004850661694,-3.32577748961742,0.3773753397780838,0.997691930516945,-0.33703922755920696,-0.4443019410766736,-0.06317593159011536,3.1015625
0.39085799904364354,-1.8984443715262211,-0.3821035694672646,3.507546250186346,0.12312838660842718,0.36423524918958083,-0.15892903707189862,0.02380253640656398,-2.342056894947525,0.26590169697004257,0.7019633559611769,-0.23734633769556454,-0.3128127087473736,-0.04482648638849749,3.109375
-0.12372587429127758,0.6104920420499776,0.12278705859910093,-1.123362584934673,-0.03907018209480917,-0.1151777565916206,0.0499103732578067,-0.006572651061466112,0.7488374130338199,-0.08487750217824165,-0.22647741194973464,0.07562528220111683,0.10017185068565017,0.012840786715355417,3.1171875
-0.11803315766297257,0.5837457563534958,0.11730503702759576,-1.0720172950859252,-0.037292079696183505,-0.10988556708147372,0.04763156806460045,-0.006233138338084897,0.7146041248188365,-0.08112393669352543,-0.21602573594145522,0.07214541485973437,0.09563702360695396,0.012210392100078096,3.125
0.11606345042606653,-0.5580774655257528,-0.11233293527412058,1.036267467633692,0.036498040165295585,0.10823030581457718,-0.047366924663270756,0.007594236168275778,-0.6917052666197527,0.07853722728869239,0.20635893698306756,-0.07029188720866661,-0.09229616805301631,-0.0140326279860883,3.1328125
-0.14422516854761092,0.7080542779293154,0.14287970029331748,-1.3041359807817299,-0.045496417612297356,-0.13415506515568842,0.05818012543295891,-0.007749536910448972,0.871368163104839,-0.09865042106843486,-0.26344368892113956,0.08789103520742404,0.11640676510006974,0.015115270040517086,3.140625
-0.4916114642118899,2.4001286667446378,0.4835286967223806,-4.431390248516834,-0.15495112478402837,-0.4576917657299991,0.1991074202938464,-0.02824263787034872,2.95810602346071,-0.335459096899535,-0.8903698337165914,0.2991324594803072,0.3951622255049087,0.05405455700202307,3.1484375
-0.09137632238611411,0.45047020327961074,0.09087521330332449,-0.8331481264950669,-0.02881735135422166,-0.08483854804961705,0.03674440381865685,-0.004626704859925238,0.5548066892354786,-0.06293041433063956,-0.16817105862039194,0.055814466719351356,0.07418191451782731,0.009240328243994917,3.15625
0.6310109103688547,-3.069916670523681,-0.6177206438040194,5.666445339113412,0.19883080124567185,0.5880801840529037,-0.25638902367072686,0.03800659039244177,-3.7840321161029284,0.42929934017419125,1.1355086300506605,-0.38350437544473265,-0.5054131571403682,-0.07170572395684494,3.1640625
0.5726194754567385,-2.786135443861706,-0.5603870270507068,5.142828012674968,0.18043673582564143,0.5336437322300099,-0.23278459859346967,0.03457073761486579,-3.433818546444623,0.3895994088475471,1.030388538418492,-0.3481244512830137,-0.45868302909929426,-0.06519497364046466,3.171875
-0.1563175251173325,0.7669938707705706,0.15466103585319088,-1.4161860168919012,-0.049236527748570236,-0.14546833184322003,0.06297567115155456,-0.008449388322041342,0.9445583685444782,-0.10711606079123791,-0.2849258512365855,0.09512970302652123,0.12617348084889937,0.01647659260101824,3.1796875
-0.4643514120036328,2.270349340587162,0.4567587975385342,-4.1898260103929745,-0.1462617308493465,-0.4324600594033436,0.18805413226092443,-0.02664518407217377,2.7953741842839035,-0.31710416489903304,-0.8409445994484227,0.2825639145460115,0.3734405782200822,0.0510160695377911,3.1875
