AF3,AF4,F3,F4,F7,F8,FC5,FC6,O1,O2,P7,P8,T7,T8,time
-0.07190711938374954,0.3555190920611222,0.0716183913244881,-0.6561049941524253,-0.022634999358632644,-0.06669119076645756,0.0286933527306232,-0.0034906862346273868,0.4371965199145938,-0.049403693042189806,-0.13268906370709593,0.04388173132073235,0.058446041405240276,0.007006717440823922,0.0
-0.05121799820217259,0.25408674623353206,0.05116899031650247,-0.46767990780482105,-0.01611980809734122,-0.047297021293902425,0.02021037468198492,-0.002260113034192891,0.3122238257746551,-0.03529827140673504,-0.09509875154999828,0.031203034034386352,0.04165745687539733,0.004675507744880767,0.0078125
-0.030480365534886016,0.15378398219542883,0.030993819866409377,-0.2811207160646286,-0.009639559561786776,-0.027950214258839576,0.011898832559944506,-0.00103491828727175,0.18772658268953732,-0.021351190617007902,-0.05775783024693305,0.0186744535719156,0.02499894309936145,0.0023786898722200135,0.015625
0.023421898964846286,-0.10821452282952285,-0.021633266384929045,0.20108634472629927,0.00740894031972048,0.022065433966495778,-0.009766444774021539,0.002150169712290771,-0.13454518644825067,0.0152893896412016,0.03909649897777528,-0.013970010322221154,-0.0180637340493608,-0.0036340166695140205,0.0234375
0.08000364364879682,-0.3839205589333529,-0.07710966866606432,0.708299863893527,0.025345158859019095,0.07459438644407265,-0.032669325207702306,0.005493703361795222,-0.4734319033257696,0.05396016995528025,0.14082837673380152,-0.04839590505055353,-0.06333387040783127,-0.009975500142762227,0.03125
-0.09111197998608947,0.45019712388016797,0.09066156293624092,-0.8313136803047384,-0.028641556117141847,-0.0847710951103017,0.036646599467392744,-0.004614031671536782,0.5538518972519864,-0.06261929364563262,-0.1679742974192412,0.055584248859854295,0.07393854333867558,0.00918986531061228,0.0390625
-0.3645126391226816,1.782978062134634,0.3588749144365835,-3.2914409388969945,-0.11496742629330996,-0.3393627034319829,0.14751395661611105,-0.0207649181022181,2.1954161051639174,-0.24913600381318346,-0.6610366609506877,0.22191092424484257,0.2933075337388468,0.03983043209188247,0.046875
-0.23900160254732425,1.171147499598195,0.23581244667984638,-2.1621627740157043,-0.0754333716881783,-0.22247373790652553,0.0966556174823476,-0.013359175453722262,1.4415531245714297,-0.16373484930217494,-0.43423928333204614,0.1457262148758461,0.19268844410709693,0.02577030210340746,0.0546875
0.2319712678526964,-1.1243533014566276,-0.22621005091261098,2.0769339071208033,0.07311111893112966,0.2161756787195641,-0.09439004581295245,0.014445969008262843,-1.38752599236232,0.15738090064869156,0.41566089646559967,-0.140686898988263,-0.1851693312290097,-0.02701089391197815,0.0625
0.3624187230365186,-1.7593533485012838,-0.35414704011188913,3.2513465601797353,0.11424090447629001,0.3376521220140078,-0.14736847620721136,0.022143991048977837,-2.1714074276543087,0.24645479675113444,0.6508105235912695,-0.22014187595929,-0.28985998100045435,-0.04162360234604895,0.0703125
0.03092922638557186,-0.1427211046045483,-0.028790251346476177,0.2669421578758134,0.009655395223388022,0.028808681779004995,-0.012908677524666899,0.002570291143398241,-0.1799487852028124,0.020475219266362674,0.05249256861188925,-0.018604938001449908,-0.023857364362674112,-0.004456959696328241,0.078125
-0.06980524766701895,0.3481192059478867,0.07018120864935512,-0.6403151743581029,-0.022135218729178424,-0.0650907955987468,0.028003144629389923,-0.003372320524303703,0.4257036468761423,-0.048297346729240395,-0.12914655773756914,0.04269838824748695,0.056984418819748146,0.006836490695528437,0.0859375
0.30145834911903235,-1.4627088625702411,-0.2941087905029277,2.702569069282396,0.09497485240982607,0.28078762923298795,-0.12259762982478346,0.01855479550060318,-1.8045943404928246,0.20481120557596016,0.5408902827081463,-0.18307637541820276,-0.24102900689068074,-0.0347921425442473,0.09375
0.5348096158069795,-2.6014172663291166,-0.5233032073981103,4.804432949598653,0.16861867961633834,0.4983347581132241,-0.21729706134611393,0.03233429201049851,-3.206962792765141,0.3640069639415419,0.9618141723375281,-0.32503027553894054,-0.4284331015425345,-0.060968009852040185,0.1015625
0.3171515719793484,-1.541274700116844,-0.31001840461602576,2.8457168310920378,0.10002609055074546,0.295794781421921,-0.12901036271840624,0.019484305143225234,-1.8997752076643646,0.21567465680795925,0.5690244489922114,-0.19267678858475176,-0.25384036949039135,-0.03658426141950441,0.109375
0.03434935787347358,-0.16328440555958615,-0.032665989966109005,0.3009425643946421,0.010880376004821442,0.03248852148276758,-0.014295587106462577,0.0027959856972291806,-0.20102652965216142,0.022883560206067063,0.05904166682796176,-0.020717919248315904,-0.026897895554776258,-0.004900907123925441,0.1171875
-0.15497009967653824,0.7591248048636532,0.15305269651482187,-1.4017092766987236,-0.04877178311096988,-0.14386132701680365,0.06244290179318057,-0.008369467293772396,0.9359369656258649,-0.10609137652589516,-0.2823862614023984,0.09432421411397666,0.125001598161651,0.016293113055065086,0.125
-0.4964766926269181,2.424025221034583,0.4880696455595331,-4.4757687050190125,-0.15642186492818513,-0.46203910243609575,0.20094077988378561,-0.028533538565855884,2.9870961094299826,-0.3388169300918065,-0.8989197402750063,0.30196174311838664,0.3990216238915499,0.05455561610354467,0.1328125
-0.8203192518307754,4.004274863228587,0.8058503033589968,-7.392824671797952,-0.25858254226652533,-0.7637573178987237,0.33237432029677944,-0.04767302380271931,4.93244172877775,-0.5596917791131365,-1.4836128167187532,0.4989901799184576,0.6589612493621713,0.09087474937068754,0.140625
-0.6497900872914887,3.175388374400178,0.6387885668099335,-5.859745103698338,-0.20493077098765428,-0.6050180387739643,0.26327814862924065,-0.03762626769068422,3.9083365399052115,-0.4436338057559677,-1.1758896611467289,0.39540697941952124,0.5222764757469931,0.0718068771009963,0.1484375
-0.11044184573466591,0.5471585594307202,0.10987670812992775,-1.0059626106539548,-0.034937619804094405,-0.10285071715295163,0.04450433890919719,-0.005789812881528346,0.6691806523702412,-0.07598716902409247,-0.20263711757298522,0.06749638758275453,0.08962456781841753,0.011389855418166976,0.15625
0.24489460221450385,-1.1863053318672963,-0.23871676741872372,2.191810076395413,0.07713790052883877,0.22794105041624285,-0.0996154776627769,0.015196165454671126,-1.4642999783534172,0.16632104034082007,0.4384628035181241,-0.14849075595888253,-0.19545868746723588,-0.02842778890555542,0.1640625
0.32075968381522163,-1.5576545851195351,-0.31322260750808384,2.87552336288323,0.10110238298504204,0.2986654512570209,-0.1303345080332261,0.019689242384772595,-1.9197706103374057,0.21799149455569505,0.5756148333959951,-0.19457619952551908,-0.2564181096970742,-0.03693916771306832,0.171875
0.34822276458586743,-1.6916013647276251,-0.34012656942678127,3.1253412935933564,0.10974441188252558,0.32444156239294036,-0.1415127990333797,0.021328582107416068,-2.0856173895816514,0.23660907908587503,0.6256797713868639,-0.2114398480144166,-0.27861646414939945,-0.040033016277196236,0.1796875
0.2837456950799974,-1.376884813014339,-0.27680029639047077,2.546110317747135,0.08940157999262445,0.26442310211751496,-0.11550373864789115,0.017534168328656223,-1.6989473180866788,0.19271069272652616,0.5093217569209398,-0.17247500248244257,-0.2269631973382561,-0.03281807284801302,0.1875
0.09952209465437449,-0.47921497545441827,-0.0961826947264635,0.8860347334328668,0.031347881541464985,0.09279638555395192,-0.04085294599777954,0.0066514036935255635,-0.5920305395956351,0.06726408526124689,0.1763847221470443,-0.06047279451224287,-0.07910345830447722,-0.012167973197399535,0.1953125
0.11104273907983626,-0.5357572892983267,-0.10773784393686935,0.9882334516502218,0.03499570455612098,0.10371092510280346,-0.04547394296822842,0.007311820429473994,-0.6611901970259528,0.07510942717140376,0.19705409025469503,-0.06732857055631729,-0.08832742381017426,-0.013451082312483192,0.203125
0.3528298192149533,-1.7139325895118707,-0.34508410214353225,3.1652778902475434,0.11123342079836464,0.3291534433982854,-0.1434867265516354,0.021575606641025032,-2.1141823196453755,0.23984023897955453,0.6337136344277552,-0.21431371161519155,-0.2823751686012757,-0.04055554533187411,0.2109375
0.29569217046502544,-1.4349952153229055,-0.28897825425847856,2.6512386719295002,0.09330007517876088,0.27582249093958977,-0.12025602623022696,0.018209533283919922,-1.7707662945135012,0.20092947554237112,0.5306259874013374,-0.1796178428256344,-0.23648516187296767,-0.0341723771527361,0.21875
-0.23894166749414592,1.1707694048683883,0.23563954036930598,-2.161867645794491,-0.07515961909023401,-0.22245778435200061,0.0967085037517424,-0.013342576170889311,1.4418322177885596,-0.16340199902531252,-0.4345027071171811,0.1455364854281056,0.19262474377031033,0.025728400750103547,0.2265625
-0.6194849574126998,3.0255344948684195,0.609059225124735,-5.586254569917407,-0.19519693798020868,-0.5769480348494005,0.2511005552257123,-0.03580834828481825,3.727751615888241,-0.42281439216032624,-1.1212280563146455,0.3770023309035053,0.4979796097902381,0.06837228667850319,0.234375
-0.3760137895882241,1.83927117533723,0.3702626152795277,-3.3927059530774044,-0.11863835173874801,-0.35001745627737774,0.15217492430411023,-0.02144505712522276,2.2638612667646294,-0.256923293592098,-0.6815940715586031,0.22885624907118374,0.3025059405946697,0.04109391637425136,0.2421875
0.07027079532977634,-0.3359080396519963,-0.06754550927335033,0.6237949202772977,0.021963094685341966,0.06561759292694573,-0.02903795533633729,0.004890775307995883,-0.41753293508569633,0.04735190415202774,0.12362271505657241,-0.04262092410386924,-0.055622012441270983,-0.008904260210057309,0.25
0.14215643488995977,-0.6871421099699931,-0.13810024179892086,1.2686804331644344,0.04471745597992443,0.13242133888229238,-0.05815353049646427,0.009133538794027491,-0.8484652707201517,0.09649495409070098,0.252954872340798,-0.0862441070984984,-0.11323146285126573,-0.01694445498782328,0.2578125
-0.03210909869001348,0.16157322955012543,0.03283677278446838,-0.29948726848465695,-0.010132739270182262,-0.029765981848597033,0.012691823309797368,-0.0011432197459448898,0.19870001718070962,-0.022323632259164967,-0.061407308825031384,0.01982442359092903,0.026584272901102202,0.002587648137772348,0.265625
-0.012338085335614545,0.06572075864132046,0.013453844889518249,-0.11952768584506697,-0.003933797215080632,-0.011077498873520927,0.004680250953570489,3.519582235839963e-05,0.07909574132426105,-0.009062506402448819,-0.02523648642693265,0.007715445723275385,0.010615892035929263,0.0003651327525047329,0.2734375
0.1370862469998172,-0.6617443624269257,-0.13313339369106775,1.2248903819835493,0.04315322346961991,0.1280481467460279,-0.05599882374407545,0.00885655317208296,-0.8184914292268675,0.092669697600436,0.24451843028102357,-0.08322302542162698,-0.10927586824309238,-0.01638421640170815,0.28125
0.031074768096237125,-0.1451126782337043,-0.029147349497808443,0.2685559117418199,0.009832876245425903,0.02897456970702914,-0.012905841155938905,0.002594792443967125,-0.1800738695566608,0.020503746108771457,0.05295352360628503,-0.018610577116346103,-0.024065929571838965,-0.004506828553174798,0.2890625
-0.22860045054507996,1.1200909466733389,0.22563201257521698,-2.0686913815453902,-0.0719492908137698,-0.2130009025399381,0.09258198240794335,-0.012730946117804781,1.3806931378585727,-0.1564128484671785,-0.4156604118533478,0.13945090512201413,0.184396707773199,0.024589285050225673,0.296875
-0.11484728946886615,0.5660623700641357,0.11408682580783114,-1.043569904442898,-0.036167422937394555,-0.10680187950230179,0.04638634822846709,-0.006014177939827865,0.6961332149491306,-0.07897292147336205,-0.21017941131035986,0.0701786659703569,0.09308375307312047,0.011850116450040148,0.3046875
0.37049221811982647,-1.7986038410388863,-0.36209395144112055,3.324240355072107,0.11670388745207497,0.34545212516194174,-0.1506915424421857,0.02262455096513835,-2.2207399788748754,0.2517356380157985,0.6655936471423342,-0.22513922212678802,-0.29643382335904234,-0.042516355279691304,0.3125
0.5333771580378956,-2.592632245232854,-0.5220194952802419,4.789423379871616,0.16804486290542028,0.4970663852455959,-0.21684319900113322,0.032230342375233915,-3.1989479928779403,0.36283699603105174,0.9593385136822976,-0.32419615500470894,-0.42718721392676795,-0.060765839248345596,0.3203125
0.07869264585138777,-0.3776704617889358,-0.07600831144415969,0.6986958317350297,0.024799158149803276,0.07340527272592966,-0.03232825782161862,0.005402168366493628,-0.46692839677868125,0.05307538988965966,0.13893720414797506,-0.047645348837573105,-0.06240447456109304,-0.009843831870881215,0.328125
-0.399006947489835,1.94986321088418,0.39267737822278886,-3.598578694764481,-0.12573304379505695,-0.37149735920187654,0.1614925564018311,-0.022778099898821704,2.4022890900069394,-0.2724644698116586,-0.7228908550471673,0.2427720212617995,0.3208379994118791,0.043657858120775314,0.3359375
-0.39968098026507315,1.953254411896976,0.39331168035180747,-3.605281651576479,-0.12593448879761274,-0.37202960900211857,0.1617562867740242,-0.0228207030135721,2.4059491237633206,-0.2729141070977867,-0.724247591499772,0.2431303061327916,0.32137449355635966,0.04373762198230597,0.34375
-0.18486245814812807,0.9063444770346792,0.18247394390107147,-1.6741177377979466,-0.058202657172720246,-0.17199892610722944,0.07465552259693455,-0.010156847580876191,1.116246278072336,-0.12646993520736638,-0.33690482743750383,0.11264580727028042,0.14909539134700106,0.01968376995211791,0.3515625
-0.08984677608863427,0.44321357833796726,0.08932450805648129,-0.81946943827553,-0.028268967510778314,-0.08358263248208313,0.03616261544348481,-0.004552633007966706,0.546087349340159,-0.06174175491451548,-0.16546747494623384,0.055006178855272515,0.07295922756651442,0.00904039264125017,0.359375
-0.002295787476839899,0.01717780914842344,0.003677113128400951,-0.03056950590093641,-0.0007619282876605402,-0.0019457206861569474,0.0006121932286516516,0.0006207227611506099,0.0195439792927125,-0.0021653970932318817,-0.007352496323871629,0.0016644032825983742,0.002718904003307126,-0.0007677768390930714,0.3671875
0.16875373011964154,-0.815300048857305,-0.16395254305150816,1.5083743907016365,0.053068888004160916,0.1574758724649786,-0.06882800027764517,0.010712175648008183,-1.0083254681376295,0.11439436591310362,0.30116237873643,-0.1024959883726422,-0.13456580835056328,-0.019913122063145494,0.375
0.279188589333162,-1.3531864503978108,-0.27228280176470704,2.500089761739129,0.08789231200612962,0.2601903636302622,-0.11359502787550739,0.017220154108013818,-1.6705233026728643,0.18972287807008378,0.5001351085053515,-0.1695627202123035,-0.22311220951974908,-0.0322677452461068,0.3828125
0.315760903628589,-1.5321951335790647,-0.30821289573711474,2.8283147321552473,0.09950238693512511,0.2940413995188441,-0.12837707328232417,0.019383275769172377,-1.889188394330939,0.21464014021658215,0.5661327579205153,-0.19164202566690505,-0.25233523221939325,-0.03637911520486384,0.390625
0.3159040871177468,-1.5334813156622633,-0.30847146559099453,2.831767219236227,0.09958952461253494,0.2942821959176174,-0.1284622668526657,0.019405760395008454,-1.891234396799614,0.21463015818707126,0.5667743911968538,-0.19179490629311446,-0.25250674568735504,-0.036429784669601874,0.3984375
0.11491126069667401,-0.5535449611681489,-0.11147918416129744,1.0261172453208505,0.03618842377825344,0.10738483259309818,-0.04699705423111629,0.007543409875972392,-0.6860548563636993,0.07756056307700712,0.20448262113423782,-0.06974819224571702,-0.09147383763654175,-0.013924136071006352,0.40625
-0.261189009067251,1.2799293024014284,0.2574480806478534,-2.3576129507001,-0.08243418492405571,-0.24289155885396255,0.10555315065427699,-0.014665638372507889,1.5726631729418745,-0.17876920716718914,-0.47400609816475453,0.1589693139949088,0.21019936196813466,0.02822977793706711,0.4140625
-0.4236399450064399,2.071243361932569,0.41695002838432477,-3.8209732995404933,-0.13362924745025764,-0.3944597539715047,0.17148661775515608,-0.024254119396422618,2.549792548498769,-0.28942776933997416,-0.7671089463401424,0.2578964481571099,0.34069997278546515,0.04644207047288436,0.421875
-0.2808970711773604,1.3743376624093604,0.27680738269995614,-2.537406266655968,-0.08850777424255112,-0.26154848044341417,0.11361391221381498,-0.0158160609265485,1.6933091294819251,-0.19203487873818764,-0.5095387503188108,0.17109859191518242,0.22625538069005063,0.030438501582396093,0.4296875
-0.1723129100530789,0.8439178724904974,0.16986436624325207,-1.559481612207546,-0.054153773957362886,-0.1601158957096371,0.06957259925672138,-0.009397475712605274,1.040719109218645,-0.1179257584093748,-0.31368525412645976,0.10495717319851637,0.13895502110246558,0.01826233315828989,0.4375
-0.10807796058607015,0.5303747761810442,0.10677544312949291,-0.9806310296957583,-0.03392941749975454,-0.10014582019463562,0.043495878909946654,-0.0056058648985196444,0.6543433441896968,-0.0741406027459896,-0.19799082556295086,0.06588897538464963,0.08726267688565108,0.011074380919955306,0.4453125
0.19185159294409818,-0.9307138449965097,-0.18689809206131613,1.7174827033316455,0.06046977425998422,0.1789490974135073,-0.07820715230080541,0.012093556585302112,-1.1469730736660164,0.13020299254693743,0.3429293785671575,-0.1164116095153944,-0.1532517916143431,-0.022514204603918453,0.453125
0.46631625016992256,-2.266705605180382,-0.45570542764169164,4.185266561511633,0.14691732892045808,0.4343021789574683,-0.18955429029702153,0.02828675189826015,-2.794766702511395,0.3172323047448076,0.8379800320892502,-0.2833125423507687,-0.3732338514098178,-0.053258826837413634,0.4609375
0.22626697897618106,-1.0951921243587586,-0.2204460520165411,2.023506328004532,0.07133039273211651,0.21071057143587454,-0.09212731237338438,0.014108782792851859,-1.3521440875211006,0.15364309359120115,0.40479729987788043,-0.13740547955601423,-0.18056175770427987,-0.026360665110247372,0.46875
-0.22556425430622673,1.1072048396332992,0.2225017836582715,-2.0426284783999944,-0.07103086791823411,-0.21005985550683173,0.09122626749814172,-0.012563094433218635,1.3620075947461026,-0.1543308017132825,-0.4104603053021992,0.13736439056835992,0.18191779593583676,0.02426859153601202,0.4765625
-0.23481175868241452,1.151467294969711,0.2318422505985959,-2.124815095909824,-0.07403911327629316,-0.21870698525454305,0.09497931413166778,-0.01310453718181473,1.4169173083187345,-0.16068245759764865,-0.42721699217768394,0.14304141645065535,0.189319294604904,0.02530543380820023,0.484375
0.03884295630006227,-0.18267990897562142,-0.03625137703256965,0.33897288457254227,0.012082373182739178,0.03620489073360764,-0.016094861881278344,0.003045175030783279,-0.22782680814392864,0.02585589184877764,0.06645432340204115,-0.023390853438013365,-0.030251208427586468,-0.005362356400807114,0.4921875
0.023818352324849,-0.10886853499298255,-0.02173147209240761,0.20430775299213805,0.007343648809619796,0.022375476391185443,-0.010041453333641833,0.0021450370733445937,-0.13800477501753072,0.01567425285624142,0.039486450739353696,-0.014280486971429468,-0.018217583326059418,-0.003684970592549669,0.5
-0.15133568161199565,0.7450932808558143,0.1496052341553517,-1.371495756515651,-0.04775468031576537,-0.1406608786988548,0.061047095404481964,-0.008198207106916848,0.9143344703418727,-0.10374222952116283,-0.2760894026056538,0.09231416804808795,0.12229709389730899,0.01593462108417815,0.5078125
-0.034003695248416545,0.17221300998913056,0.034397101810131545,-0.3144621558271761,-0.010700200918946016,-0.03138771692662521,0.013503389266575794,-0.0012579230080575978,0.20950141153000343,-0.02388376030105919,-0.06396970382112366,0.02103220341940649,0.028078059960820693,0.002774880542254162,0.515625
0.20006514156955105,-0.9698797363057157,-0.19503809891652105,1.7930981681044773,0.0630617189872275,0.18667683325897355,-0.08146443234466352,0.012575202477339528,-1.1971411909268914,0.13560647643096244,0.35836911797856613,-0.12141858979416263,-0.1598983925583538,-0.023467356437249853,0.5234375
0.14202560918023185,-0.6873284394228663,-0.138102281329563,1.2705474760833049,0.044758402197234794,0.13271926781299706,-0.057992360572623275,0.009153370382783283,-0.8486955298679375,0.09611519683809229,0.25343675363143053,-0.08629366385422098,-0.11344041274742676,-0.01696844482621913,0.53125
-0.038098826251944426,0.1904583385970017,0.038427668475066505,-0.3515399110404953,-0.011954962787757087,-0.035115226552014864,0.015036146189851829,-0.0014785951193247713,0.2341896702093868,-0.026542414496016898,-0.07156048471648926,0.023259561300850384,0.031179951269270232,0.003220697908915448,0.5390625
0.031994479143978447,-0.15165443004351223,-0.030308239678441314,0.27839734741399946,0.010197421941626393,0.02994631439708544,-0.013363394416913574,0.002661410659274635,-0.1857111372760129,0.021318991760594576,0.055014152877624976,-0.01917708075139681,-0.024837339612190396,-0.004621641677292234,0.546875
0.22943271269257584,-1.1132285471979222,-0.2237249315049474,2.0537410977533987,0.07238509600534301,0.21371524018583632,-0.09340156177501281,0.014306465739192394,-1.3712856201188148,0.15589534794626955,0.4109817694216092,-0.1391318208198013,-0.18305967547588456,-0.026721869497148054,0.5546875
0.21071227355638328,-1.0195059247058997,-0.2051725316242013,1.8828313221066881,0.06636690149658411,0.1963596990626654,-0.08582126060479373,0.013179457243826062,-1.2591336775627844,0.14304616412049445,0.3766376290741071,-0.12785372747126342,-0.1679574644142655,-0.024595829746986927,0.5625
-0.035550021723786025,0.1820211633992391,0.03630714508686993,-0.3338486467929662,-0.011310584094239637,-0.032873697675704264,0.01399324350444265,-0.0013632861434917612,0.21947130118377206,-0.024874335912563102,-0.06791467030445655,0.021706801678493492,0.029523112486487316,0.0030021093111609553,0.5703125
-0.2791978262994594,1.367474149257288,0.27511577494359657,-2.5233076692428122,-0.0880527876390375,-0.2597942997189335,0.11279304197897068,-0.015724193211590125,1.6824313519530318,-0.19087787062568462,-0.5072220419416439,0.16982218293735105,0.2247401461653443,0.030274091054670015,0.578125
-0.35337989563973443,1.7263711921584268,0.347885013202777,-3.187670480591946,-0.11136836283668707,-0.32902965386487687,0.1429782772357567,-0.020083185195649805,2.128158962052537,-0.24133841245932855,-0.6407731775567169,0.21509077408972638,0.2840796069427086,0.0385595425468414,0.5859375
-0.23086100591174222,1.1292085571237398,0.22789842500413382,-2.0854685144264096,-0.07275476565711415,-0.2150912539177771,0.09341273871522589,-0.012853571483521621,1.3929883036094894,-0.1578716438724204,-0.4197664235479182,0.14074843836362633,0.1858666332254559,0.024829218608505225,0.59375
-0.049594989843510545,0.24717914691107254,0.05020240992281145,-0.45611948389064394,-0.015647294828846033,-0.04629368442046668,0.019921685894799354,-0.0021615192096529974,0.30445860427270305,-0.03446087471569765,-0.09282553645572135,0.030497025608277096,0.040600931617314276,0.004521720026287935,0.6015625
-0.015541606937103087,0.08191299847161576,0.016730968669412306,-0.15006432635816996,-0.004920508470857754,-0.014424241053450517,0.006069700636955721,-0.00015332581636343193,0.09927377619559134,-0.011320576517874579,-0.03130219856399801,0.009692947105718289,0.01333421282205773,0.000708170521275124,0.609375
-0.11095952203409992,0.5478870912767563,0.11025434751505978,-1.008693458996661,-0.03503362731709632,-0.10309829585604904,0.04474763385914698,-0.005798845812116677,0.6716954483067729,-0.07637101803044119,-0.2033092035428244,0.06774109471731998,0.08993228000518613,0.011419418195543549,0.6171875
-0.09998195070688638,0.49622658646632345,0.09945822114215709,-0.9104786074799197,-0.031632007321985116,-0.09277017639022911,0.04026360573932115,-0.005173662324131053,0.6054107457621349,-0.06892499650303244,-0.18338734453027306,0.061128752190926804,0.081216453687256,0.01020964862867583,0.625
0.07915913539996648,-0.37662170727344463,-0.07637337973752953,0.7022253460033531,0.02488476686344853,0.07408017444162757,-0.03246039491612716,0.0054010984414363744,-0.47081573626198525,0.05322511301491468,0.13993113754442232,-0.04787380874324883,-0.06253996063351452,-0.00988336895865772,0.6328125
0.2594040201002773,-1.2576075347505034,-0.25331390836981804,2.3259010350995206,0.08186543321131004,0.24191104796310797,-0.10559140633594397,0.01606847886433467,-1.5532340216264253,0.17628805777105552,0.46513392262971603,-0.15758461619556902,-0.20731336187495608,-0.030119501248192584,0.640625
0.4198428690441474,-2.0416445016667337,-0.4106533135269707,3.7692553843250853,0.1325000290507701,0.3913073201852699,-0.1706634189748256,0.025555208313914904,-2.5160921050996876,0.2857796282999782,0.754468950507283,-0.25514358011264454,-0.3360927474567451,-0.04809254729091203,0.6484375
0.6542770309093069,-3.1836292364904746,-0.6404614235615552,5.876419591440574,0.2062429364036363,0.6096697061767379,-0.2658524183273889,0.039381883847904975,-3.9237644027014724,0.44542345848129905,1.1774177126350418,-0.3976955263344001,-0.5241169544039621,-0.07431895542459885,0.65625
0.739183842232818,-3.596614221224237,-0.7237431360593534,6.639776467887234,0.23285402134518146,0.6887675041968478,-0.30043545177573316,0.04438465327715963,-4.434087220964176,0.5030979903264886,1.330755294062451,-0.44940672893842915,-0.5922870365309507,-0.08382114168434251,0.6640625
0.2984535127929743,-1.4499649403603565,-0.29160099023284514,2.6759416244805,0.09399820458476812,0.2782292980292712,-0.12162099895721068,0.01838157576288018,-1.7869039154721345,0.20279802032101052,0.5355736849914324,-0.1814100369855307,-0.23885787467982075,-0.03447140933511051,0.671875
-0.5174293672741759,2.524792883037302,0.5085833532339583,-4.663651472090645,-0.1630133747010558,-0.4817531263246415,0.20953326817312976,-0.029764108982912596,3.1141717017751627,-0.35302266825736733,-0.9366987655796768,0.31484405645082936,0.41566966431468366,0.05691788513366249,0.6796875
-1.0592043139771157,5.166044529528918,1.0401054385643316,-9.53840767990333,-0.3337760245404834,-0.9864103123807514,0.4293895483126227,-0.061745667305712675,6.3681252723297685,-0.7222518660093242,-1.9143109325163616,0.6443441672403503,0.8504471390785363,0.11762294756995371,0.6875
-0.9817679046558021,4.7910757454034005,0.9643835939342015,-8.842966568296756,-0.3095009753318922,-0.9143573525464025,0.39791539145544125,-0.05718765904909295,5.902136590095704,-0.6697461054490068,-1.7745885596841493,0.5972048432595589,0.7884708539382794,0.10896266681176142,0.6953125
-0.543721781290398,2.657851560355124,0.5348818354239597,-4.904269757197965,-0.17150174169581506,-0.5064557309781783,0.22025245416204525,-0.03134840148418143,3.2712539508368033,-0.37142101018558354,-0.9844629333591632,0.3309177398541272,0.43718943274964106,0.059910185207236,0.703125
-0.08585578841675144,0.42671526343543287,0.0857654016460343,-0.7870723183315719,-0.02713478409420064,-0.07999102055716702,0.03468356507890233,-0.004337182699980722,0.5225267997370912,-0.059339909366286026,-0.1586669086144409,0.05270531449620632,0.07000427257890554,0.008644395890219925,0.7109375
0.29039237579304067,-1.4072131309078793,-0.2833273263291668,2.5990744927283047,0.09150470996632987,0.27057163313408816,-0.11789065107317022,0.017874846392370084,-1.7369161816563112,0.19719608337801406,0.5203573002857295,-0.17607657435371724,-0.23184857588801305,-0.03350165263691006,0.71875
0.4981044007038232,-2.4200533738077263,-0.4869646999647686,4.4714151862717335,0.15694789993516578,0.4640952451981467,-0.20229301483060852,0.030157443327856012,-2.985692776898524,0.33877537325006196,0.8956789884092936,-0.3026180858633298,-0.3986595886324331,-0.056799009102077455,0.7265625
0.43269516422153076,-2.101964020622473,-0.4227420545819292,3.884083077457643,0.1363149082159053,0.4031147694924357,-0.17587502828960505,0.026307223069507682,-2.593668095713442,0.29420274036914507,0.7778064650848682,-0.2629636604074936,-0.3462887661854455,-0.049490692391513144,0.734375
0.24975591558978796,-1.2108320004871123,-0.24357416724332226,2.236019852150135,0.07873068445075836,0.23273825813439694,-0.1016227220909245,0.015494678681114564,-1.4943392660694772,0.16961371829331687,0.4473646576442903,-0.15159888148674003,-0.19946798293956536,-0.028992358462349595,0.7421875
0.23138400528991077,-1.1218311283803357,-0.22596802964265345,2.070644908765308,0.07303932804963653,0.21580019070278425,-0.09414122730529971,0.014404046884773865,-1.3837867851009982,0.15716956507987492,0.41416206065490735,-0.14039417537691062,-0.18477557714373322,-0.026949907062671627,0.75
0.33572754814880645,-1.6318274840045788,-0.3284094277319504,3.014032842602978,0.10593093531042372,0.31314656311123445,-0.13662411004021172,0.02058927688362684,-2.0119836949602434,0.22829917522629226,0.6029826689039999,-0.20410072236309493,-0.26879596776309056,-0.038692345796789276,0.7578125
0.2933724050882573,-1.4270089072308878,-0.28668222724799036,2.636990333384335,0.09251751524907459,0.2737029708297686,-0.11965663895500413,0.018114649080788144,-1.7591104761112164,0.1995235555547179,0.5269242546839804,-0.17859526791969899,-0.23508578386664858,-0.033984295669566754,0.765625
0.11299729406149023,-0.5474474563841883,-0.10968418881192118,1.012386522049901,0.035643286845411855,0.1056182723938921,-0.04649499423797635,0.007452605400504996,-0.6750668944630057,0.07673716411323998,0.2011045969683384,-0.06881412634141787,-0.09024855325643463,-0.013752985571632756,0.7734375
0.01709612916862665,-0.07731024589363503,-0.01560851298873217,0.14450818748286368,0.005408453635983005,0.016216037114324663,-0.00737272472722292,0.0017551137466560627,-0.09693030029806507,0.011295776028308517,0.027567170066150344,-0.010170949552232009,-0.012910341762190417,-0.0029522868742139293,0.78125
-0.06665310277582857,0.3330338320338399,0.06674540389503618,-0.6118101270483159,-0.021076583055126833,-0.06186529755932565,0.026783253943406624,-0.003200927617008734,0.4071686713329889,-0.04612804524858048,-0.123505057735609,0.04093536545951854,0.05452261477263333,0.006468410334829946,0.7890625
-0.39146976262163125,1.915831913810923,0.3855322477368771,-3.5342698956847554,-0.12354377516844779,-0.3644808002683317,0.15852631049958324,-0.022358933111796025,2.357681983264608,-0.26771988755645487,-0.7092979817109419,0.23837606417867016,0.31506546132812707,0.04286841545674084,0.796875
-0.7890134126006599,3.8523181868757757,0.7753192958306858,-7.111401913257162,-0.2487900894259369,-0.7348250525691639,0.3197264515853087,-0.04581507327691657,4.745265567354871,-0.5385394341743077,-1.426690550420988,0.4800222116182201,0.633909822121386,0.08740989166620955,0.8046875
-0.7734516598247967,3.7766237189238123,0.7598856795584517,-6.972642733880201,-0.24378235521996056,-0.7204168610065295,0.3134806641721712,-0.044905798660818654,4.652476113154101,-0.5277688586972947,-1.3990169038171707,0.47063190895267987,0.6214618910034629,0.0856729905294664,0.8125
-0.2863203094216035,1.402903258549181,0.28228401584030505,-2.589813561868051,-0.09028737590552334,-0.2667952604020874,0.11596826212853165,-0.0161636441346175,1.7269111950625744,-0.19579695247050768,-0.5202913694689767,0.17454962517676786,0.2307061435310769,0.031098441442993927,0.8203125
0.20765440872617658,-1.0053305262771957,-0.2019978570635631,1.8563688336978377,0.06530871699201131,0.19332453630938243,-0.08445343870414726,0.012995879425784538,-1.2406679419676325,0.14082696821905208,0.37114636929681577,-0.12582833951387762,-0.16565420968386052,-0.024256662318980965,0.828125
0.39519364201590657,-1.9205127146062684,-0.3861676536274808,3.5455780788560434,0.12449709675790446,0.3682477093058445,-0.16062722629441886,0.024080740008444776,-2.3678055511412888,0.26872346643649864,0.7098617461192042,-0.2400193232192789,-0.3162344995545541,-0.04529045498513421,0.8359375
0.3915636258956016,-1.9033548008815777,-0.3829775589871291,3.513948847091917,0.12353405183283826,0.36513035164477464,-0.15917971901750042,0.02388431319287108,-2.3464855810579612,0.26629420762495165,0.7036013988967911,-0.237960229442217,-0.31340501526332887,-0.044905351447188095,0.84375
0.3562245597981155,-1.731522640398955,-0.3482632361326539,3.196666619863785,0.11241131791702885,0.33216725748992093,-0.14484523662279344,0.021806246020922654,-2.134649274445785,0.24218511995486716,0.6398858337404024,-0.21648962061754892,-0.2850769275684463,-0.04095770196921917,0.8515625
0.276930526153721,-1.3455716048921675,-0.27019483836750624,2.483724573116233,0.08729429203619299,0.25802104312035773,-0.11272088171647622,0.017120350291557142,-1.6583091512817123,0.1882224707507012,0.49659450001402633,-0.16819801546138388,-0.22145030131441137,-0.032075525566855646,0.859375
0.13591843264626527,-0.6578162064437311,-0.13189297092408767,1.2148527482328804,0.04283516955130166,0.1266000370599478,-0.055523696755563595,0.008789612125390147,-0.8106551459048148,0.09224285167374249,0.24192930186269984,-0.08243099837072607,-0.10829702362556544,-0.016273978846609406,0.8671875
-0.017167183389514326,0.08993205034995412,0.018042332657026428,-0.16321661697063225,-0.0053211103534625236,-0.01572769559377898,0.006637440032725747,-0.0002468756809848738,0.10905651103254069,-0.012152812339443786,-0.03432432392039108,0.01056596593591673,0.014532310530272237,0.0008811762561130832,0.875
-0.12988709421653144,0.6404460414742282,0.12863599112387947,-1.1780109356364274,-0.04086807727726312,-0.12054304137877173,0.052375816666428,-0.006902710470735241,0.7853859750133553,-0.08915527840605786,-0.23762495502101608,0.07904392878687531,0.10498509419489177,0.013514207118521252,0.8828125
-0.1442861969103311,0.7104993449443202,0.14293282009828912,-1.3077433504329454,-0.0455371360702995,-0.13408730320475426,0.058145018463723254,-0.007765582322844235,0.8713560906626856,-0.09901484599207577,-0.26346198651181485,0.08789399129426083,0.11660152659275266,0.015133160234211974,0.890625
-0.050285582275338324,0.25208963452896316,0.050613165141212224,-0.46196689993890555,-0.015948065048812993,-0.04662058929485918,0.01996513438230078,-0.0022288584984479077,0.3070351034674253,-0.0349123721719887,-0.09358142394697731,0.03086639888272125,0.041237656525265134,0.004609237127661293,0.8984375
0.029439429424011374,-0.13632366661311474,-0.02782716299985249,0.2552608374706402,0.009241620145796204,0.027769085556853965,-0.012366684466250237,0.0024813061665244183,-0.17159548988940482,0.01936286894597033,0.05047342092151472,-0.017652255282831777,-0.02278952695095516,-0.004317836825981171,0.90625
-0.006982282708692104,0.04088892225154424,0.00803689018055349,-0.07263911059067996,-0.0022416418346338,-0.006188839503732829,0.0023964361817783056,0.0003445780072973647,0.04707914701187338,-0.005501834135359147,-0.015438921786408964,0.004351326851537076,0.0063078151046653645,-0.00023979326935471656,0.9140625
-0.05850484007609461,0.2910983705100285,0.058929015058338766,-0.536425918423969,-0.018545625025060672,-0.05450731197052295,0.023279045172744584,-0.0026936161366182486,0.35700815257321433,-0.040476505156729056,-0.1087938398722467,0.03569912086024281,0.04764677801800302,0.0055295374306972445,0.921875
-0.01243267791031125,0.0661659493511537,0.013723473869633318,-0.12231507814340412,-0.00401093166127666,-0.011732558420170378,0.004663564057864098,1.610518656835795e-05,0.08128309182709774,-0.008941963932411272,-0.025721887315904243,0.007894993785990434,0.01083325231347429,0.00037795681977982913,0.9296875
0.012406386594485891,-0.054540831383029606,-0.010942526851432505,0.10023074017797959,0.0038994979931257254,0.011639116106336746,-0.005270663110465606,0.001475600080105859,-0.06740406936105088,0.00789626849033308,0.019301578228354828,-0.007055765817632376,-0.008982065832805003,-0.0023861053150602963,0.9375
-0.12685492975157056,0.6241498580272815,0.12564845898100907,-1.1539499411527805,-0.03995565214550229,-0.1179435664347215,0.05129932098039217,-0.006736673605293386,0.7688926995752839,-0.08717152357721106,-0.2320348135537535,0.07757818387973214,0.1027212312976323,0.013221314089395073,0.9453125
-0.2973125966386395,1.4541591705827024,0.2931056157163311,-2.68791977983846,-0.09368343889431231,-0.2768618750645316,0.1204127702022336,-0.016783554609599707,1.7924090184225443,-0.2033217390593434,-0.5399201547511358,0.18109238531389657,0.23939532935777372,0.03230489904576707,0.953125
-0.26634503925209807,1.30284800348371,0.2627178915929746,-2.407805616423669,-0.08391449676870134,-0.2479893791409078,0.10776549494299671,-0.014950241381668467,1.6057434174115581,-0.18208600102832337,-0.4841200557125931,0.16215305685663373,0.214476574687575,0.028821128200637765,0.9609375
-0.05290078029774963,0.2631975111698253,0.053090478829896835,-0.4849089991338643,-0.016657594016836117,-0.048890324211346786,0.02110051867589454,-0.0023582327370590614,0.3226646693168571,-0.03656962245336298,-0.09874095272825364,0.03228292781007219,0.04316548754168487,0.004899157994715993,0.96875
0.12479837298370937,-0.6019604246899527,-0.12122762637290672,1.115417868703787,0.03929779247395479,0.11666540014792376,-0.05103069176698685,0.008124894039981937,-0.7450864758408478,0.08450256134556734,0.22208706956360996,-0.07581925045773959,-0.09941864837646544,-0.015024615756978851,0.9765625
0.15514940213765843,-0.7494787977774996,-0.15078283254158037,1.388289985160705,0.048864066891947944,0.14466062021871226,-0.06334227176337734,0.009920398321292,-0.9268021292934683,0.10516366475043687,0.27685862384371185,-0.09425941757174199,-0.12371008606726473,-0.018440137544150522,0.984375
0.11549473706490747,-0.5562448510059365,-0.11189895081984755,1.03058239689618,0.03643368719008584,0.10765725788780095,-0.04723411162204651,0.0075840317740428174,-0.6881367336909028,0.07813602013265537,0.2053033613869076,-0.07008424009908419,-0.0918442830765261,-0.013987503963310688,0.9921875
0.11949609848003634,-0.575782883136531,-0.11604533147032273,1.065676954691674,0.037724401864303134,0.11157637237143106,-0.048840709656138424,0.007813198998128984,-0.7122014029372606,0.08085088023761722,0.21255436012224627,-0.07243457953351735,-0.09505279376645785,-0.014403924534190935,1.0
0.19157247133893138,-0.9268284930879791,-0.18672535192692685,1.7130178436842165,0.06039498934404622,0.1786773581130634,-0.07804497665534635,0.012055634301154384,-1.1447541812668747,0.1299318791604679,0.3425991455244193,-0.11616102352212265,-0.15283041864628244,-0.022459098067914705,1.0078125
0.25745567672326036,-1.2476707667126345,-0.25106829929676167,2.3049791669586535,0.08112036746049667,0.23980547398304328,-0.10472214215546125,0.01594322914641951,-1.5398967998455435,0.17476466067157057,0.4614646616300091,-0.15616585808172256,-0.20559707555576207,-0.029848195303389845,1.015625
0.21734086325077967,-1.0527017670814016,-0.21161184222151594,1.944867488789327,0.06848835406274753,0.20249847469044766,-0.0884629089349401,0.01358703656129175,-1.2994713994354348,0.14739008178681956,0.3891085526053154,-0.13184750195027287,-0.17346294399039677,-0.025374372953189464,1.0234375
0.05174275546123951,-0.2470429993119793,-0.04937793365067672,0.4564875364295251,0.016315689388146072,0.048540653598666605,-0.021377650117857,0.0038227690692445755,-0.3058845525031372,0.034601079652160166,0.09031243692338949,-0.03129006605837288,-0.040800407981635534,-0.006838753984820235,1.03125
-0.14323554148814188,0.7024541648655274,0.14169501288547035,-1.297876873866315,-0.045144687349187695,-0.13308834292378005,0.05766255763504796,-0.00768921685348656,0.865578359733211,-0.0981485394227875,-0.2615477140413652,0.08723608321341145,0.1155593349218657,0.014999685330966269,1.0390625
-0.2326306404375896,1.139038780624308,0.22942299489392456,-2.103524537154816,-0.07335831453151029,-0.21662729102667094,0.09396590516629688,-0.012978668999325718,1.4038380735733502,-0.1589931100379259,-0.4228802693602115,0.14166556657830587,0.18742504690936168,0.02502623505279926,1.046875
-0.15699261389438193,0.771484158860637,0.15530039872234344,-1.422906579631715,-0.049566667735550886,-0.1461712588671836,0.06332368416355658,-0.008522520126940596,0.9494908278938989,-0.1074486747634291,-0.2863662991551432,0.09570022957033332,0.12683766528733342,0.016570975733400738,1.0546875
-0.003580883700957672,0.023570028056117513,0.004750433750376503,-0.04134634572141476,-0.0012248760739080027,-0.003010686624415073,0.001081719681165631,0.0005343688875794575,0.02668342255809902,-0.0029527818232882325,-0.009516344682075755,0.0023760161870592608,0.0036727405200449184,-0.0006099416757533253,1.0625
0.03605723690503085,-0.16988387610719405,-0.034183859323795314,0.3149901137865961,0.01130117848961454,0.03394821219835341,-0.014985006713566208,0.0028775773869131388,-0.21186224101153656,0.023961023536040918,0.061921506884742475,-0.02172523437733409,-0.028178391337238554,-0.005054087770597099,1.0703125
-0.13114070898590147,0.6460428668295235,0.1299514714440505,-1.191022432527342,-0.04138574259488868,-0.12201584222548341,0.05288740200705601,-0.006991464629636923,0.7931239483723366,-0.09009145754873121,-0.23995964215161997,0.07998485782358562,0.10606481028904888,0.013682723492582238,1.078125
-0.3426300361048699,1.6775758143183657,0.337563618181529,-3.0940885497058233,-0.10806429271520739,-0.3190992622512183,0.13867811770665903,-0.019470695058919085,2.0636315804001066,-0.23426112165411683,-0.6216186462645844,0.2085715073309167,0.2758047109654961,0.037382410831059705,1.0859375
-0.34940813890150985,1.7097072133477245,0.3441870581476047,-3.1537377820480392,-0.11016247251932715,-0.3252895208262256,0.14139330716730084,-0.019857981655792285,2.1038018192839028,-0.2388659912032117,-0.6336263457230106,0.21263593797839242,0.2811591445571647,0.038128387209727325,1.09375
-0.11539780310576785,0.5683270319212148,0.11452597345036883,-1.0477847277952532,-0.03629544527482482,-0.10724849653048482,0.046495034921397865,-0.0060352355472541195,0.6982619234334209,-0.07938234379464469,-0.21119571422805478,0.0703269074481629,0.09333203456019379,0.01189288231900057,1.1015625
0.17532169564534134,-0.8480947903405509,-0.17066337586555824,1.5671585471050964,0.05540000824997721,0.16349254026290694,-0.07137894688939714,0.01112225713674997,-1.047056185469932,0.11878205390850163,0.3132299838606495,-0.10641509934729028,-0.13988903241977665,-0.02067350334547995,1.109375
0.3672515867944921,-1.7835603656522507,-0.35891625948489697,3.293523659729791,0.11585941658236176,0.34221564346087074,-0.14925552829237385,0.02244247438417356,-2.1990056362568784,0.24970938195298312,0.6593520928153553,-0.22305183881359342,-0.2938161331954914,-0.04216043678653077,1.1171875
0.4445670173223866,-2.1619035535832056,-0.4348213853080907,3.989381153379242,0.1401684127221302,0.41418827262775143,-0.18067090862530044,0.026999308200085576,-2.662965191826059,0.30252248545140725,0.7989716060447458,-0.2699505333747427,-0.35580448315823765,-0.05082366261295206,1.125
0.41424233793645615,-2.014791371565966,-0.40510204171195874,3.7172641509822344,0.1305687181885393,0.38590661258392916,-0.16835866262582952,0.025203246986214192,-2.4809881324195553,0.2818876522323533,0.7444149840263449,-0.2514479823288489,-0.3314611996365712,-0.04744127478757058,1.1328125
0.2300628124264498,-1.115926910495888,-0.22435764996760882,2.0612556785711473,0.07247882285284002,0.214440217992675,-0.09363720863449654,0.014328196477369671,-1.3757026132142942,0.1563702238174097,0.4119613909420066,-0.1395806260742836,-0.18374849522636763,-0.026814393958265865,1.140625
-0.09012913112780703,0.44548467833297317,0.08973598258242341,-0.8192009706552766,-0.028458067607417703,-0.08361297215939166,0.0361706643669215,-0.004567399819952728,0.5462461954848924,-0.06185848447047771,-0.1658774260251921,0.05491200955358203,0.07306036544432305,0.0090611961386446,1.1484375
-0.3460723637071348,1.6924760810661783,0.34069571519656977,-3.1229762707113276,-0.1091128400446395,-0.3219365949125329,0.13993001044933004,-0.019669165061893115,2.082954047193449,-0.23641552508455047,-0.6274196611896353,0.21052497475397314,0.278411338218643,0.037742866913116804,1.15625
-0.3152816979465629,1.5425726065471277,0.31050299992325103,-2.846557926237309,-0.09941547109332506,-0.2933662745211583,0.12749532104650949,-0.01785465103920553,1.898187527649144,-0.21559567748280767,-0.5716324344843592,0.19195081481023812,0.2537676085248398,0.03430225629772364,1.1640625
-0.07358678092006865,0.3657071077355034,0.07359176907865243,-0.671168162418792,-0.02327663776207424,-0.06838565581315814,0.02952094829211084,-0.0035936774734798855,0.44695455583734556,-0.05085694879845124,-0.13580807734008463,0.04501006825897871,0.05982946505632683,0.007227106136808431,1.171875
0.04235336896065952,-0.19919222741003575,-0.040039050956800444,0.3718364661944996,0.013263107966588241,0.03950838871355839,-0.017550265691741732,0.003253398286168676,-0.24877444608906207,0.028301188974886777,0.07294744520068963,-0.025632303102055637,-0.03324924905802229,-0.005769730592843255,1.1796875
-0.08286173466267664,0.4102032168316448,0.08270223262745408,-0.7569519529600246,-0.026154569258654604,-0.0771704518947987,0.033181898411741954,-0.0041299796969729635,0.5038570184330371,-0.05705985384440943,-0.15299421933610616,0.05045701509355606,0.06726794202987123,0.00825570995444883,1.1875
-0.15633460172188396,0.7681019135567684,0.15466125769415967,-1.4191070188068085,-0.04928319777708641,-0.14553422475263814,0.06302542511613128,-0.008466012039842891,0.9450513396870819,-0.10732146528848592,-0.28521836312705356,0.09526026106989005,0.12631935151219087,0.016499605092087293,1.1953125
0.015771927350916752,-0.07013280089459262,-0.014158314688077463,0.13097212479435802,0.004937083067548104,0.01493490135093907,-0.006720094875889453,0.001688276381393685,-0.08915493492320935,0.009913647182884826,0.025507898954731052,-0.009309166300147801,-0.011771916539950316,-0.0027723398305640324,1.203125
0.16654033705512977,-0.8048473589936788,-0.16194621461304884,1.4885268992422231,0.05241699289817866,0.15540798305249773,-0.06789678848396559,0.010584017971869595,-0.9947227718398853,0.11279617778285327,0.29738316627893985,-0.10106049430679377,-0.13279543196079424,-0.01967278999688803,1.2109375
0.05588743784877246,-0.265884654739838,-0.05335285478070373,0.4917903796492509,0.01754617172766642,0.05223894252479039,-0.023058549020875594,0.0040508163613256305,-0.3297962470510357,0.037485138883147605,0.09751393582010556,-0.03384819543980213,-0.04399562969441813,-0.007289564185341155,1.21875
-0.0595063098156863,0.2964793716111294,0.059678141008443035,-0.5468784797014864,-0.01874204029785716,-0.05525170847251643,0.02379986129732239,-0.002760379692747912,0.3632424829924852,-0.04116246614484954,-0.1106283508851823,0.036389155027745534,0.048637688134429855,0.005640929223429898,1.2265625
0.08404302220155518,-0.40312737811524313,-0.08137015315021669,0.7462230763705847,0.026599479678503145,0.07854508662720225,-0.03430477032745177,0.005714456691359571,-0.49900572885610195,0.05667652727368762,0.1486412838962883,-0.05074336894512446,-0.06654024762982448,-0.010427286455803687,1.234375
0.21111611675141556,-1.0228331972391045,-0.20597931196026054,1.8906040640047446,0.06664433277547253,0.1968347097389026,-0.08578774527362262,0.013216121689982447,-1.261784353711948,0.14333071695800848,0.37799427560771653,-0.1279130143278002,-0.16852387393726187,-0.024657156005266755,1.2421875
0.01582105943106733,-0.07170867581532203,-0.014154181819807274,0.13368621726292268,0.004999921637857182,0.014768416852968135,-0.006626259398673174,0.001692513004207997,-0.08861578114032535,0.010278025184525849,0.02546504143203089,-0.009204483339344816,-0.011897470973397333,-0.002789591712492309,1.25
-0.2142149197277704,1.048525834186536,0.2114849930926373,-1.9347076198899373,-0.06751334775293519,-0.1994206403165794,0.08658205893937662,-0.011873744334902557,1.292336562916925,-0.1464474922706552,-0.3895871626071693,0.13052501383747553,0.17252256052114198,0.02295809139264893,1.2578125
-0.11654328526832286,0.5717300002939262,0.11539404973538857,-1.0548328204505704,-0.03663354822126394,-0.10825381364162608,0.04690232765529908,-0.006097972598913744,0.705198175125709,-0.07983270440059267,-0.2131571731419694,0.07102660038673227,0.09405629799389272,0.011999451559993334,1.265625
0.05957489782692472,-0.2864793710486492,-0.05738267379902494,0.5278522448138034,0.01890286630172519,0.05571761480585113,-0.024562403447468587,0.0042937838856850555,-0.3521054603568546,0.04018112151891317,0.10452156645092199,-0.03607242727030409,-0.04715785924287826,-0.007728120128688533,1.2734375
-0.03618313373834148,0.18130819205121448,0.036854463812541066,-0.3369109982381459,-0.011381859951333227,-0.03364265025625722,0.014238038118709601,-0.0013713514865960526,0.2234640125785861,-0.025159453249105894,-0.06871817376690746,0.022142495484053247,0.029847397055607523,0.0030136858181950108,1.28125
-0.1534876333508255,0.7541591450015496,0.15204495056236042,-1.3935543151670045,-0.04846025268322626,-0.14274716137757568,0.06177586478672263,-0.008306695385964733,0.9275514135072739,-0.10519182680251074,-0.28064019841839166,0.09341616961661904,0.12405629144949867,0.016169747399788943,1.2890625
0.044335471629868055,-0.20905851355067354,-0.042089525104734,0.3862546043240737,0.013836844721776972,0.041762984473828986,-0.018448425562316392,0.003357307995377409,-0.26095739054664163,0.029535048859785543,0.07643201564859381,-0.026842565500733672,-0.03460151331542346,-0.005975481270332968,1.296875
0.29501815074433074,-1.4296915076465944,-0.2878420069922426,2.641267249943648,0.09279232679367481,0.2750977289409145,-0.12006372911954333,0.01814156833922072,-1.7661601820297297,0.2002796997188343,0.5289175369321076,-0.17914849130723054,-0.23564605444504036,-0.03404541507489926,1.3046875
0.23848852440943336,-1.153108272322386,-0.23212270642214194,2.133643364567053,0.07494521623644401,0.22209413388430702,-0.0971087609689853,0.014807117895003259,-1.4264856133254125,0.16171624063101037,0.42706493032829773,-0.1447475273959926,-0.19032076787952934,-0.02771514350790317,1.3125
0.04415284281228897,-0.2058055553264069,-0.041613077096565816,0.3881418397843444,0.013750781167092517,0.041101055905927567,-0.018310806389087452,0.0033514852463437956,-0.26001735551795996,0.029318450165222432,0.07678907719232572,-0.026679794384289367,-0.03457357066921545,-0.005954801063891133,1.3203125
-0.04288877148981775,0.21727105285086848,0.04337342454250024,-0.3934554645432008,-0.013585879525381405,-0.03971480646333769,0.017017014076757254,-0.0017764735741201006,0.26229866094353016,-0.029953360045702218,-0.07988939908761801,0.026235413319067463,0.03515446921659427,0.003795748059386498,1.328125
-0.16412871474192986,0.8060530805709207,0.16212647492122634,-1.4856744844979528,-0.05170746659398292,-0.15264563664299954,0.06630644978261807,-0.00892692626710708,0.9910799459201228,-0.11256423517729901,-0.29871715541817223,0.1000936438114382,0.13245419432470387,0.017376538049144206,1.3359375
-0.3703349090468273,1.8092047964923859,0.36442517238418,-3.3424334946747236,-0.1165945043019885,-0.34492747655384337,0.15004522707668366,-0.0210851755572841,2.23043355674236,-0.2530712511969248,-0.6711746795793607,0.22556920169651865,0.29788985602034745,0.04046006581304624,1.34375
-0.344517376454621,1.683294342481034,0.33903635840054835,-3.110235919469945,-0.10838763321803296,-0.32091884456467856,0.13957516599101732,-0.019555720713751116,2.0757129536579715,-0.23542631734508573,-0.6249093520826727,0.2098349402090066,0.277105087095604,0.037558064329576576,1.3515625
0.006230706279555896,-0.025039109037097763,-0.005080326708070805,0.04543305313049969,0.0021220282265409017,0.00592227317346243,-0.0027420709334679606,0.001132773155982099,-0.030867023482269912,0.003689275590166551,0.007770135640963648,-0.003486432450679683,-0.004294452883506422,-0.001720999608388585,1.359375
0.3186135377924889,-1.5476468137406172,-0.31139407712734596,2.856152847459856,0.10051630518337346,0.2969898835598471,-0.1294941938907924,0.01956385516245889,-1.9071365363395638,0.2167017324282557,0.5713597198175913,-0.19346439579008018,-0.2548422876051956,-0.03671215066109081,1.3671875
0.35465781965750953,-1.7249135151961772,-0.34663464290149304,3.182007048780382,0.11188380644092483,0.33062942958434355,-0.1441742673736569,0.021708237509819282,-2.123993901732972,0.24136258022906001,0.6366126490593962,-0.21545208238325286,-0.28373883640941533,-0.040775376748436655,1.375
0.22472011145297607,-1.0918183437393179,-0.2191668799637416,2.014242280225495,0.07089203382889564,0.2096999370397363,-0.0915505139347106,0.014044381757814379,-1.3441398901610817,0.15277369199552923,0.4024317508685079,-0.136492224259249,-0.17949934935980522,-0.02623314203655677,1.3828125
0.03335143967853484,-0.1570999311950243,-0.03141506046073336,0.29177784498738774,0.010409302198562155,0.03151284814420113,-0.013994894687725565,0.0027206490476259933,-0.1953048927245528,0.02224651112567925,0.05707242150156554,-0.020112947288688874,-0.025934767073702628,-0.00477737686561643,1.390625
-0.13805575453473448,0.6797568648810492,0.13679398991454408,-1.2512923389954314,-0.04373694942510181,-0.12815979993292326,0.0554823542216031,-0.00742066385310614,0.833633472609722,-0.09459957235822783,-0.25238532473136316,0.08409057799869034,0.11158531905128861,0.014433391928258016,1.3984375
-0.11613086138582966,0.5727055948465064,0.1152892280561668,-1.0536028363113974,-0.036775290546526146,-0.10780286858220606,0.04655665450949769,-0.006117545191192621,0.7016996928357981,-0.07965616879869844,-0.21263601542534816,0.07068880075812427,0.09393811318158363,0.011965630159678315,1.40625
0.024389188837399805,-0.11166447054181732,-0.02254041977508889,0.21050328853505976,0.007592623531717298,0.02293465811309104,-0.010396506236334627,0.0021892556879338906,-0.14168089857645666,0.01598754353065595,0.04125388331907988,-0.014704264643501606,-0.018796243036066987,-0.003761049823565663,1.4140625
-0.05422940196823979,0.2731725642523621,0.054686309538941255,-0.49876917931047837,-0.01718095234776409,-0.050521564568963326,0.021646065768698028,-0.0024559030284441153,0.3317080130549359,-0.03777507775250156,-0.10064338135738485,0.03328342330075072,0.044377312396581284,0.005091160380309001,1.421875
-0.28309534356575655,1.3886937341980659,0.27925894794896067,-2.5595336678978327,-0.08926022617882051,-0.26385810392843734,0.11463252098659273,-0.015960172264325848,1.7072479284356734,-0.1937942458415773,-0.5139090976744556,0.17253900365332456,0.22807514009241545,0.03074257666037426,1.4296875
-0.18442695739518403,0.9056287436315656,0.1824324196302578,-1.6719297351559559,-0.058040505319995064,-0.1719730345624745,0.07463451993501927,-0.010113236318260397,1.1150160197089871,-0.12645794339940564,-0.3360474072830443,0.11247045524625321,0.14893001894637253,0.019657059078543582,1.4375
0.19581129644559084,-0.9491402625140363,-0.1905924575694495,1.74933828147299,0.06181133559796153,0.18225627203639033,-0.07968051599688465,0.012338093223070862,-1.1688784862417383,0.13275135770364407,0.3499187730918078,-0.1188140771757952,-0.15616253263041877,-0.022957661902189272,1.4453125
0.23526942753342028,-1.1410539906435355,-0.22933560716714785,2.1046601627995125,0.07413578775972689,0.2191419208358861,-0.09575189129569543,0.014649656505200509,-1.40666751597552,0.15966736429084744,0.4208809878828048,-0.14283181540806023,-0.18792066782716088,-0.02736517647457872,1.453125
-0.14398948687986116,0.70782890433099,0.1425681128215597,-1.3066440021745591,-0.04542395657675606,-0.13390348336630234,0.058084469539540086,-0.007746136488017801,0.8702473806536752,-0.09874849478545034,-0.26350219383029305,0.08773339023993379,0.11625128250983817,0.01512095004633626,1.4609375
-0.2954740498720174,1.4454152472418702,0.2910639809610038,-2.669137247302082,-0.09308059707678437,-0.2748680776323055,0.11955389510698604,-0.01667990267170077,1.7801032502248941,-0.2019197358904968,-0.5365607847663151,0.17982847416913222,0.23783833380103953,0.0320680819536238,1.46875
-0.01021410608137475,0.05441571469105546,0.011230086547693646,-0.1031215345955354,-0.003156554295926144,-0.009188847442223258,0.003844130637074059,0.00015584181874199853,0.06757572389509406,-0.007489880144230845,-0.021538639670304137,0.006469379084673239,0.009104165556235416,0.00010315452669489078,1.4765625
0.17447052620613976,-0.8453922762594955,-0.1700769858572175,1.5596642802300498,0.05497176080239991,0.16286894657745424,-0.07110853922890213,0.011040770919574975,-1.0419274603819728,0.1183777834510062,0.31192493284929723,-0.1057582091480621,-0.139149791603747,-0.020579102344920264,1.484375
0.06946172948810261,-0.33284401556864696,-0.06734478920544948,0.6187623549613391,0.021852429098061347,0.06526287609397642,-0.028573442395504443,0.004839678627902892,-0.4129399583892741,0.04683401226466861,0.12278494445970424,-0.04200595018354453,-0.055158161927306465,-0.008822959115020013,1.4921875
0.18308979860818567,-0.88611038598988,-0.17875863507134404,1.643835057240242,0.05770914329702588,0.17117188374044756,-0.0746988229764797,0.01156311609537374,-1.096533002032486,0.12426391780436502,0.32806669742681327,-0.11122276212270166,-0.1463691671559977,-0.021565033169371344,1.5
0.6313768094659976,-3.070672397046908,-0.6179985926060944,5.675615583244126,0.19898332198126203,0.5884562545345194,-0.2565237907858189,0.038035333333500475,-3.788259778261426,0.42969987556489503,1.136716345948441,-0.38376249111959293,-0.5057838456428518,-0.07177128992334224,1.5078125
0.6984900240788486,-3.397662385906429,-0.683443183536031,6.276244857585159,0.2200768599779081,0.6506521887273365,-0.2837193725266137,0.04199602987141444,-4.190042694488987,0.47536246640952845,1.2573371635665798,-0.4244674499710109,-0.5594555895236674,-0.07926380167418379,1.515625
-0.00010195704854949205,0.007000836850823207,0.0017448694060642719,-0.010500720235740231,-8.634233526353603e-05,-0.0001200166126308591,-0.00034189815234585667,0.0007632036420942949,0.006298562743024094,-0.000727906901350801,-0.0034002093318082223,0.0002815473122026342,0.0009370545195972845,-0.0010011941858899113,1.5234375
-0.7543061420431568,3.6826193033566894,0.7413872816639494,-6.797014312689539,-0.23772691628969692,-0.7026197643933766,0.305598009104958,-0.04374925051154925,4.536502697661351,-0.5146633612938528,-1.364378429249251,0.45878853955003934,0.6059343753142681,0.08347522121932173,1.53125
-0.7926863951090948,3.869536545371356,0.7790854818670278,-7.14489278833651,-0.24982325401142225,-0.7384909864807357,0.32120980274524685,-0.04602357131153995,4.768085166596434,-0.540782211289395,-1.4340239459700816,0.48217100906094146,0.6368120005784954,0.08777763668307922,1.5390625
-0.39637778671093854,1.9378666680487582,0.3903516048306697,-3.581853255751883,-0.12496190984472903,-0.3694008398136055,0.16049316481697917,-0.022651601277503496,2.388807570224318,-0.2706687388706043,-0.719304644265204,0.24132719961960672,0.318985355332368,0.043397816967593705,1.546875
-0.2431502162604972,1.1907590787796123,0.23981007521609352,-2.202757367967634,-0.0766496475898172,-0.22646550548590408,0.09832884371942074,-0.013616309913286469,1.4683165969739118,-0.16616827321650945,-0.44266277918821745,0.14819267756988216,0.1960519059574891,0.02623245791842185,1.5546875
-0.22763412150998436,1.1147573504620387,0.22435644134143645,-2.059884155939881,-0.07169247147772967,-0.2117058593389343,0.09200434598416465,-0.012690998356523027,1.3738631169916269,-0.15554865189183786,-0.4141160485674001,0.13868594113589564,0.18349718360898565,0.024472146099082805,1.5625
0.1527922769125255,-0.7393244438373883,-0.14881538333307925,1.3659664146731454,0.04820283222937167,0.14282705078332594,-0.06231439855058006,0.00977472809953936,-0.9125563662301385,0.10355999179824628,0.2728256822279441,-0.09268906320629611,-0.12182959436381034,-0.018159724769506193,1.5703125
0.6552572162224525,-3.1873246810819196,-0.6415704501471038,5.887508800409608,0.20646923580391197,0.6108669959077891,-0.2661288168475245,0.039432117159469995,-3.931493127107672,0.44569449712024645,1.179751709570161,-0.39821638099349044,-0.5250016054507431,-0.07443196333911119,1.578125
0.5629354055942265,-2.7360788769404327,-0.5508677712866287,5.055297271032309,0.1773051511698302,0.524679876233303,-0.22869237738213022,0.03397706997815141,-3.3768341349855047,0.3826584033529574,1.0130972419199606,-0.3420646181006014,-0.45086611550200184,-0.06405713106513918,1.5859375
-0.06499276275755836,0.32460793006543526,0.0652230145714713,-0.596240578899378,-0.020545089190905485,-0.060569891915626395,0.0260326030179667,-0.0030841614882087913,0.3960483588576661,-0.04506921362960151,-0.12032269336397249,0.039784969325865865,0.05304880774886793,0.006297537289342701,1.59375
-0.3721403750127006,1.8204559309693256,0.36654901339845053,-3.3591759839016073,-0.11724641771803766,-0.3468456030923424,0.15067760861665608,-0.02120160662916297,2.2419672283199223,-0.2541385848252668,-0.6746884080027523,0.2265834253564114,0.299514293849395,0.04068126975305771,1.6015625
0.033358068043922114,-0.15689576514542414,-0.031301509042922074,0.29237865444768607,0.010556470691389163,0.031111215596398834,-0.013803242197924212,0.002742011479180764,-0.1943244376591318,0.02220830090785886,0.05738896243166094,-0.020029102298925797,-0.025924642428432808,-0.0047764037952764335,1.609375
0.5616114405815733,-2.731200545839755,-0.5495024590748948,5.04722072316099,0.17694020995859489,0.5235118526354913,-0.22816663935894063,0.033917375792129806,-3.3688162528175565,0.38207109273230344,1.0107805016212794,-0.34135462180736703,-0.4498645626574933,-0.06396025461800159,1.6171875
0.5233239122603632,-2.5442262874857624,-0.5118873837548683,4.700934064730929,0.16482841757889002,0.48786939028399007,-0.2126852423280205,0.031647324709666705,-3.1389595035111446,0.35598527599843155,0.9411293369651038,-0.3181085818228169,-0.41915226703687064,-0.05965730412084504,1.625
-0.019444451752960723,0.09993392575239413,0.02040226457255975,-0.18523643585492117,-0.006126836337651825,-0.017870026344089893,0.007543855631351573,-0.0003883938912756548,0.12254365089944122,-0.013741477217280551,-0.03879802496709914,0.012028624729498496,0.016366635296856478,0.001151340407024662,1.6328125
-0.4796669217429309,2.34154460687668,0.47153074446894244,-4.325836700528717,-0.15106285196202193,-0.4465570801684927,0.19426342258418433,-0.02754552673667172,2.887390864445052,-0.32727723126831515,-0.8688935383547538,0.29195125307378034,0.3856058942323776,0.05269519034242897,1.640625
-0.5155803930340767,2.5173504278755217,0.5066508622083113,-4.6474529908231315,-0.16242747469516128,-0.4799321457598897,0.20872992040939894,-0.02967106165318949,3.1020842308012773,-0.35181829278414917,-0.9331192819733568,0.3137238616810637,0.4143814397036213,0.05670624159789268,1.6484375
-0.31926527676628674,1.5626890159205038,0.3143242450280127,-2.882134338917392,-0.10066242192277998,-0.2971530647563886,0.12900100022352542,-0.018098430447545024,1.9224163218604013,-0.21815183951180633,-0.5791052671608811,0.19424835192365295,0.25688091415718095,0.03471839507018022,1.65625
-0.1775534209045318,0.8725339444474084,0.1755548728405014,-1.6097984996643684,-0.05598747433949207,-0.1652873510075189,0.07157794016486875,-0.009734423014170044,1.0723103471933255,-0.12160680117627327,-0.324045755738158,0.10808491566649803,0.14323438623619889,0.018859735996562696,1.6640625
-0.03308480449631364,0.16722628360635622,0.033835993179088156,-0.3102212133477956,-0.010376995787089413,-0.030714581577067527,0.013076236765264176,-0.001194837528174321,0.20550398242580228,-0.023088583662320902,-0.06336859829479737,0.020332243596146774,0.02737297063756626,0.0026892357375901442,1.671875
0.24525929916898856,-1.1895111887215473,-0.23924637775541538,2.1967218255842758,0.07731320380702636,0.2286081869985872,-0.09984696119705333,0.01523477057915661,-1.466895979180385,0.16662513631505127,0.4395330464671066,-0.14884436042758034,-0.19590525303991282,-0.028486193746411568,1.6796875
0.39572249383169344,-1.9213090532128934,-0.3867378784033079,3.55175481975626,0.12460551606607251,0.3687357191152976,-0.160910061631683,0.02410278056530533,-2.3713833495291494,0.2690464781607864,0.7114207385660509,-0.24030540200727576,-0.3165696380505397,-0.04533082655980436,1.6875
0.11752378198550519,-0.5646723682745528,-0.11372272797605816,1.0465296047721175,0.03688702219421844,0.10955741637777797,-0.04795772547157832,0.007679710750151855,-0.6999622695573069,0.07929022352496877,0.20912780457077101,-0.07113188594854307,-0.09332431532478003,-0.01414625644443144,1.6953125
-0.26385461385419734,1.2928897963818538,0.260349316265682,-2.387010373565343,-0.08321228489084306,-0.24568886054188402,0.10686783685114068,-0.014816582355297217,1.591460085265068,-0.18063508613421467,-0.4795059479548582,0.16074751063346493,0.2126348690723194,0.02857913894309163,1.703125
-0.1892837960396777,0.9279709706117213,0.1870271044221956,-1.7143136768793013,-0.05960003260098036,-0.17619312010014868,0.07658879954948883,-0.010402000068260253,1.1431322940492663,-0.12966725961538328,-0.3449153550338175,0.11533385363003407,0.1527004770555601,0.020188439684071427,1.7109375
0.17658966626019135,-0.8556011754027678,-0.17202954979973914,1.581195218341099,0.0557375967465314,0.16469141595024667,-0.07192828260065773,0.011194381808607776,-1.0553991182642268,0.11980316008758235,0.3156886198750315,-0.10720115107320574,-0.14094353945245808,-0.02084371676115919,1.71875
0.1937652857948562,-0.9391522780233846,-0.18884119915184802,1.7358145864533165,0.06111076625686638,0.1807330902623541,-0.07890492829926099,0.012202438556141565,-1.1585015279905944,0.13149762767120865,0.3467444210818057,-0.11762832168613722,-0.15470265451465057,-0.02277365725647879,1.7265625
-0.12640735006206738,0.6213550945667621,0.12546718509351895,-1.1487001494389524,-0.03985130695016568,-0.11762544551337123,0.05101523130879245,-0.006701775130745518,0.7655999489858294,-0.08677126488958326,-0.23147437206535093,0.07713449911601078,0.10229984479757302,0.013124403623204155,1.734375
-0.177646746071071,0.8713147255240441,0.175856807697931,-1.6117164868386453,-0.056030218385270336,-0.16548779933819582,0.07176179179808946,-0.009731401709285565,1.0738091674558317,-0.12170208986480274,-0.32421669995261787,0.10834507977340614,0.14346373758884415,0.018889427558482726,1.7421875
0.09409593880349579,-0.4525348391115186,-0.090955010806604,0.836142969994956,0.029614872055407877,0.08778117342564624,-0.0385736792648413,0.006303830316686838,-0.5592822141481739,0.06355342078859208,0.1665853359963287,-0.056916501669888216,-0.07468189370027398,-0.01155095128054233,1.75
0.1347295767989086,-0.6500247336945589,-0.13115619265808173,1.2054032730332276,0.042417061796978,0.1259225810601268,-0.055122546566389985,0.008699186366478965,-0.8046523923046542,0.09130168973502507,0.24047115369632344,-0.08171338120350159,-0.10745674634470925,-0.01610933156353569,1.7578125
-0.09524535636653626,0.47116087931333567,0.09446068331142718,-0.8638396690295749,-0.030087021461311005,-0.0882544060716361,0.03814845133979939,-0.004873457278997925,0.5761925878415739,-0.06545803809972014,-0.17462618127412471,0.058019961532546134,0.07701662779325061,0.009648166267186994,1.765625
-0.023729776115871803,0.12276313083556809,0.0245728967520782,-0.2226380115995241,-0.007540541356577003,-0.021824544522363876,0.009121213474568568,-0.0006443197909680731,0.14702179695839976,-0.016816559431859356,-0.046040658174084134,0.014463046513278783,0.019729457869819195,0.001629304017476575,1.7734375
0.39115839480533404,-1.899497414223137,-0.38237783597418995,3.509671966998557,0.12327670341360217,0.36457861682626874,-0.15918632137598088,0.02385070674652406,-2.3446149810039656,0.26589892458002845,0.7025909516338622,-0.23781176421745906,-0.3130661786456737,-0.04485466535529947,1.78125
0.4675077925408502,-2.272322954015158,-0.45743926339262136,4.197532501693922,0.14738380322933745,0.43578373662585734,-0.19011499114706296,0.0283560849612933,-2.803186774392017,0.31801707183932093,0.8406804588536702,-0.2841675407093064,-0.3743148715014874,-0.05340852500319505,1.7890625
-0.043076298225506016,0.2151602503202739,0.043464315312594634,-0.3968226568936868,-0.013534765547002135,-0.039854911686872045,0.01711157904756916,-0.0017796207777241219,0.26403142770653215,-0.029871634527561884,-0.08065815030944185,0.026389949754458023,0.03536024801185883,0.0037937023965860144,1.796875
-0.5243440782766818,2.560193362505209,0.5157941465133037,-4.7292069554095395,-0.16519845526384844,-0.48831926042361407,0.21248427629920694,-0.03017654099878953,3.1560889554599485,-0.35789070160434167,-0.9494450562975896,0.319124733050623,0.4215974546811975,0.057718995163248216,1.8046875
-0.4648047609329334,2.2703870905719516,0.4574290467528128,-4.1948517547110775,-0.14639961419631312,-0.4329449934104098,0.18844289139228287,-0.026660079668240126,2.799753923878587,-0.31736908942110986,-0.8421279065465614,0.2830234416457972,0.37395577753021125,0.05106360640906847,1.8125
-0.10594731305614133,0.5222985697011602,0.10527783302966402,-0.9647093331560739,-0.03333759857640614,-0.09862776758939065,0.0428700527064424,-0.0054937687201692224,0.6440435695389756,-0.07280601361212614,-0.19429025589175947,0.06487969608360868,0.08606004939568515,0.01086334515141592,1.8203125
0.09588487964800681,-0.46092668238432644,-0.09271234522624762,0.8534497054284529,0.030164860797697382,0.08943729961861988,-0.03910617065921774,0.006405013223475748,-0.5697828993735925,0.06472634160134777,0.17011180832067466,-0.05788868917816558,-0.07599669386473536,-0.011762043967398899,1.828125
0.06841740401888396,-0.32729285624203086,-0.06569182015701092,0.6062970046083821,0.021456069735575282,0.06384831702265566,-0.02807472134220348,0.0047842872365224005,-0.40573867371327577,0.045966133281895326,0.12026681061155324,-0.04130900901723715,-0.054124734753367584,-0.00869332192269801,1.8359375
-0.015546422806691369,0.08178562442997506,0.016621418859043186,-0.15088778631120212,-0.004970735232343655,-0.014438786007757849,0.005916416773507217,-0.00016875556120488623,0.09900138272272235,-0.011205291175278255,-0.031669447591949805,0.009640565299240931,0.013158343878759299,0.0007181109200007467,1.84375
-0.0533447865249688,0.2665191920104697,0.053651462216397064,-0.4910131752971208,-0.01687726645926202,-0.04970665987541984,0.021202190245527247,-0.002403524771234146,0.3263763553112728,-0.036874837688713184,-0.09981045091825415,0.0325792163060557,0.04349744035999291,0.0049509148946675855,1.8515625
-0.023362476005534392,0.12110132882350352,0.024367738021436918,-0.2192908382112769,-0.007485432693176703,-0.021686418980499063,0.009023026953279795,-0.0006340414209153826,0.14556253721191467,-0.016505944059279087,-0.045206678786905284,0.01434684203291052,0.01949130829119913,0.001582499325517126,1.859375
0.06955122626706324,-0.3314776866249775,-0.06667119301200476,0.6167761181053986,0.021801316927210754,0.0650334250080446,-0.028612988191718744,0.004855867345921231,-0.412988438953838,0.04665695315521704,0.12260514132965632,-0.04211633988599837,-0.05498628301739924,-0.008818773880012044,1.8671875
0.16952439463447108,-0.8190175588063081,-0.1648653518476395,1.5133393119697387,0.053429183552249175,0.15818351504271091,-0.06908075581137554,0.010758558475298463,-1.0125195307114139,0.11479568742375196,0.30253759437370026,-0.10286070113233121,-0.13511960481884666,-0.019997338343029122,1.875
0.21590795251247402,-1.0458243781812835,-0.21057476865026115,1.9292237654570743,0.06815382938250909,0.20132180301871366,-0.08788634488875961,0.013496843817872483,-1.2902508046424044,0.14655377821391483,0.385993361966971,-0.13106310238703103,-0.17232945742067643,-0.025192452274985674,1.8828125
0.20884389415339,-1.0123374874821423,-0.20374364264241274,1.8685858246625766,0.06590184609025232,0.1948425352569334,-0.08510067485136133,0.013087401586200467,-1.248729712773335,0.14177263260175907,0.3738234347451785,-0.1267991647763882,-0.1667644460007948,-0.02441921725749531,1.890625
0.149042902926817,-0.7213650909358071,-0.14506467198661493,1.333952600388239,0.04695883303450255,0.13931523265256668,-0.060890248579123604,0.009564908009158548,-0.8908144869059531,0.10094298048346798,0.26650443928516004,-0.09042156843638163,-0.1188645690571347,-0.017721287343181156,1.8984375
0.0019560018097672313,-0.004293845966204429,-0.0006848805852666838,0.01032101947667909,0.0005753130387446039,0.002231903628946823,-0.0011681871474762745,0.0008845763900383681,-0.006806485058493356,0.0007340756693041742,0.0007811942064062145,-0.0009379368935402776,-0.0007988969707528945,-0.0012291895240779738,1.90625
-0.17233187657811846,0.8450760468630393,0.1703400207010711,-1.5592753852286425,-0.05427429759771359,-0.16031192280980597,0.06958983056467583,-0.00939505327297829,1.04124526179619,-0.11792838305672053,-0.31429430554210713,0.10499466301187496,0.13909263427975566,0.018282656670949284,1.9140625
-0.20245644204360352,0.9909340776927372,0.1997129343719656,-1.8288883253517259,-0.06367390062252237,-0.18830059026237256,0.08175461377050615,-0.011158889640573289,1.2215173037476075,-0.1384432232404499,-0.3683944253848183,0.12317541018517629,0.16314456000903138,0.02161195390677868,1.921875
-0.06900930064262116,0.34010961862337463,0.06855999922115052,-0.6260719179275032,-0.02162378916415199,-0.06381241827878868,0.02753368639086908,-0.0032854493659851486,0.4183413091812326,-0.04758016946109232,-0.12692446867498944,0.04198634852580993,0.055925269104734235,0.006642614121978771,1.9296875
0.00774410381588192,-0.03226307171611178,-0.006539742119313497,0.062150358950254316,0.002434411681641951,0.007496831828234189,-0.0035552235363451347,0.0012166977609409655,-0.0422290252153427,0.004635447399902202,0.011420763819754457,-0.004530219055721804,-0.00554204886376748,-0.001910343264023172,1.9375
-0.0819185649778345,0.40738430305613643,0.08201432859415644,-0.7504182221516514,-0.025970211704419648,-0.07645771972768393,0.032970061467164136,-0.004102025309394099,0.49872127790508775,-0.05658625182605485,-0.15122172881107046,0.05020592661089524,0.06672920777496005,0.008202502489072129,1.9453125
-0.15227527734084634,0.7511832563475728,0.15130501068295865,-1.3863145285386071,-0.048168919369922236,-0.14214325155786578,0.06158261272738328,-0.00826041832074268,0.9226644889282458,-0.10459335729521081,-0.2785695220582588,0.09307313061320868,0.12335455891037095,0.016102972421093882,1.953125
-0.0757831905767101,0.3771995287921351,0.07594846655198298,-0.6959189564665179,-0.02395966575579951,-0.0707443526656217,0.03050382815186794,-0.0037413212167300225,0.46269664294106094,-0.052300406725491,-0.14033546790604629,0.04650718792674101,0.061860988034967465,0.007493891420351287,1.9609375
0.011572643951655833,-0.049731341776231536,-0.010028289545454027,0.09265162029717926,0.0036622930015871007,0.010685912191908979,-0.004964418982285595,0.0014177536601212804,-0.06255882901540623,0.0074783704282634705,0.01730250550790973,-0.006693676846261025,-0.008398124141417686,-0.0023319801766203017,1.96875
0.036774326571657384,-0.17272694115376758,-0.03460822655027704,0.3195216705884379,0.011574206433566239,0.0341701078116427,-0.015180309693779833,0.0029108574593618318,-0.2141242239712077,0.024644657221562512,0.06255781711642049,-0.022093610360942095,-0.028670704988376518,-0.0051545832121507795,1.9765625
0.10802543716077782,-0.5200232184668443,-0.10437791643713354,0.9608291367434717,0.033938159642145325,0.10077779535814267,-0.044163046641201485,0.00712445119978241,-0.6431985851263032,0.07299168170089786,0.1913357085587951,-0.06552576279788516,-0.08589429459971883,-0.013122407439607688,1.984375
0.18419347324474447,-0.8917099607766387,-0.17931621235350292,1.648226110447903,0.05794358717196844,0.17201719070144064,-0.07519048796913479,0.011625803623888209,-1.1021063283645085,0.12486124723771513,0.329327166189087,-0.11194042096796368,-0.14711943084084747,-0.021664192507568625,1.9921875
0.09729627882320871,-0.4687641673330846,-0.09431175934227583,0.8678440822452547,0.030683333386997438,0.09108401164262975,-0.0399200827808872,0.006505061849741074,-0.57986436343051,0.06580618242245888,0.17277813556086144,-0.05908466960263557,-0.07741417614702283,-0.011946407044245934,2.0
-0.06439682893200183,0.31876105459622395,0.06430290210512782,-0.5875871504246712,-0.020169633989266172,-0.059633688628358134,0.0258266606899705,-0.003024996462104101,0.39276371644911773,-0.04435215883706854,-0.11902128812932976,0.03936156621604524,0.05242450783982818,0.006176301063408128,2.0078125
-0.090160905062417,0.4441214597330578,0.08962997781622158,-0.8201413270839071,-0.02833099593814096,-0.0835579906955317,0.036319125726940994,-0.00453971436250275,0.547543011269308,-0.06210252942007533,-0.1654452631350058,0.05510910486567167,0.07314888095393404,0.009089284685091412,2.015625
-0.044552289565309475,0.22251318764666825,0.04487482516787937,-0.4096688490957806,-0.014060954320897755,-0.04099437174199197,0.01768832466643755,-0.0018551569719139108,0.2722086747437734,-0.03119144474222229,-0.08311343606172834,0.027324609946399923,0.03651684767099641,0.0039897642051054255,2.0234375
-0.043476412567495536,0.21820168260625483,0.043797813651296244,-0.4001797911269473,-0.013712063381828543,-0.040127334749671485,0.017167379530932118,-0.001796492848981172,0.26528801128444657,-0.030446790770196155,-0.08136054158341412,0.026581222232448416,0.03565715257431978,0.003852893428420031,2.03125
0.043830407424995076,-0.20758999316545082,-0.041920461911036065,0.38505323196737934,0.013909150264355807,0.04105875763223697,-0.01820126165771378,0.003361023569836653,-0.2582258978069826,0.029180208472203414,0.07608552513210398,-0.02652095926174934,-0.03434855312897154,-0.005950104519842569,2.0390625
0.22267674650562916,-1.0802954334492543,-0.2174423196949224,1.9947682307467332,0.07028386738431482,0.20767247825430993,-0.09071613886729958,0.013912849585562704,-1.331970747511422,0.15120544945235037,0.39890511751781155,-0.1352252914616014,-0.17787299037116566,-0.02599499698537536,2.046875
0.2111119473040302,-1.023746209470538,-0.2059171298981842,1.890809113766613,0.06651025279722697,0.19682409142697113,-0.08604683020962095,0.0132113541689328,-1.2626721441914834,0.14340764832584793,0.37788805454198254,-0.1281447565404791,-0.16864395472285795,-0.024691543383803322,2.0546875
-0.001026871707900382,0.011610502353524945,0.0025747092187885416,-0.019566533726043417,-0.00043250309391337235,-0.0010695925139754601,5.415751262095705e-05,0.000678536486357262,0.012088937357801565,-0.0011803788565039278,-0.005321766945286803,0.0009014254906835993,0.0016263983688231702,-0.0009080557817953438,2.0625
-0.08336493593471006,0.4136455211542869,0.08349492133666389,-0.7618593478673222,-0.026336307130088388,-0.07793114257433091,0.03356728366680195,-0.004175226427691287,0.5077512827581693,-0.05735079874741205,-0.15397381552149295,0.05102311649540028,0.06780981152438262,0.008331837756800286,2.0703125
-0.039084429106469434,0.19751866211501376,0.039892624767566914,-0.362818372303585,-0.012349649621486986,-0.03653672096490602,0.015629361191888236,-0.0015556135253833106,0.24189226289059884,-0.02719087177861485,-0.07374262740139527,0.02410173609812144,0.03231149506536771,0.003375117391494007,2.078125
-0.1735487334806872,0.8527988874597259,0.17172666542989237,-1.5716945307259518,-0.05479240758357821,-0.16159080854287727,0.0700945632055617,-0.009495768026090793,1.0487274260656148,-0.1188382227692779,-0.316271102332618,0.10579405472663993,0.14013850350356172,0.01843056127891189,2.0859375
-0.3786373925005099,1.8524137191985726,0.3729901888636065,-3.4176704229592207,-0.11944934981553537,-0.35256011548341365,0.1532491354041983,-0.021600968794012153,2.2802272584415064,-0.2586603873573659,-0.6865833842940061,0.23042535695169372,0.30463576601547027,0.04139261662673446,2.09375
-0.28641555743553726,1.4022287477765079,0.28243436122254134,-2.5890661931984513,-0.09029208950540905,-0.266592494757034,0.11588581457473159,-0.016151602657412018,1.7265301887496454,-0.195849597756708,-0.5202316828405262,0.17435263470722867,0.2306361893093884,0.031055376699697188,2.1015625
0.005415034332176615,-0.02055509615583275,-0.004008799105938795,0.03675023793655674,0.001728008711114354,0.005325829528957459,-0.002468153087385417,0.0010709469252724315,-0.026464148191673007,0.0030558692770846223,0.006568352257002479,-0.0030314680454568105,-0.003464301386776422,-0.0016260315231905122,2.109375
0.1426822128037749,-0.6885556844466141,-0.1386089930803276,1.2726413444583913,0.04491106614713999,0.133170079217985,-0.05820008211075974,0.009163401346977287,-0.8514573647338896,0.09660642985116016,0.25431089188027256,-0.08647372614773376,-0.11354307055040205,-0.01698684735587235,2.1171875
0.14688400007909633,-0.7082730466791454,-0.14271056937728394,1.3111801887024763,0.046211170832782096,0.13706677259180194,-0.05997230382709023,0.009415244504726826,-0.8769567506121502,0.09940608127892595,0.2618098862870753,-0.08909880003245296,-0.11697996243830075,-0.017460707457739612,2.125
0.19717276148237256,-0.9551318222658999,-0.1923930391333891,1.7645912038280822,0.062196781888394205,0.18405310251236504,-0.08040486711258943,0.012404922465285627,-1.1791201804223672,0.13365074014490097,0.3527065157061416,-0.11976048883182552,-0.15755632799775202,-0.023116919485190426,2.1328125
0.22719953280699146,-1.1043290449475398,-0.22213894555022912,2.035991711763727,0.07177704965961525,0.21214065621239833,-0.09258651615237044,0.014195703185229377,-1.3596808387620332,0.15420916679611074,0.407131086380743,-0.13801154485765868,-0.18183049822767766,-0.026494969189044294,2.140625
0.18800962621575598,-0.9138921813108927,-0.1834104464310975,1.683998448757094,0.05937436151188871,0.1754796953989436,-0.07665620247916793,0.011882606915581741,-1.1241341039468926,0.12763724773069005,0.3362905246435296,-0.11410143143630747,-0.15030621372410277,-0.022101268112997452,2.1484375
0.17947168633043908,-0.8701349544721616,-0.17459232957697612,1.6065319702919019,0.056590642602768595,0.1672700822507694,-0.0731152590861565,0.011364653412758502,-1.0721137145613153,0.12186218127149663,0.32051545639160106,-0.10884356290723712,-0.1431919228682141,-0.02114101684460544,2.15625
0.12307984539895357,-0.5929232495055577,-0.11930676544368791,1.0980535761573302,0.03880993236185249,0.11470492804743362,-0.050173931708706335,0.008019261231509305,-0.7330031623844137,0.08336590225255545,0.2187219712707808,-0.07453892382818854,-0.09775845672947267,-0.014824318306497029,2.1640625
-0.10135829033390942,0.5020236503968619,0.10063023365035566,-0.9212118078121946,-0.03195470845129207,-0.09423304492041082,0.04082662490170215,-0.005239487984473804,0.6142539279356438,-0.06967596870681246,-0.18585389082649878,0.06189351125549291,0.08231782434150853,0.010323894894555633,2.171875
-0.26414498123084684,1.2956423378394268,0.2604826854635643,-2.384450971276843,-0.08339053378017519,-0.24584181531212046,0.10672609955105897,-0.014848647550996753,1.590707367588013,-0.18066124735795433,-0.479261586473828,0.160781629789097,0.21283361821471866,0.028565889192555538,2.1796875
-0.1620478637439573,0.797712931492176,0.160665353419351,-1.4655834501448126,-0.05128605085319021,-0.15081410891245364,0.06524443546228872,-0.008814366710938635,0.9772940887588459,-0.11109694012021486,-0.2952035905224355,0.09861909845665684,0.13085065697959372,0.017125351176405915,2.1875
-0.0819819842944207,0.4063280725115829,0.08205566887429205,-0.7478589995563016,-0.02594063599845976,-0.07626078439381306,0.032853821020576914,-0.004080343407763869,0.4977948608923752,-0.05653103815059909,-0.15116558871353566,0.04997682343809081,0.06660974137650863,0.008159647747136112,2.1953125
-0.26536977731515105,1.2986809785668667,0.2615931264035385,-2.4010334406614864,-0.08358614684187936,-0.24709107245576528,0.10735415817302477,-0.01490139967856337,1.6009218710473154,-0.18147605307920484,-0.48224205291069094,0.1616157001410907,0.21376490248373115,0.028724625903001278,2.203125
-0.36960900992140083,1.8061537316093284,0.3637237042579976,-3.3392150010283643,-0.11641392285897194,-0.3442533297112577,0.14963091300072037,-0.021052300385797765,2.227499078342206,-0.2524726989706264,-0.670142040920774,0.22505060342823524,0.29737302462072607,0.040415266654107856,2.2109375
-0.055710471505580575,0.27672751920252436,0.05595076143039567,-0.5132826453534679,-0.01752520264031341,-0.05188577524132104,0.022249823813944806,-0.0025223532766248022,0.34171187869118036,-0.038577047497843,-0.10359883637685667,0.034132596494566354,0.045473456502709876,0.005237243046629873,2.21875
0.3806717160164078,-1.8495611150728837,-0.37205904975732035,3.4136869827007845,0.12001092274276995,0.35470566856050867,-0.15473458185519862,0.023232667559876744,-2.2796235906787126,0.25873611808782576,0.6836918718479744,-0.23122323730507172,-0.3046418088008413,-0.04366717074169927,2.2265625
0.45538662174232714,-2.2135842859303034,-0.44544670023245864,4.0858803939470185,0.14355893303589,0.4244168626884356,-0.1849897733228483,0.027633475289927833,-2.7285488403248954,0.3096532728409974,0.8183805775698244,-0.27659480258396646,-0.36453051242685597,-0.05204072301051942,2.234375
0.14761263110023345,-0.7135412432903845,-0.14356217355847384,1.3179526540850153,0.04649380380901918,0.13772971355769612,-0.06017627000239548,0.00945865269699104,-0.8806490686306098,0.10002376567194364,0.26305987978123124,-0.08945032354492401,-0.1175892038037267,-0.017565006494729595,2.2421875
-0.17761778557947303,0.8717774263764286,0.17556263313096626,-1.6063607940665636,-0.05606559527682736,-0.1652183988909118,0.07168712062247887,-0.00973772281689831,1.07173660285711,-0.12153168068845496,-0.3237664510271072,0.10821375590955391,0.14327316335916424,0.018856292911454815,2.25
-0.20284613805055599,0.9950438544082169,0.20034634956275207,-1.832489714786163,-0.06399840070194147,-0.18859144542220413,0.08191386881605908,-0.011221242498068629,1.2225702314964846,-0.13876129400259582,-0.3692844142179689,0.12348261481091272,0.16344034303297103,0.0216774617414302,2.2578125
0.035875021827943894,-0.1681464521066717,-0.033886531845259846,0.31522811654676147,0.011279102763960614,0.03387469872057815,-0.014905997548895137,0.002870715181374181,-0.21130967924327065,0.02387315111012123,0.06160263919927775,-0.021653637298242233,-0.02808123113082644,-0.00505099972837992,2.265625
0.17069196957135185,-0.8250042678504202,-0.1661411659734218,1.5273436129957374,0.053778703882396785,0.15930614095315168,-0.069589951033696,0.010825026011453156,-1.0204333138879054,0.11578109356985102,0.30494005874431906,-0.10356374771532248,-0.13615995485209176,-0.02013478535468871,2.2734375
0.02827451801985829,-0.1309323667409121,-0.026334484841159984,0.24408803507880564,0.008902652625501141,0.026360615281729994,-0.011786924163084812,0.0024186714933002547,-0.16392936573375289,0.018756787815867218,0.04773081357352381,-0.016899984615781828,-0.021781662904037425,-0.0041718150362198975,2.28125
-0.015467145825265361,0.08188122125532783,0.0166323868931058,-0.1508645472139359,-0.0048586562496272055,-0.014471825301074798,0.005989963755802737,-0.0001569606716414952,0.0994305636395889,-0.011124194213509018,-0.03133985930852651,0.00972705621390272,0.013384397796101724,0.0007251413915701804,2.2890625
0.28068150550124554,-1.3619867366388352,-0.2739862179751871,2.51451527845438,0.08848815753591688,0.2615631254373761,-0.1141886532524899,0.01733150723295487,-1.6798216604187415,0.190575020500776,0.5034155210268425,-0.17039733430204676,-0.2242440109885775,-0.032463495626974224,2.296875
0.39145937102539075,-1.9023414645417323,-0.3828305237185819,3.512583806584531,0.12340110155133194,0.3649224704612396,-0.15919691729091895,0.02387611710905842,-2.3458141212752897,0.2660143495963436,0.7037499392324528,-0.2378461282034636,-0.31320865103351764,-0.044887604647534135,2.3046875
-0.09590730815679598,0.47266182719762656,0.09521548441979852,-0.872891267479422,-0.030201341054238842,-0.08904534548298586,0.038519380794724944,-0.0048894476319766116,0.5817383044050604,-0.06607634817437598,-0.1758185860501042,0.05847106660162891,0.07774174650200077,0.009707906207688058,2.3125
-0.5659788115119428,2.76373031288551,0.5564469165015841,-5.102851698793914,-0.1783878961042018,-0.5269253756226864,0.22924059023306728,-0.03264025555056456,3.4053068067766654,-0.3863446296446285,-1.0244430455294402,0.344318957284693,0.4548302298931927,0.06237772185531846,2.3203125
-0.387665171267717,1.8951590280498665,0.38158112102387576,-3.4968605361339318,-0.12224722326105963,-0.3607669850118707,0.1568411138761671,-0.022122393541165932,2.333326972582787,-0.2647748746963598,-0.7026321690409929,0.23585410155741032,0.31168879837882346,0.04240348949170856,2.328125
-0.08281515319962683,0.4098280922982226,0.0824317610729474,-0.7527875349471518,-0.026152374874215012,-0.0768229280188663,0.03310872778244495,-0.004130165203677736,0.5017532564561756,-0.05701370938957948,-0.15222935661572212,0.050429326182596206,0.06708116292215592,0.008240109006994597,2.3359375
-0.2802534852967798,1.3720292184062413,0.27609418560023563,-2.531634845791039,-0.08828955508691606,-0.26096648825489854,0.11329521887453771,-0.015780266977430634,1.6892203914930721,-0.19157097288830463,-0.5086534512177804,0.1705675799695603,0.22562632977704167,0.0303574662214841,2.34375
-0.4151881907083211,2.0294175717708436,0.40875148821424645,-3.748905576696545,-0.1308015182568921,-0.38694257047975217,0.16819392158019697,-0.023745290906648512,2.5017612472807906,-0.2835146987779661,-0.7526988414024797,0.2528194481606791,0.33407922530512146,0.04549745743791387,2.3515625
0.17406091813770375,-0.8424765195595411,-0.16896586520196394,1.5537854122407524,0.054818196000326086,0.1618728316889458,-0.07083332570156464,0.011028843969734447,-1.0376626368099342,0.1180995559793297,0.31038544778924787,-0.10539872570939113,-0.1386744445160871,-0.020498229033936128,2.359375
0.8136841074158601,-3.9598562229907412,-0.7965419626987003,7.312774381892621,0.25636550614113723,0.7579104758321474,-0.33043326765807124,0.04878001383041182,-4.881523325258258,0.5540469108080892,1.464969300007074,-0.49447908287942716,-0.6520422188698325,-0.09217671226113938,2.3671875
0.5832550991402126,-2.8367184262404863,-0.5709295637820024,5.240896685216391,0.18380395293181573,0.5435960391055238,-0.23701968871757914,0.03518075774781312,-3.4987330915487074,0.39698119751349026,1.049544345024557,-0.3545426003480854,-0.4672828688109346,-0.06639355481889514,2.375
-0.07231643485082055,0.3590946612007138,0.07203089259511006,-0.6605813233771506,-0.02279673388418958,-0.06692733762881843,0.0289925635932177,-0.0035195110228916074,0.4394546622610492,-0.04992151307746974,-0.13359002025727335,0.0441097820208544,0.0588074434610464,0.0070658117703746364,2.3828125
-0.17313291760239333,0.8513089459635957,0.17117348836361662,-1.570806694808354,-0.05464505097246194,-0.16093017438884882,0.06998139261168851,-0.009481367610146368,1.0460296767778285,-0.1187398522087108,-0.31593665570915086,0.10558540567552838,0.13985573289063094,0.018411685022415795,2.390625
0.17079519920664885,-0.8252569211435644,-0.16612181636985582,1.5243339014730888,0.05374630673749741,0.1593864503516382,-0.06951360876551783,0.010818878915178357,-1.0197265118801968,0.11567648961548672,0.30465174208455503,-0.10345883835831764,-0.1361083361293523,-0.0201045161795213,2.3984375
0.19191551833379497,-0.9294423895712465,-0.1870861618042211,1.7173704837703392,0.060505790617152715,0.17920512192202756,-0.07811001677818039,0.012079734469541687,-1.1475153588747153,0.13015886245929006,0.3432301932773307,-0.11638496362039194,-0.15319298524822442,-0.022512074320737013,2.40625
-0.16125728387395133,0.7914852807397875,0.1592346140409773,-1.4589775780297571,-0.05075073778942408,-0.1497065150951118,0.06511146862958339,-0.008755061769521483,0.9732083328638232,-0.11051409484008567,-0.2937060953708567,0.09825977290179565,0.13013089376828962,0.017020276587640503,2.4140625
-0.34588268654985,1.691993637875492,0.3405442057148889,-3.1214257414683293,-0.10898027257745702,-0.32194283078157515,0.13994854680645363,-0.01965164931968785,2.0827084636784634,-0.23634014089078473,-0.6270304517531594,0.21050519228323042,0.27833614736737533,0.03771419879337982,2.421875
-0.2339807901104685,1.1467989746720573,0.23095738600368554,-2.115751174761489,-0.0737368470706597,-0.2180140971234488,0.09448507714847756,-0.013045922973848953,1.4113053233195192,-0.16001483674139474,-0.425451552288236,0.14245468360621028,0.1885708384997661,0.025191564550650473,2.4296875
-0.15432540019566773,0.7582255956233539,0.15277485460706772,-1.3983014085415224,-0.04863538780060994,-0.14379964992604627,0.062113299222237205,-0.00834280735334136,0.9324780091160029,-0.10569946103213941,-0.28167864896009576,0.09395797048807161,0.12459675353182201,0.016253001942827177,2.4375
-0.1962897083019603,0.962936101383839,0.19385824362673051,-1.7745459708701934,-0.061908636630709474,-0.182712266697978,0.07913774088636528,-0.010824767042580877,1.183745298506967,-0.13437332172511618,-0.35705946810314776,0.11945465618275182,0.15825554131154088,0.020937071602412316,2.4453125
-0.10399101728978201,0.5131179076712551,0.10332579740306526,-0.9439777047523745,-0.03283284537620901,-0.09674826989222948,0.04177438043726747,-0.0053792653661157265,0.6297392998093437,-0.07150721750785786,-0.19042182770980112,0.06340878250500223,0.08425891266630428,0.0105994604544159,2.453125
0.18527291759513567,-0.8978606987769777,-0.18040640512749997,1.6575617212737388,0.058424561693771866,0.17259418769536627,-0.07547838118458654,0.011705156143409664,-1.1064941808350126,0.1257017908051515,0.3311597465143197,-0.11242318706524493,-0.14781794266108367,-0.021798988910253073,2.4609375
0.33212637814469714,-1.6144273207929174,-0.3244310591422218,2.977483737167347,0.10476550908308235,0.30944721896262684,-0.1350116848369004,0.020380698104790537,-1.988020930647548,0.2258067204503049,0.5957248463303463,-0.20173900115164461,-0.26568231347336274,-0.03824290050602629,2.46875
0.10122229970226643,-0.4880686812110292,-0.09785976804326178,0.8991718622561947,0.03190750403590669,0.09447696401020982,-0.04132747610929834,0.0067399366496267024,-0.6013010671752873,0.06836162301155126,0.1791169440441512,-0.061314567395025645,-0.08040112020484289,-0.012352663852515064,2.4765625
-0.17078937697571372,0.838719348194312,0.16896883745975944,-1.5476939869572783,-0.053918266247171234,-0.1589212666427431,0.06902093360057812,-0.00932965092572684,1.0323308516416982,-0.1170331478505297,-0.311263380087618,0.10417130438966686,0.13789417044921934,0.018145045614735216,2.484375
-0.008931076269295004,0.049383339768141576,0.010090829597456703,-0.0899701593100546,-0.0029028348222117175,-0.00816603616874967,0.00328327171857025,0.00022429559930074158,0.059588194490975084,-0.00663863286399199,-0.018909343864413626,0.005738074501307469,0.007986558228194818,1.0658800830729708e-05,2.4921875
0.38072445700777513,-1.8500200366671964,-0.3722264927675028,3.4166702160261933,0.11992718544768462,0.35494206246830484,-0.15491647110127732,0.023224275614696626,-2.2819431203220644,0.25892697778801865,0.6840603501172228,-0.2313341731057242,-0.3047645012475888,-0.04366444445613253,2.5
0.31726045841257644,-1.5395347169981881,-0.3100061848462885,2.8450051893288952,0.09993724049928576,0.29595594802284775,-0.1291643203500009,0.019470466496043948,-1.900990716387035,0.2155686804309421,0.5693476340766337,-0.1927865789851544,-0.25387773549833126,-0.036568928361319204,2.5078125
-0.254389505638133,1.2473321496224141,0.25070902947697643,-2.2996568608402557,-0.08015024148344199,-0.23660575359000946,0.10292823526067964,-0.014270009860287479,1.5338531257196981,-0.17409220636205797,-0.46208850147114827,0.15495597250919177,0.20488645602301647,0.027473746024094078,2.515625
-0.5921622732991604,2.892767467271758,0.5820628275909356,-5.3397191477518975,-0.18652482341418364,-0.5514024904013439,0.24008935505860807,-0.03419615676322555,3.5636475818247053,-0.4042691605769419,-1.0715408235113029,0.3604718077599078,0.476030843412487,0.06531754551327683,2.5234375
-0.29029141119350343,1.420996653215986,0.2860864085754907,-2.62353394118411,-0.09144469736734138,-0.27027852460226043,0.11753870647132637,-0.016380865698142143,1.7496943425238374,-0.19848412040708174,-0.5271125474122829,0.17686454638385546,0.2338601848042581,0.031496214046723474,2.53125
0.1782447508793778,-0.8618309864912516,-0.17340379632408828,1.5938492299682376,0.056104971540593185,0.1661994778011765,-0.07268696831078834,0.011262528096079234,-1.065856134011063,0.12090078107367333,0.31810679724127117,-0.10817046925224594,-0.14214596697159132,-0.021000691954863086,2.5390625
0.3119684846995152,-1.5131792586339252,-0.3046061764624758,2.799060800124994,0.09825012328758174,0.29080870302555084,-0.1269511519205004,0.01916096825107959,-1.8691363677774286,0.21209478602796775,0.5595798923322137,-0.18953881259183777,-0.24950728053770416,-0.03598199424560266,2.546875
0.20826518253685522,-1.0083182924269138,-0.20292243390320577,1.8657593222399826,0.06562077542354568,0.19418690292982413,-0.08483082727984491,0.01305458401036049,-1.2454679025545965,0.1414010568938077,0.3726624968757712,-0.12643837718543818,-0.16625633655524086,-0.024348640473373203,2.5546875
0.08650452394180093,-0.41537478232770436,-0.08344333978008224,0.767917719122331,0.027217167488261206,0.08068595895464829,-0.035452074157121885,0.005865607055573362,-0.5137644537610875,0.05835382594245818,0.15280791439881516,-0.05235452163096129,-0.06847782899077418,-0.010691929944197109,2.5625
-0.05837239971644298,0.29028755018406893,0.05869250161259242,-0.5369253424992858,-0.0184626499520293,-0.054326108576946947,0.023297271424846087,-0.002690121146824274,0.35649160455186935,-0.04039239928438736,-0.10877977622786505,0.035722143479392995,0.04774852299717624,0.005528902009894458,2.5703125
-0.1240235566938279,0.6092246530162325,0.12305085017095421,-1.1267538044293228,-0.039051672232173706,-0.11548926298886658,0.04996767685435362,-0.006546290067717771,0.7512956767646002,-0.08510033817269182,-0.22702265822833084,0.07558536133768427,0.10032917833196564,0.012857181931237856,2.578125
0.05464421031144196,-0.26222960854559724,-0.052242729935188054,0.4822615262325749,0.017335828487373594,0.050944682411641753,-0.022534673449698832,0.004018668735656157,-0.3216772773287577,0.03666452595670895,0.09575048568605803,-0.0331061916521285,-0.04310823220634699,-0.007169932542179137,2.5859375
0.22372919269893526,-1.0855289538978865,-0.21817083090714912,2.0046474392229006,0.07053876548598843,0.2085136288153463,-0.09127460004398374,0.013985534306516001,-1.3384027643537901,0.15187762642323063,0.40099387561292116,-0.1359707056658584,-0.17887181574603944,-0.02610646268793523,2.59375
-0.0147217383995132,0.077868329045718,0.015573792005894217,-0.14050814733966768,-0.00471499346406357,-0.013426342647397296,0.005392748262112586,-0.00011563012505632482,0.09257258773998121,-0.010634464255292847,-0.02936950407708798,0.00899950425630597,0.012362121302744241,0.0006103076642232423,2.6015625
-0.42989035808473985,2.10169661874866,0.4227419653774995,-3.8774700594409057,-0.13551885784002415,-0.4000345348612981,0.17401039040088823,-0.024628103213612966,2.5869746783598124,-0.2936038524538615,-0.7786567364613404,0.26157186105355784,0.3455909582701622,0.04713006135540966,2.609375
-0.39950583265022066,1.9535105783684754,0.3930761536213695,-3.606444884534296,-0.12587088193446208,-0.3718318575552117,0.16195368783358954,-0.022831915634481517,2.40650886292644,-0.2729441749300552,-0.7239154049173709,0.2433606771250802,0.32152348163702427,0.04375239016474896,2.6171875
0.09059556833607749,-0.4350940447925431,-0.08749343444780953,0.8033178476632606,0.028551388667023045,0.08454709017335957,-0.03682839141514166,0.006090504073983012,-0.5367348638292208,0.06108192440762004,0.16044383157671824,-0.05451185539250234,-0.07157843157952946,-0.011139016683760496,2.625
0.39796843103136453,-1.933278000580095,-0.3889776520996103,3.571374174436396,0.1253697593477891,0.3708883673035842,-0.1616878031399292,0.02423154809712585,-2.3843340192763245,0.27064363849881634,0.7150315376036722,-0.24157418970467864,-0.31841511919418647,-0.04559799410464797,2.6328125
0.18863977732539228,-0.9133556883370995,-0.18367055800602367,1.6885905552877216,0.05943630903220672,0.17596933245517393,-0.07687959015731168,0.011888374222619482,-1.1278314377155272,0.12802255418965408,0.3370376204683058,-0.11453112050226374,-0.1506751306214033,-0.02217731290562342,2.640625
-0.16532248670964306,0.8118383246133445,0.16359114918630752,-1.4981433691275223,-0.05209250042917389,-0.15380006881053485,0.06672257788603662,-0.008996594556055386,0.9986998263674348,-0.11325629516607039,-0.3019441704968273,0.10065281292309179,0.1333813118002945,0.017480900726806917,2.6484375
-0.21262571126273802,1.0426849731510524,0.20999949247233937,-1.924282096915946,-0.06707272820531605,-0.19790415739870973,0.08589163984130867,-0.011795732508263658,1.282768771205786,-0.14554858526291575,-0.38717628044294494,0.12948814723386096,0.1714427903632544,0.02280204515589505,2.65625
0.018235088490525048,-0.08248272591503016,-0.01659312611390574,0.15468077681404896,0.005647160666174485,0.017206266204593423,-0.00783825720733151,0.001827682701005345,-0.10470760136074346,0.0117929118686217,0.029780209517277743,-0.010901864077479987,-0.013836747590048196,-0.0030553345068999073,2.6640625
0.18949012896179948,-0.9172181663970804,-0.18467757623699077,1.6958957800084404,0.05971030929639233,0.176707587844069,-0.077316771732613,0.011946044316989174,-1.1331282213310296,0.12854576663261896,0.33889872589018716,-0.11509934765813044,-0.15128212708635239,-0.022244213118269053,2.671875
0.12182429477849739,-0.5870823018746824,-0.11819583643182471,1.0851463102461891,0.03845527244617099,0.11352974553368043,-0.04979417912058823,0.00795737531813545,-0.7255812632203106,0.08244612718496745,0.2165632628322,-0.07393921216538414,-0.09688117574640924,-0.014656734461452684,2.6796875
-0.014662496342663185,0.07848733216299462,0.015841173425762793,-0.14362106376060338,-0.004630928296606083,-0.01362260742878328,0.00560675113289084,-0.00010873801564534831,0.09421812119459215,-0.0105956990958313,-0.029834666262070212,0.009122724670793945,0.012719912205333321,0.000640431105993255,2.6875
0.045420833608019455,-0.214710539897278,-0.0431274123141146,0.3986175340582532,0.014231088881324763,0.04250380155845065,-0.01878534517716353,0.0034281382766812997,-0.2676775697750298,0.03033088510246137,0.07876876641284479,-0.0273674230725202,-0.03555257403915895,-0.006101769313538745,2.6953125
0.24971899742941772,-1.211342451895353,-0.24369041312393894,2.238434044637649,0.07867791162105245,0.23288343777329476,-0.10164916923524431,0.015492266825764645,-1.494892177151532,0.16958990591397463,0.4476515099013893,-0.15157779575609828,-0.199589971833841,-0.029010870859656857,2.703125
0.2399597777673639,-1.1643835243436889,-0.23415691567400868,2.1510768205692763,0.07567526339519197,0.2237356427577067,-0.09766029280998291,0.014928747058891757,-1.4355721866372253,0.16297508869525745,0.43014578383210333,-0.14565848730735087,-0.19181895280770114,-0.027931161705201588,2.7109375
-0.10145580195889088,0.49976562182588347,0.10090239564189422,-0.921127238175699,-0.03197412080764405,-0.09431255395982197,0.04082369153773345,-0.005217794059264073,0.6151662718297533,-0.06973791818168104,-0.18593683532509347,0.06189475997898646,0.08212686057423263,0.010319951570924841,2.71875
-0.38256318916851084,1.8702889655928767,0.37677806595756286,-3.451976416968782,-0.12061676599308838,-0.35618877159023976,0.1548479794480834,-0.021813308514399537,2.3035697294042796,-0.26137860076932884,-0.6933273424865997,0.2328255704394152,0.3077695018310035,0.04182590677301596,2.7265625
-0.2600839119128636,1.2734754460478357,0.2565355667435086,-2.352820417108547,-0.08192013056366618,-0.24226168382164218,0.10523707111031848,-0.01459132829158555,1.5691533689820105,-0.17786740528693953,-0.472600289621324,0.15846547939689076,0.20965759589516958,0.028117754506984175,2.734375
0.00572773999204039,-0.022087793691272423,-0.004417190778255992,0.037158992359685124,0.001961304152189676,0.005232479903139042,-0.0025085207679503762,0.0010880351121870854,-0.026140360395016108,0.0033964168301808284,0.006821056660294888,-0.0030462689665770276,-0.0035413146891056335,-0.0016560427620640086,2.7421875
-0.02654148246475738,0.1355539426663733,0.027170492790421427,-0.2515313716974931,-0.008285960263199124,-0.0246211469901985,0.010524112397914358,-0.0008240469168272833,0.16661008225716803,-0.018614036267081652,-0.051285344526511845,0.01651534845570556,0.022218925686005923,0.0019576931051251676,2.75
-0.23453060717411536,1.1496266274186444,0.23125645108548995,-2.1191620750870723,-0.07400964648246822,-0.21800553312158172,0.09470396478394406,-0.013093870660375364,1.413105296646315,-0.16052154699754476,-0.4261234680771389,0.1427483516480933,0.18884201168003276,0.02525161166997884,2.7578125
-0.1601173102402782,0.7862300828274016,0.15823454441368948,-1.446676297894184,-0.050600207996541316,-0.14854733215615754,0.06437674342283209,-0.008682657735394929,0.9646653582412095,-0.10986541809066223,-0.29146394134236125,0.09730315255224649,0.128948503737021,0.016900940001277374,2.765625
0.15836670462482283,-0.7672350049603774,-0.15426337900032125,1.4193718530331467,0.04984986810735311,0.14799581158846337,-0.06476551150968084,0.01012498519582153,-0.9474716816060704,0.10731478422280666,0.2831139549473165,-0.09631702600142293,-0.1265830370667542,-0.018784405252872696,2.7734375
0.24499646360114757,-1.1889752655465435,-0.23911284862088925,2.196943503052189,0.07716043956708897,0.22849999961496825,-0.09973762926230009,0.015223801658545923,-1.466434057758022,0.1664364790700619,0.4389652271939169,-0.14878013300346096,-0.19590553621374565,-0.02846598952170875,2.78125
0.05019914938302709,-0.23721739712255735,-0.04769772443876386,0.4414062364928575,0.015703975533208212,0.046875078413695974,-0.020618871692118502,0.0037052127989579903,-0.2957365308726214,0.0336029242168055,0.08709691924839481,-0.030188923414943534,-0.039366367387780696,-0.00660998985573555,2.7890625
0.015317661725790695,-0.0659834850741956,-0.013314585647266895,0.12581934744402212,0.004739358330269143,0.014222927669058909,-0.006494465002257161,0.0016439385244792408,-0.0858103779256323,0.009808194545478752,0.02403633731912746,-0.009013680709238914,-0.011239496666034523,-0.0027066590491122383,2.796875
0.22423338806617746,-1.085760891646553,-0.21839126864078295,2.0058681364906246,0.07070207041974344,0.20876691182219004,-0.09127827505191921,0.013987678298165815,-1.3402160691051577,0.1523096718333437,0.401007045042139,-0.13610642338965515,-0.17889880922377385,-0.026151115653670624,2.8046875
0.27659114705532795,-1.342895350407369,-0.26994846302755043,2.4780736350662758,0.08724658754948446,0.25766608849323763,-0.1125094490677609,0.017085165141706306,-1.654933383693789,0.18801866045703527,0.4956205220703282,-0.16791262443498053,-0.22103888403995567,-0.0320381949856074,2.8125
0.09007135696094812,-0.4337393460797549,-0.08708201449131016,0.8001095769466648,0.028412818510894004,0.08414464402799124,-0.03687170285086905,0.006074047112110685,-0.5354712100650161,0.060733893224771573,0.15940140805320482,-0.05449377381967492,-0.07148465370459965,-0.011128044902568732,2.8203125
0.01326735172616123,-0.058429548241444806,-0.011840809690271048,0.1085997486967562,0.004205311666964997,0.012699759981847697,-0.005777249593171202,0.0015410602287488043,-0.07434042500092196,0.008290655870250135,0.02110104363464,-0.007873547506398283,-0.009873069810161434,-0.002510308042892348,2.828125
0.07508868870146611,-0.3597425745896703,-0.072516355029007,0.6645883008359502,0.023729583934710932,0.07014246218624857,-0.030823488179039408,0.005191877226004183,-0.4446105719306931,0.05053342664815621,0.1325919618155072,-0.045439273397013744,-0.05940022148395603,-0.009436397225756702,2.8359375
-0.04098138874158611,0.20565018907229635,0.04155646698312862,-0.3798479432009536,-0.012895777723386376,-0.03822961232474029,0.016398661316718206,-0.0016639119294304628,0.25355505187089283,-0.028473025086920258,-0.07710558779660806,0.025333871454644018,0.033845656815989125,0.003578495130384872,2.84375
-0.28320451138434416,1.3866338119904726,0.27939564445242654,-2.559307365671621,-0.08931387173292207,-0.2639120161417006,0.11471211278519437,-0.015964346115738916,1.707926379800707,-0.19362390727403864,-0.5142546667941552,0.17268122096404778,0.22823020789838822,0.030731292561472043,2.8515625
-0.3178457127786391,1.55566713494644,0.31322585702371636,-2.8703059441660757,-0.10019282821401203,-0.2959078609729931,0.1286425980060346,-0.01799809894090915,1.9144131574294891,-0.2173169283649002,-0.5765829134497411,0.1934903382293576,0.25589102450895734,0.03459933168794344,2.859375
-0.1928350181441603,0.9456051625388491,0.19026820196697286,-1.744330575737993,-0.0607097135143697,-0.17918496292571548,0.07779670629341899,-0.010606933116271021,1.1627332502723986,-0.13207423958798395,-0.35087668821837986,0.11723278882252125,0.15540412568475864,0.020565148799463376,2.8671875
-0.1660480310907377,0.8145801377949786,0.1640257836390931,-1.502998353957868,-0.05231542908991427,-0.15431123691298398,0.06692570243824073,-0.00903437239433945,1.0024474478881908,-0.11370725558254582,-0.3026998962983912,0.10102687440298982,0.13388038845598987,0.017559700051281296,2.875
-0.1662124957155454,0.8160924819649692,0.16446978101343493,-1.5047171334483709,-0.05248640260831554,-0.15469076865908024,0.06701911840401255,-0.009064075857557577,1.0040152694571194,-0.11373860727879327,-0.3032374368991337,0.10129132417882888,0.13410096346254696,0.017588814925591528,2.8828125
-0.05588263776964699,0.27902430639899645,0.056196993118433396,-0.5110862863226744,-0.017728456383528348,-0.05182585062704689,0.022196628096485694,-0.00255362675904201,0.34061324265504705,-0.03854474834404097,-0.10402991813628774,0.0341085902002112,0.045572405921877314,0.00522267967054445,2.890625
0.04243164682527268,-0.2005995661653057,-0.04056074229511411,0.3747648872760703,0.013311878792932786,0.04005665151031442,-0.017751320433785772,0.0032650549728047134,-0.25082360385670005,0.028350907637571865,0.07379142501391904,-0.02582610011490437,-0.03341442642138064,-0.005794003098841789,2.8984375
0.12402699155960815,-0.5991424639991876,-0.12062488141338282,1.1078352089743946,0.03904150669510115,0.11603191611365979,-0.050757865189374814,0.00808630825362392,-0.7402255454046286,0.08383061733191129,0.2210722826948883,-0.07528150132101553,-0.09887719990380595,-0.01490766937979182,2.90625
0.33818651549165035,-1.6432881811430637,-0.33045120580006004,3.032088937835317,0.10658222264829251,0.31514350952118086,-0.1374318114755887,0.020718462793604866,-2.0247780948095278,0.22979589978348947,0.6070004858072727,-0.20519390271309626,-0.2705667417898495,-0.03887952812682546,2.9140625
0.457876628420562,-2.226562977880537,-0.4478073408510162,4.108372032085914,0.14442761664422743,0.42645487937371607,-0.1858806476352011,0.02778476172071584,-2.7430392580416245,0.31147613767154086,0.8226593844079814,-0.2779400457808815,-0.36651066543071154,-0.05231133816388477,2.921875
0.188016623664336,-0.9107892293917644,-0.18314299440885673,1.6817666404582323,0.05939045290078185,0.17523346741431461,-0.07647415765243973,0.011867778111616576,-1.1230688057133993,0.1275436529970172,0.33603591479150996,-0.1140498932606192,-0.1499821295746575,-0.022104925339466747,2.9296875
-0.0758301202664321,0.3763764805649405,0.07593582654145797,-0.6921757686795948,-0.023951410452145987,-0.07048889466190258,0.030464636725975474,-0.003711599281566474,0.46105794688823654,-0.05243660829981997,-0.13977163431598982,0.04633226341089145,0.06178899789559747,0.007469564346665575,2.9375
0.14731495179970142,-0.7099773378362222,-0.14265544532343294,1.3134008876017103,0.04624394819834855,0.13718316340845055,-0.06006199690982556,0.009435931479985683,-0.8786392173474565,0.09957977339098861,0.26255603694300456,-0.08922846557115066,-0.1171270154132581,-0.017504502935538218,2.9453125
0.3974604458969211,-1.9292231362805083,-0.3882583128650079,3.5630207688403774,0.12518848451197723,0.37014224134801127,-0.1615395444039502,0.02419165309049293,-2.3806337870198857,0.270222709937612,0.7135355245014777,-0.24134638221757287,-0.31785235552988966,-0.045539077908318806,2.953125
0.04571049923969304,-0.21605802816402325,-0.04368419400786015,0.3999652709487197,0.014456149631097313,0.04270169012076728,-0.01895635866254188,0.003443752810237644,-0.2687966050633002,0.030706847676922323,0.07898862460066805,-0.027667528679921782,-0.03581434289059663,-0.00615643877419367,2.9609375
-0.4706383443067388,2.299923354355924,0.46281260578081124,-4.243685138049898,-0.1483510262322505,-0.43814774485919983,0.19040953533033944,-0.02702431192810075,2.831421730251933,-0.32115229920609095,-0.8523825243711973,0.28621189461557656,0.378344980751542,0.05169224288945338,2.96875
-0.44668408438160423,2.183755710977115,0.43964169460460173,-4.028523020970538,-0.14088826596419068,-0.4159689229091538,0.18079058608598128,-0.025617313059108932,2.688064400949167,-0.3049360931194703,-0.8091827281063525,0.2718115518412437,0.3591887882036816,0.04902447319554388,2.9765625
-0.20423598980571847,1.0022762357968853,0.20179499353189723,-1.849134585081281,-0.06435306623242251,-0.19022785570144612,0.08264096020593796,-0.011306266159679028,1.2335821413043138,-0.1397983587405003,-0.3718341722286163,0.12456935257274994,0.16478056030465568,0.02186341497235948,2.984375
-0.34412266679735587,1.6826869500877857,0.33863896234138174,-3.1078572990200506,-0.10827490595137684,-0.32033075506772973,0.13941865613907634,-0.01954305054607096,2.074143757965273,-0.2351283014531398,-0.6240200245684592,0.20958175075153923,0.2769710099620153,0.03752485329592614,2.9921875
-0.5462090750331863,2.6661762066596433,0.536720168851172,-4.923200527535974,-0.17201712223785146,-0.5082629792500711,0.2212260124743999,-0.03145410283440063,3.2861005568555988,-0.372827784694743,-0.9882662312281986,0.3322692534726748,0.43890618522970504,0.0601612263620678,3.0
-0.2659795209789861,1.3006323845922008,0.2620178142362976,-2.399217259741269,-0.08386193664425579,-0.24716367822557334,0.10741381782884944,-0.014916420643979831,1.601375375796403,-0.1818904436767238,-0.4824645464252438,0.16176514483430993,0.21393195015388647,0.02876728697725061,3.0078125
0.22476740047122223,-1.090092333175093,-0.21923601292824252,2.0159385524999665,0.07077092555182364,0.20977444261994999,-0.09165222281413597,0.014040233840323213,-1.3457195951444734,0.1525056538040407,0.4029716596733941,-0.13660323590875587,-0.17974513621973703,-0.026215028821256346,3.015625
0.4436499695374846,-2.156740451549535,-0.433946300631384,3.9837911293118635,0.13980539633515868,0.41349928925391616,-0.180406669535084,0.026956167046796455,-2.659343794052252,0.3016991575046572,0.797822579298973,-0.26962301014816226,-0.35523535354972363,-0.05073626589468414,3.0234375
0.500316379067695,-2.433269894872897,-0.4894336277374739,4.4927153378408775,0.15762990828225767,0.46623770982708446,-0.20336592604303524,0.030293687381907627,-2.999529358142865,0.34036017638025834,0.8998078892181153,-0.30400435501868395,-0.40065209683795094,-0.05707106613806105,3.03125
0.589907336113694,-2.8691772160919236,-0.577140174605857,5.296926719146489,0.1858069999283013,0.5495662397442694,-0.23960756470499936,0.03556318557856891,-3.5371814802517907,0.4013960911007473,1.060920615453824,-0.35836668511152503,-0.47247315125945827,-0.06709061059512703,3.0390625
0.49876444244767215,-2.4235061787143612,-0.4877292499697389,4.4738350341519535,0.1571350206355782,0.4644616602618468,-0.20251926608765777,0.03016734385683038,-2.9884493080056607,0.33926490044352675,0.8960103543857856,-0.3028538692204316,-0.3992086519037153,-0.056876232151372656,3.046875
0.12530849571711766,-0.6028594045048246,-0.12153520563229134,1.1130418227095065,0.03951761860249629,0.1165994213150812,-0.05104455052479704,0.008125420211771426,-0.7451908462782786,0.08480838115533222,0.2222305828234801,-0.07581260163446686,-0.0995139983113847,-0.015048242578460932,3.0546875
-0.19848811976342934,0.9746652279999931,0.19604723249642012,-1.7975786669600646,-0.0625554914906443,-0.18475955315207337,0.08019374856574396,-0.010973201067562431,1.197998525193328,-0.13583318436701317,-0.3615846350645527,0.12094158588026101,0.16017721096950308,0.021217886463526844,3.0625
-0.22266195711968237,1.0920577918887155,0.21984468424168016,-2.012898192379417,-0.0702406673610668,-0.20713762888302958,0.08994466185298541,-0.012389291419889625,1.3420002410606242,-0.15237885165773926,-0.4049086858808329,0.13555995983918984,0.1794809206110326,0.023922893578546447,3.0703125
-0.10792016137982023,0.5328783231327806,0.10730578276695542,-0.9805335127311936,-0.03407577540785051,-0.1003537983174581,0.04338049069680919,-0.005613536735108352,0.6531001593414751,-0.07422077792064183,-0.19779877083530867,0.06578055622453555,0.0874379988731684,0.011059847172246728,3.078125
-0.11196021013180696,0.5522574183123901,0.11118890224812211,-1.016456656514308,-0.03531827909099873,-0.10417035435053978,0.04497609038982361,-0.005850005391194378,0.6776417335197432,-0.07689471511047966,-0.2049921828807327,0.06823976031056454,0.09068684722292397,0.011500944458588467,3.0859375
-0.27529572103724204,1.3474124349249257,0.2714023046666156,-2.4848522620833107,-0.08678933349192325,-0.2562374066811982,0.11128001787400332,-0.01548339620171823,1.6587023124757652,-0.18814994004391522,-0.49960849871050933,0.16761003437683156,0.22169238198809782,0.029803036906664315,3.09375
-0.4271099669726298,2.0865459452179067,0.4203863990005285,-3.851426127076371,-0.13459464506976226,-0.3976480492898806,0.17305779779638758,-0.024434694282335703,2.571478476220498,-0.2916649502479333,-0.7736019579217189,0.26004587120941997,0.3435153783031605,0.04682608720136796,3.1015625
-0.37955508588364184,1.8546140491152563,0.3736548988361425,-3.4252961089832135,-0.11951257878852804,-0.353408697292994,0.15387769328778528,-0.021627186072064698,2.2868586481767994,-0.2592636134544832,-0.6879240796261762,0.23117490238135657,0.3054070394725021,0.0414960603533765,3.109375
-0.18485908510603158,0.9059392666078527,0.1823932984978987,-1.6732898957031366,-0.058103609414604046,-0.17197148083479888,0.07472964677440325,-0.010145912049305572,1.1167461635887583,-0.12643091688372457,-0.33666181585105076,0.11263691972178809,0.14910932940006344,0.01965867189634957,3.1171875
-0.0810311638026448,0.40037529527866406,0.08036379293732486,-0.7378011770348407,-0.02544449481223629,-0.07511724720600665,0.032344177507845004,-0.004027165632819177,0.49160367593687576,-0.05557754900442175,-0.14936086850266242,0.049295217607264644,0.06563267077285152,0.008016373323271845,3.125
-0.04519722598346179,0.22665432202011312,0.045354897162901656,-0.41609656219892033,-0.014275317119773485,-0.04172194400347449,0.017736959898522038,-0.0019136756770902887,0.2760426973746728,-0.03134657261546501,-0.0847497976090156,0.02745845660085186,0.03685140118747156,0.004034573600495459,3.1328125
0.2261153631118951,-1.0946393019960412,-0.22048829906344697,2.023194693887013,0.07113323649872037,0.21096441824310136,-0.09219336810479017,0.014098688700235036,-1.3530285969667195,0.1532356185244664,0.4049362847259856,-0.1373845467476427,-0.18067896997614372,-0.02631373647044671,3.140625
0.6572831721963018,-3.1960958152782992,-0.643256411447488,5.902503694001369,0.2070093313109141,0.6125400606180552,-0.26696346833278967,0.0395437891178103,-3.9424548104916832,0.44701095194323176,1.1831136783322487,-0.39939069605574073,-0.5264678804192356,-0.07460635239036206,3.1484375
0.6985126372709737,-3.3983627886491306,-0.6836372512018005,6.274475793997376,0.22007490258604587,0.6507353446770139,-0.28363510106982154,0.04198165132250215,-4.189500938772524,0.475341946483726,1.2573573997428067,-0.4243645858111015,-0.5595173413367803,-0.07925145031116901,3.15625
0.24649607850532199,-1.1962698122353015,-0.24019916398728766,2.2071761684470754,0.07767421743102414,0.22944965050050398,-0.10026710522127487,0.015312299704940295,-1.4735919464982612,0.1674601576128063,0.44134660646574536,-0.14951088116340347,-0.19688398127883394,-0.02862917613625076,3.1640625
-0.06814372663826514,0.33783972648450666,0.06836196241180828,-0.6250160357770072,-0.021508631607444283,-0.06353991528668375,0.027348378845046227,-0.003261172654021135,0.41620276512728327,-0.04706248728888766,-0.12652030749739251,0.041750550665182226,0.05553847504877076,0.006630899212649725,3.171875
0.03924033621915464,-0.18475377807246587,-0.03722160320442294,0.34150447934384687,0.012324798871540603,0.036804871568705086,-0.016247406978965772,0.0030655584034806676,-0.22984242889090337,0.026038147256335333,0.06749469914216356,-0.023617677421104915,-0.030649028532301337,-0.005401650974874505,3.1796875
