AF3,AF4,F3,F4,F7,F8,FC5,FC6,O1,O2,P7,P8,T7,T8,time
-0.14602197992456425,0.7167261143319119,0.1444083874785767,-1.3238498676844443,-0.04601305244256884,-0.13571879965639144,0.058841191193249605,-0.007849170100206438,0.8829026882975984,-0.10017855382052444,-0.2662874168813209,0.08900732917420537,0.11794633383132609,0.01534163596779095,0.0
0.1210665993923473,-0.583413944992532,-0.11734312424137422,1.07653567986546,0.038116966205556435,0.1128637648471702,-0.0493989836896604,0.007900068046549696,-0.7201417209733799,0.08178688748889165,0.21501386381748844,-0.07331386392905186,-0.09623599424738132,-0.014549193276798395,0.0078125
0.09326009078503768,-0.44707407470855515,-0.08991546831943727,0.8256725235668634,0.029348687858088477,0.08685291574252786,-0.03804467396573255,0.0062578713875581895,-0.5527039126993659,0.06281032330646756,0.16463147692479654,-0.05639272858314502,-0.07386445505604568,-0.011426764241238093,0.015625
-0.014841781017450244,0.07920768446301263,0.016089032944353217,-0.14504309773603147,-0.004694526533085768,-0.01367633952562115,0.005838895367570055,-0.00011293248090959669,0.09556038094389593,-0.010872395493840226,-0.030160150861303577,0.009317535914008706,0.012860216635298774,0.000669232974428098,0.0234375
0.12123129226609072,-0.5842565979712312,-0.11740342351789054,1.080891382716144,0.0381827100923148,0.11326301007955035,-0.04934902234072138,0.007918087532802886,-0.7230453482613587,0.08184885700061238,0.2155495993787255,-0.07344545451794202,-0.09631403869703506,-0.014589357401619265,0.03125
0.25638100770954203,-1.2421483828467992,-0.24992800641746774,2.2964548377968845,0.08074368492115631,0.239155197853307,-0.10417288101050318,0.015882476436194354,-1.5351239253150017,0.1739472952058515,0.45938929631213843,-0.15563832631859817,-0.20471380651506632,-0.02973040816860947,0.0390625
0.14364826228633884,-0.6924033004272131,-0.1394397892578712,1.2814980023151885,0.04522246220181912,0.13407642387553834,-0.058487780315951206,0.009220782075347623,-0.8575856196484202,0.09717664484530601,0.25603383764750187,-0.08708385491869326,-0.11430708984502605,-0.017097495016541963,0.046875
0.11804591140127611,-0.5688006446158362,-0.11459998992834765,1.0525481911829235,0.03720351323175996,0.11023329753928501,-0.0482312305891545,0.007712997495659504,-0.7037091389592286,0.07987071468201822,0.20999633244673596,-0.07151774339318286,-0.09396354222285322,-0.014244005441089887,0.0546875
0.33684901346635193,-1.636644742636914,-0.32944222616921137,3.0236783987445395,0.10619391618488087,0.3140698691244969,-0.1371474570081454,0.020634139290966868,-2.0184241450779314,0.22912037273370137,0.6049132578098666,-0.2046189676998132,-0.26973352288459007,-0.03878908971813471,0.0625
0.2690271514470278,-1.3064819691372704,-0.2628942927301556,2.4140554781473376,0.08481852221243016,0.2508329160225602,-0.1096977927079901,0.016636639867495365,-1.6112870718235786,0.18293293330485347,0.48262273769238934,-0.16344752111413985,-0.21533455988542755,-0.031210681058192104,0.0703125
-0.28461653529113795,1.39231882588045,0.28033969283597204,-2.5692147425570626,-0.08966703675777425,-0.26500824664427197,0.11495773203306274,-0.016036814842236784,1.7147948969860232,-0.19441165834061003,-0.5163394201234235,0.17321027474845482,0.22905242530763634,0.030826346374580822,0.078125
-0.6021757926244318,2.940651237941288,0.5919632808987452,-5.428414558112918,-0.18974552861568686,-0.5609089913156311,0.24388143459447695,-0.03478036336791785,3.623086526968634,-0.4108734448772376,-1.0895454899336332,0.36637841803757915,0.48399180860630997,0.06642548834333628,0.0859375
-0.20914822692146728,1.025665489488681,0.20651963470074713,-1.8923995929196653,-0.06589984350550361,-0.1948217757789047,0.0845102394168208,-0.01158663824737192,1.2625308957452377,-0.14310494938317936,-0.3806948999676157,0.12743621082872497,0.16865833287363868,0.02240235524367382,0.09375
0.2879387505168615,-1.3968019480191138,-0.28098433018121227,2.5804540591742517,0.09073723504995633,0.26824347704543394,-0.11710518566024306,0.01775393762801493,-1.7235392784274859,0.1955522477752976,0.5161277419457537,-0.17483355958645802,-0.2301795826826681,-0.0332852921407584,0.1015625
0.19366415933362024,-0.9377564891514887,-0.1884547159062452,1.7311799500695662,0.061038882514805395,0.18044858526228152,-0.07884289714797614,0.012197291500968497,-1.157047188451869,0.13128226224611092,0.34606680881396046,-0.1175199621737823,-0.15445268786234917,-0.022710499153952325,0.109375
-0.23732479888551117,1.161980231587738,0.23424403326858767,-2.148369992776031,-0.0747743539148879,-0.22099175678964786,0.09598286427370148,-0.013237661531924528,1.432464300964647,-0.1623411880140601,-0.43168973536908034,0.1445509085277824,0.19141782400503907,0.02559035658672499,0.1171875
-0.3344183608320981,1.6348421419099373,0.3293836177574365,-3.021804487990816,-0.10542998645523131,-0.311348332982114,0.1353284057666299,-0.01897663937082971,2.0157412344049352,-0.228434057001946,-0.6070000299971545,0.20357775669692668,0.2692510833819586,0.03646812372912907,0.125
-0.04196115663053427,0.21004551027799886,0.042500275456230543,-0.3878391433412495,-0.013361054019491817,-0.03879169011631429,0.016643603773127173,-0.0017271239054878268,0.25798969618102857,-0.029151976904510345,-0.07912152783683962,0.02571750499143016,0.034462852772026514,0.0036886103962493226,0.1328125
0.11558083864659072,-0.5567757116441999,-0.11201415797551835,1.031931802680393,0.03626978619730619,0.10804926937935995,-0.047281596105950015,0.007566200736585303,-0.6894211202637858,0.07816406565361125,0.20548573540110657,-0.0700940479456282,-0.09201680713934203,-0.013974124478077827,0.140625
-0.08139731841162744,0.4037217633042815,0.08111197480018767,-0.7404397160048101,-0.02571138645062096,-0.07542685787154292,0.032651611628990856,-0.004056646399526875,0.49366790412274253,-0.05608363710190211,-0.14976927038093427,0.04968896007854592,0.06600531262971746,0.008090626303207067,0.1484375
-0.17552248456405103,0.8621816653944518,0.1733194574899491,-1.5883352505074764,-0.05528561015115201,-0.16313933766013494,0.07087952635053622,-0.009606574832542477,1.0595456300271717,-0.12025386618832691,-0.31956672432010264,0.1069504367918982,0.14151542978459866,0.018637647695170772,0.15625
0.1958140666086086,-0.9478251842528647,-0.1908758723525262,1.7526169617480103,0.061730967611165456,0.18269215005978684,-0.07973307599144744,0.012312331887676116,-1.1707596990595786,0.13274193743008394,0.35053450193307334,-0.11880589204018391,-0.15636597034699837,-0.022959717005702297,0.1640625
0.5560929564997817,-2.7033635308085477,-0.5441003391186789,4.994037719398928,0.17523996481419002,0.518165547039979,-0.22588262925449007,0.03357679773894178,-3.3348593200319003,0.3782320611543413,1.0005467311555627,-0.3378508411253411,-0.44528445824379853,-0.06331509159516002,0.171875
0.2946846548423481,-1.4291672488656844,-0.2876175802777132,2.6408848981640007,0.09289775913563299,0.2745325408936478,-0.11983495536718469,0.018153798233419897,-1.7644335816201906,0.2001226087306416,0.5286115706082463,-0.17891497550258617,-0.23544873424562546,-0.03402391805075718,0.1796875
-0.211788594424231,1.038640036926892,0.20912363114761134,-1.9165593506689587,-0.06666171981990371,-0.197271749307625,0.08563131152297408,-0.011729995127096358,1.277985886685411,-0.1449793945697256,-0.38533825010247136,0.12901107805020748,0.17085703757377074,0.022711752663933577,0.1875
-0.16717668555929932,0.8207492460105047,0.1653604814261879,-1.514067058198929,-0.05263253646047251,-0.155628878393591,0.06753273693948045,-0.009098184810485705,1.0098033605046945,-0.11457539445038548,-0.3046403502572785,0.10188038914285401,0.13496994020319544,0.01770116529769687,0.1953125
0.25240205267317484,-1.2238703132242397,-0.24615593818880302,2.261709786433669,0.07952829754716603,0.23528936495542535,-0.10269535306817668,0.015653662968949024,-1.5106750805360154,0.17133923632018908,0.45247840925461985,-0.15322470511334094,-0.20168153528534977,-0.029313771021706028,0.203125
0.24274792003901471,-1.1769883284772016,-0.23677957376964878,2.1740962126627412,0.07648810666292755,0.22631816187498915,-0.09883210081765596,0.01507972093193047,-1.4524580835582237,0.1648187279116674,0.43476747329305737,-0.14739371517876526,-0.19396518219111322,-0.028236385907746915,0.2109375
-0.19663443977528752,0.9629302645885454,0.19398426010496478,-1.7793280330227668,-0.061933149734430586,-0.18293742594022835,0.0793270493885604,-0.010842607597719309,1.1870699983314028,-0.13444222641241038,-0.358227686492455,0.11967433479527467,0.15841719364132587,0.020983466118757708,0.21875
-0.40017150058644924,1.9536391534929867,0.3935343223866002,-3.6095992153545375,-0.12609035207858618,-0.37248827629359227,0.16183787336825592,-0.02285072906389694,2.409666525440988,-0.273009965872072,-0.7253387799099794,0.2434181698422838,0.3216246037070969,0.043786452557975905,0.2265625
-0.2559497005017692,1.2515292874589334,0.2522155415130569,-2.312011938733423,-0.08071634761291685,-0.23819084671172902,0.10334649711954118,-0.014350986133924826,1.5433319004086268,-0.17477755094691602,-0.46497371315204056,0.1558467550584408,0.20603932018330595,0.02764266108870621,0.234375
-0.13467007089059146,0.6624989689851939,0.1334706654294209,-1.2221437336011483,-0.042539697591346445,-0.12535635875447612,0.05419945142345749,-0.007205011911783892,0.814889965889539,-0.09230362129732973,-0.24622324764910214,0.08221126370126018,0.10893515589046396,0.014072785222764589,0.2421875
-0.03377098747031611,0.17198140124823827,0.03459418778868676,-0.31483709168287144,-0.01072146408749148,-0.03143297569700801,0.013311701915047821,-0.0012482130838308747,0.20879876806767073,-0.023640231491866434,-0.0642772533986558,0.020831668184930797,0.028030545173563487,0.002776679448600624,0.25
0.20422272936857158,-0.9879112560682156,-0.1988535276436661,1.8265880781313533,0.06430710257788086,0.19033933177782378,-0.08318283443379008,0.012802186870371213,-1.2207218236932749,0.13855043047158158,0.3650857797413603,-0.12394469602355591,-0.1629551824405533,-0.02388328875563405,0.2578125
0.3189600424322914,-1.5471648915173926,-0.3113690110329093,2.858070704083112,0.10046710671841691,0.297294241619604,-0.1296539906911828,0.0195720487168248,-1.9096875745954036,0.2166946925000682,0.5720314478937873,-0.19369297344117858,-0.2549713115093239,-0.036732541475678566,0.265625
0.08453755524292741,-0.4043791801419228,-0.08137256506178656,0.7484580841280324,0.026604691622005353,0.07890041545413598,-0.034499249718525214,0.005739753191381344,-0.5016019669623947,0.05682944858916911,0.14911676525867137,-0.051113615462030644,-0.06684279894897273,-0.01047228051243991,0.2734375
-0.2064750627525615,1.0136900409011493,0.2040224619177415,-1.8679539125248268,-0.0650528932403918,-0.1921923431186857,0.08356455777135886,-0.011422036138519878,1.245815974231294,-0.14151949090132726,-0.3756005653788502,0.12580532421304244,0.16655525959922812,0.02211235311027144,0.28125
-0.2639146971155537,1.2923367476301462,0.2601696855964686,-2.382426914252288,-0.08310445908186402,-0.2455903944777924,0.10683173607522344,-0.014800445427508318,1.590121427221779,-0.18058487720288136,-0.4788377586901582,0.1606666154953736,0.2124982073146161,0.02852632948380697,0.2890625
-0.19007187146514673,0.9309920538490783,0.18756622436472747,-1.7179216890427975,-0.059843183526976415,-0.17667829866468954,0.07680272663317905,-0.01044179057194359,1.1463419381991855,-0.13019771176777475,-0.3455207311196792,0.11573511957604186,0.1531961836793075,0.02024734048015498,0.296875
-0.04000730075115235,0.19937164783116448,0.040343048713852546,-0.36876218850129666,-0.01260982520867467,-0.03687029176528679,0.015846344562745068,-0.0015929449553220144,0.2452328121285463,-0.02791026880785943,-0.07495811926757606,0.02449691398088268,0.03280055329163032,0.0034473607998968103,0.3046875
0.29916549032991085,-1.452577480040908,-0.29229296371687513,2.682413012128715,0.09424201435070005,0.27900469077708284,-0.12176001315728963,0.01841249186150847,-1.7914515321220337,0.20327991284410626,0.5367791358671196,-0.181693738688943,-0.23930657360769952,-0.03453133019195037,0.3125
0.6037583866925863,-2.935881116466757,-0.5909921205306239,5.4222853814734755,0.19024920486810526,0.5626313265896268,-0.24527139881391835,0.036378723776922146,-3.620327112440481,0.4109067880463472,1.086221429486398,-0.366840862852947,-0.48360304165461826,-0.06864548106164027,0.3203125
0.43203216246633686,-2.098652959779074,-0.4224177668212115,3.876265808239125,0.13615388188837202,0.4025463377456291,-0.17559271590169634,0.02624518718535338,-2.5886052524764436,0.29385967980010214,0.7763790987360907,-0.26241003262552687,-0.34570245951384404,-0.04941574676798441,0.328125
-0.1079112265276915,0.532348790233445,0.10733023022687536,-0.9815703161215995,-0.0340102093711767,-0.10048935598639093,0.04337263419300724,-0.0056097821138372155,0.6541363652210082,-0.07411626414284336,-0.1977871447493138,0.06584191630458071,0.08751472676285471,0.01105899314548474,0.3359375
-0.4136453345476115,2.021779582488365,0.40717145313101977,-3.731523252995965,-0.13036476237885594,-0.3852629894984864,0.16733510527268514,-0.023649450110592864,2.4901209984274586,-0.2823809951268968,-0.7495446286899701,0.25169075938043367,0.33269892108323973,0.045307626523921556,0.34375
-0.28437052539106134,1.391580020298439,0.2802014199864567,-2.568675103134357,-0.08962145158179022,-0.26480129401633345,0.11492478981828431,-0.01602997392491148,1.713850521411716,-0.19420754092917944,-0.5165742500708649,0.17310953347299124,0.22889517049642077,0.030831466371681333,0.3515625
-0.07659736846294654,0.3792851496431326,0.07636001900530828,-0.6995714011708911,-0.02416855072032448,-0.07125832220318543,0.030709173129081474,-0.003776156641801761,0.4660445789446087,-0.05269437804766577,-0.14176904834714235,0.04681894940810331,0.06217756790544075,0.007551404477834559,0.359375
0.013667309745092955,-0.06055091340688461,-0.012103728828829121,0.11407050525391978,0.004245716833593829,0.01286422378299095,-0.005899714424009735,0.0015576758028294476,-0.07669165698513095,0.00870374585265106,0.021341638104250816,-0.008090560620081202,-0.010284621099505767,-0.002575016030554889,0.3671875
0.10232322968618202,-0.4932845862327096,-0.09909969973966591,0.9130684974862069,0.03221830122678729,0.09556876432633885,-0.04190455433526657,0.006803319436016685,-0.609747632493746,0.06914684223632385,0.18154369854087224,-0.06207443890901788,-0.08145058024639742,-0.012512752997045113,0.375
0.10428930962882599,-0.503352833427732,-0.10112479289872783,0.9291764841367838,0.03290804110422429,0.09746225993821005,-0.04269184248508279,0.006923390990179618,-0.6210655754127212,0.07054442788388994,0.18509160518832238,-0.06328862631102798,-0.08293673166928536,-0.012720303472855127,0.3828125
-0.17105835549591517,0.8394070832862852,0.1690564087994541,-1.5511407226614642,-0.053867154162494095,-0.15912194511386446,0.06909481410554526,-0.009334831418999295,1.0338114418060191,-0.11719572623835277,-0.3118449944201482,0.10423129543297179,0.13815643034389494,0.018148765742313083,0.390625
-0.45434252491077154,2.2213633615842316,0.44716087857373643,-4.101042368315591,-0.14320797976395283,-0.42314001507130933,0.18409216423819452,-0.02606219931809221,2.735744621574712,-0.3103902271642961,-0.8231178837274165,0.27661060263533715,0.36554388522012765,0.049904748158836644,0.3984375
-0.2833170042994598,1.3880912819408942,0.27948753641195695,-2.561519005562309,-0.08933128731680647,-0.2638574275024679,0.11471105911904053,-0.01596851978629002,1.7082603992735568,-0.1938248390970069,-0.5146083390715217,0.1726600509449609,0.2283309885846338,0.030756075897420753,0.40625
0.22979465422723983,-1.1131617128470859,-0.22390198694768354,2.0563244852511446,0.07239775929209596,0.21418959127924597,-0.09349047801939459,0.014319772972678568,-1.3740496119559877,0.1559436310836046,0.4114204191467574,-0.13940177957584748,-0.18336595890726884,-0.026730236517303274,0.4140625
0.5357730845657999,-2.6042707809272274,-0.5240767315234324,4.81085523564191,0.1688018313096412,0.4993208967037087,-0.21764649169893788,0.03237866080279842,-3.212399230591835,0.3644466058504315,0.9639585710862916,-0.3255381321349062,-0.4288989009147138,-0.06102535027893588,0.421875
0.4035211093659358,-1.9592001540928579,-0.3943476014149553,3.6222217619179253,0.12707087159481817,0.3761951846559641,-0.16399813390744805,0.02456769365150961,-2.418656886110778,0.27424724044499055,0.7255227136186789,-0.2451574283692086,-0.32288328142240186,-0.04622838319780458,0.4296875
0.04421728988246351,-0.208501557013782,-0.04201375275415389,0.38909795689695204,0.013864488466036617,0.041491486761690455,-0.018244309369961083,0.003360145313422147,-0.2605957459219311,0.029407732622343488,0.07694247339575816,-0.026675282152797717,-0.0347077787066177,-0.005985564994542806,0.4375
-0.2501405783562907,1.22476526438998,0.24649887601722528,-2.2603860696681553,-0.07880728448057868,-0.23272775316874061,0.10112676049124403,-0.014004744005516384,1.5078394523969543,-0.17110526051259758,-0.45443489385230756,0.1522922870236993,0.2013671348410402,0.02698821752262585,0.4453125
-0.25612384541470506,1.2527220348016403,0.2521701835679074,-2.3136263175896468,-0.08064133745986553,-0.23826253982422224,0.10346331565422251,-0.014347676729296132,1.5436931841890875,-0.17510101341430084,-0.4651793089619753,0.15585544040402213,0.20604120822805416,0.027649774691915124,0.453125
0.020483788011655,-0.09601782124386743,-0.019196958569580366,0.1766652745564568,0.006519811117849917,0.01939063847031552,-0.008827950090658732,0.001979659242007081,-0.1181583563247491,0.013510114665046577,0.03388317367189348,-0.012384242284534226,-0.01596354434365913,-0.0033536054353122398,0.4609375
0.2164365089614326,-1.0508553475231306,-0.21123342886135696,1.9395458787246063,0.0682583714947665,0.20172982166213832,-0.08828609187209319,0.013537644106645626,-1.2947417950829947,0.14715268064150244,0.3871477859782699,-0.13144509209124067,-0.17305581244642126,-0.025310504319522628,0.46875
0.08375840817797114,-0.4028657286192113,-0.08079466552557404,0.7441384892951379,0.02642892198595173,0.07793349529725316,-0.03433613907436626,0.005698718464173735,-0.49686879062944617,0.05670221243733652,0.14763759984327887,-0.050625916994941705,-0.06635443738203244,-0.01043002581205084,0.4765625
-0.08676570079661218,0.4299087295990878,0.08665254296977568,-0.7908866935949816,-0.027351358295015244,-0.08086626309895384,0.034903111796400724,-0.004367798922865793,0.5274354302560526,-0.059658266811010156,-0.1597863750658507,0.05306593574792102,0.07059223833420228,0.008697683403151387,0.484375
-0.017072702004793265,0.09077293921917771,0.018275663928164165,-0.16391000050953455,-0.005424885291291782,-0.015770935971778165,0.006586430064975208,-0.0002532347175171807,0.10821053339010145,-0.012254354597514387,-0.03389002126870512,0.010588681646662488,0.014664349420859217,0.0009048647024259142,0.4921875
0.03983439535704195,-0.18694637198703123,-0.03757748790708023,0.34690774530208063,0.012492220002962304,0.037252277277764194,-0.01651353945645034,0.0031009983287299463,-0.23344195622202318,0.026524591075475806,0.0685756062710823,-0.023994700562451798,-0.030966207057511914,-0.005462452467655685,0.5
-0.11813422124151136,0.5830297426654256,0.11740498327165819,-1.0757863543659398,-0.0373134008611002,-0.10996498325547358,0.04763356648394271,-0.006231359055631413,0.7160387069508395,-0.08117387671779679,-0.21662526658029735,0.07217381927753723,0.09582759187175825,0.012241078635850179,0.5078125
-0.1877732624672026,0.9225421540895085,0.1856670934752087,-1.7017866703297362,-0.05927173820755274,-0.17473700923490765,0.0759037744533464,-0.010340122338317348,1.1341241003958584,-0.12870393725321383,-0.3421526349779379,0.11448620862166127,0.15159677528182247,0.02004048579804368,0.515625
-0.00345621231444646,0.02306808196232363,0.004734067337335278,-0.041671125445467624,-0.0011393246271415094,-0.002894610248083458,0.0010802081002375295,0.0005552410218545883,0.02643857583817467,-0.0030651452301227243,-0.009412464528920935,0.0022641016921587567,0.0035153246908060528,-0.0006212875245822335,0.5234375
0.10995335554155417,-0.5311651509533081,-0.10656668362659527,0.979575624159942,0.03467106649776755,0.10272694987775946,-0.04492850475957417,0.007263675504921873,-0.6546322197467142,0.0742899797421012,0.19529955067440158,-0.06669556642816642,-0.08753904626377688,-0.013338329400350754,0.53125
0.008699594832003443,-0.03758965369057982,-0.007269103460842621,0.06898246840382748,0.0027801990245083764,0.008368660467581352,-0.0038127763489971558,0.00128544677061731,-0.046437065110777866,0.00524924369949046,0.012790829598974644,-0.00502146969521564,-0.006253112190623552,-0.002002610711557518,0.5390625
-0.03962665434249048,0.19900828957395308,0.03995867732155387,-0.3646793472366495,-0.012467919550778339,-0.036527246688939974,0.015732549611967385,-0.0015771003052030812,0.24288928609109328,-0.027725094275699823,-0.07414335715752858,0.024314447853574023,0.03248184838119116,0.003399735649075338,0.546875
0.0012518083597608408,-0.00016562077161439096,-0.00030177596482361245,0.003574408410012805,0.0004170767995366766,0.0015871238742721334,-0.0009670955634360783,0.0008322324017282331,-0.003054558649725659,0.00025087018891134034,-0.0003754793276096747,-0.0006725749719859629,-0.00037572530936044046,-0.0011885460287452633,0.5546875
-0.12604225468522884,0.6197463397682875,0.12476932428095767,-1.1436176058614451,-0.039697382988044434,-0.11725426331792065,0.05070356544967063,-0.006679331773777246,0.7628305559328123,-0.08638490034586391,-0.23039592654035254,0.07680558127321131,0.10189195976980257,0.013083880109795214,0.5625
-0.3157609498159589,1.5452578859294492,0.3113096500270437,-2.8531359485392374,-0.09952847290784647,-0.2942505013313381,0.12783955468133268,-0.017880697889112163,1.9036009362644986,-0.21578925732701493,-0.5731233509575602,0.19237335244930648,0.2543603948885086,0.03436370334302178,0.5703125
-0.1549952674712547,0.7632677039155882,0.1537656151606414,-1.4069575383848965,-0.04890584500378408,-0.14444091802223105,0.06269479102971803,-0.008400328214164915,0.9374103167743066,-0.10637824322153287,-0.28323717096099005,0.0946436903609014,0.12544631132211875,0.016364843687817418,0.578125
0.3179443477294254,-1.5420414323283045,-0.31039665739547206,2.8504028443452905,0.10015874944522357,0.2963192434223842,-0.12927652337424997,0.01951212429206653,-1.9043946521266852,0.21604381308211046,0.5702413715480468,-0.19308299625409314,-0.25416750199245114,-0.03663204933974592,0.5859375
0.5748306979836386,-2.7961468275843884,-0.5626039046965312,5.163870985407539,0.1811684556187722,0.5356657117583993,-0.23360650120973125,0.03468539824860322,-3.447370867417425,0.39133421681811686,1.0340720386801003,-0.34936361743825683,-0.4604511124097679,-0.06543289748421179,0.59375
0.3691499203194402,-1.7947471946907403,-0.36080090585396135,3.3133971450187185,0.11636890328974331,0.34398977180503365,-0.15015761409126302,0.02255812986838698,-2.2113999051204853,0.2511463664101206,0.6630905494778556,-0.22426339119840907,-0.2954680086088243,-0.04239919746104694,0.6015625
0.04808154074666046,-0.22880753102929388,-0.04578596975752059,0.42288408744135514,0.015161210623225611,0.04487893008180332,-0.01986062251789015,0.0036030719340702576,-0.28286757860242806,0.032181207412661145,0.08353338934427593,-0.02902254266162423,-0.037815550015630105,-0.0064194918285554355,0.609375
-0.01143127332936247,0.0624073680819597,0.012467935252131317,-0.1139022251119589,-0.0036307616133641725,-0.010486801565151855,0.00425509081112733,7.060813203832984e-05,0.07429304628538283,-0.008349271885421868,-0.024097523805071352,0.007133186523422981,0.009960570667392681,0.0002632164314014518,0.6171875
0.0551037504219069,-0.26228618495796785,-0.05295874111324453,0.4856178846497321,0.017314607368589387,0.051629603489997476,-0.022798966145955543,0.003989627745983879,-0.3257029289534276,0.037121113567360524,0.09613691367627034,-0.033353809523541326,-0.04347831560620523,-0.007190942543098018,0.625
-0.1335354685797974,0.656289197704726,0.13210168716008194,-1.2098304646141411,-0.042132240735010526,-0.12396115092100077,0.053720683005103714,-0.0071276046376423175,0.8068665714380029,-0.09152199912474673,-0.2438284247379724,0.08131533772119522,0.10778809553913535,0.01392563628282012,0.6328125
-0.523071381754,2.55495585456322,0.5143357551001883,-4.714516356579495,-0.16487122371801652,-0.4868334500779227,0.21179220744609106,-0.030100143222383167,3.14647169041928,-0.3572100512433698,-0.9465670968531025,0.31816872064641094,0.4203387964378,0.05755462404921771,0.640625
-0.6007822876276605,2.9341750326045157,0.5906219174801953,-5.415238522537855,-0.1893370944153488,-0.559405358418399,0.24336265004960703,-0.0346881848408797,3.613964172631427,-0.4102073019666522,-1.0869521644911195,0.3655090235386539,0.4828294136651078,0.06626867418188892,0.6484375
-0.1754375713604818,0.8612246832458149,0.17341518424579458,-1.5893593207791243,-0.055277264862845045,-0.1633661097794069,0.07085630063831155,-0.009595613065488976,1.0600913030602364,-0.12021502099028342,-0.3196339336531076,0.10700922155611424,0.14170860534259094,0.018634177182338642,0.65625
0.2438442876554209,-1.1818412939392053,-0.2377311691534944,2.182603199851453,0.07685186752620171,0.22716988464222898,-0.09915753093408922,0.015144695827197427,-1.4579594201957553,0.16553928015967204,0.43674389477431463,-0.14787096164781935,-0.19463190936229208,-0.028320925008407556,0.6640625
0.1769570621943531,-0.8550092869229289,-0.17195622211204017,1.5799253434362077,0.05574450597165571,0.16492031905533,-0.07194370893614038,0.011195073736685178,-1.056259241062572,0.1198532484407708,0.31583961020361845,-0.10721174469778116,-0.1409661771559032,-0.020811642994596886,0.671875
-0.09925825311566737,0.49100898954845545,0.0989360953085325,-0.9055993919504608,-0.03132505229815646,-0.09230190281987814,0.04011174665220375,-0.00510663707842609,0.6026832361098001,-0.0684241587919434,-0.1825332544241075,0.060698001087542086,0.08059411415580307,0.01013481047509943,0.6796875
-0.02568641691788058,0.13098709653816068,0.026523147199309344,-0.24206284691076044,-0.008119921953679487,-0.02367559529450602,0.010172795038852099,-0.0007561318018982855,0.1603219313038805,-0.018232148145309,-0.049428949167217,0.015881857568212095,0.02143814733241106,0.0018699134059327225,0.6875
0.31722411843777387,-1.5411005032344218,-0.3099781142261208,2.8451658652171816,0.09998640902893478,0.29578133401493917,-0.12905627058091423,0.019490500389751867,-1.899971384808888,0.2155439440841593,0.5695274755119608,-0.19272919511636064,-0.2538030329873797,-0.03657498234726575,0.6953125
0.3586604051757899,-1.7424770228400666,-0.3505614855507585,3.218132567394654,0.11306145612167903,0.33426469288298205,-0.14594245316411786,0.021930717290477235,-2.1489008445572617,0.24393608091376093,0.644102187264778,-0.21797724667516138,-0.2870512579313116,-0.04122562171429686,0.703125
0.029004896942278948,-0.13534769075374603,-0.027182954036443625,0.25140941071649026,0.009171861787229885,0.02704454067903594,-0.0122368374494097,0.0024643628312875283,-0.16839996605243282,0.019460375220192002,0.04907392168230226,-0.017514941695752233,-0.02251446837072178,-0.004287610419367591,0.7109375
-0.07965015925814689,0.3939235521087645,0.07929053787594732,-0.7257539316707681,-0.025074782602648855,-0.07415862752828503,0.03183262551243302,-0.003947823582431703,0.4841811789078139,-0.054577580948115344,-0.14687588780293256,0.04857069180041116,0.06464522008002564,0.00788718905222452,0.71875
0.2612217676159458,-1.2672140813744814,-0.25505579850349336,2.3422409557231387,0.08230415907174779,0.24348165664027854,-0.10645391661187309,0.016174139872390074,-1.5639590696074426,0.17752647677831923,0.4683335101901275,-0.15869191818583153,-0.20887629007494551,-0.03030312499907074,0.7265625
0.4278488101624844,-2.0785011312724326,-0.4182923653570051,3.841403987925625,0.13473876397050602,0.39875847131918796,-0.17401824229978738,0.026003615453343485,-2.5651762803587532,0.2909198900778989,0.7689074447932931,-0.2599710224777449,-0.34251376940665457,-0.04896716761155411,0.734375
-0.04914683126839467,0.24614611958944646,0.049701944377199,-0.4514370677004232,-0.015591159575305998,-0.04554823092828358,0.019581317458085036,-0.0021498228466101644,0.3003490952652212,-0.03414666429747386,-0.09192682016633794,0.030133841236900202,0.040275642224797945,0.00447840720476865,0.7421875
-0.6343207273902747,3.0969724997114265,0.6235734929794537,-5.717620278702714,-0.19991481945939607,-0.5905946446026414,0.2570846895177938,-0.0366740334589812,3.815840464402765,-0.432931970715838,-1.147826407844761,0.3859942187236929,0.509797115691575,0.07004268148094182,0.75
-0.6186339855014099,3.0201176398005916,0.6080701742444021,-5.577160953797009,-0.19490905563638328,-0.5759754844643293,0.25076475548519606,-0.035740936631492234,3.7218339788113655,-0.42231917373050365,-1.119485125921124,0.3764776562521586,0.4972023804914326,0.06829029959953987,0.7578125
-0.20305735697010105,0.995628006449168,0.200472039954204,-1.8381640710570082,-0.06398467911465518,-0.1889486184982712,0.08212823130092146,-0.011227675416550956,1.225610411883722,-0.13911437612084146,-0.36961957628021147,0.12380121329218473,0.16379190593006182,0.021730985772474638,0.765625
0.028923613100374893,-0.13430648920225036,-0.027054614353556626,0.24961268712317666,0.009075248026832686,0.027109075701791673,-0.012055933140667396,0.0024492505837154115,-0.16784844438451682,0.0191051548823601,0.048988890698570084,-0.01729432975553331,-0.022339107368880153,-0.004268153083616627,0.7734375
0.09807811053327158,-0.47177209353973043,-0.09497502111597159,0.8725370222904647,0.030898632806896083,0.09164207107967343,-0.04015908956466547,0.006538727632156301,-0.5833644219487352,0.06631732072614062,0.17384645918963934,-0.059464537734165546,-0.07789376452947852,-0.01201968711606905,0.78125
0.2664346786476078,-1.292677591961924,-0.2601406064410075,2.3872815850938713,0.08399347362001983,0.2485548237922378,-0.10847049923510005,0.016490287023049863,-1.594759736608953,0.1809898724203114,0.47768958825793467,-0.1619256257372175,-0.21301948748942606,-0.03086820545859193,0.7890625
0.34630883245493277,-1.6812833422372058,-0.3383578549238427,3.1052118673468088,0.10914392350801842,0.3228349474549548,-0.14084329378067562,0.02120088298295943,-2.0744277276737884,0.23533756906981151,0.621816444325112,-0.21043117859888044,-0.2770604802666431,-0.039800619130989395,0.796875
0.15156917997850683,-0.7312283699588523,-0.14719372049310786,1.3528802421204202,0.04773445262546966,0.1412245787402111,-0.061781141591577673,0.009693681744425992,-0.9044780024930443,0.10260533931264627,0.27043179546688784,-0.09186759425492559,-0.12074900788208313,-0.017982493324466976,0.8046875
-0.025808600687911125,0.13309657551338297,0.02681733625600296,-0.2420627050140655,-0.008172723930131581,-0.024068949354410802,0.010198658653845182,-0.0007731894409091308,0.16095103123640794,-0.01827476096389575,-0.0495477176270491,0.016051300274362763,0.02156529644419106,0.0018794183476694261,0.8125
-0.0011316055880833654,0.01151403751308179,0.002522370019635273,-0.019077079808373636,-0.0003831580797559003,-0.0010108234631271958,0.00012863298691892524,0.0006995995935203022,0.012612221447536473,-0.0014438182971356368,-0.00493308106208127,0.000977692043369123,0.001723093415135792,-0.0008935723680997577,0.8203125
-0.02722224284807282,0.13753611337107435,0.028001354939095946,-0.2541092098336019,-0.00858343925632945,-0.025255895607604974,0.010641354237057768,-0.0008316858810428126,0.16943365003983743,-0.01915394784586413,-0.05207377162514977,0.016751731147529612,0.022631429999763725,0.00202214132546323,0.828125
-0.15943467114427434,0.7819636146985489,0.15765241577546885,-1.4444387268739796,-0.05022963147545871,-0.14838248448930885,0.06427395737071219,-0.008640920263276912,0.9636635480303085,-0.10918616111112858,-0.2908257258332162,0.09711341371983978,0.12870834264770636,0.016825385780280915,0.8359375
-0.11528697601372825,0.5676138966552494,0.11440322140312734,-1.0474635438778053,-0.03632857111443521,-0.1071941914513598,0.0463979801912753,-0.00604569747511958,0.6982488705327099,-0.0791004954756019,-0.2113141997155429,0.07028351455647876,0.09331213082439815,0.011879569611161158,0.84375
0.0587472651003927,-0.2801743960720209,-0.05630406855936472,0.5179530901276463,0.01849126012443356,0.05497197053711814,-0.024212677273395194,0.004217048984517289,-0.3472511847158135,0.03951478923140755,0.10259223326692185,-0.035514618601034664,-0.04626638467022309,-0.007605024975345317,0.8515625
0.03051666481815544,-0.14291297622528118,-0.028736914086502578,0.2631661662534731,0.009607489949938099,0.028648064055457403,-0.012802553208528617,0.002545807841685953,-0.17747441028109448,0.020360474469092473,0.05150893727840794,-0.018340861935678632,-0.023604816563700868,-0.004437235226855801,0.859375
-0.12064024679676695,0.5934679211535796,0.11946940419306719,-1.0959461951446798,-0.038001384451511196,-0.11218996397548053,0.048516962343134476,-0.0063708682810104545,0.7303562264411974,-0.0826363406257763,-0.22116655114448294,0.07354465806057056,0.097569923290223,0.012479281966837105,0.8671875
-0.050148766386137696,0.25025619092927537,0.050466971238418014,-0.45897963334316927,-0.01581221710514992,-0.04648226980128225,0.019980293202583998,-0.0021998218127640768,0.3062400451880056,-0.034735204117219795,-0.09358087110860373,0.030656222878241768,0.04089808936401349,0.004564207364391188,0.875
0.1682997417336622,-0.8135842043684525,-0.16364324631000443,1.507081719673823,0.05298286329759512,0.15705449772407418,-0.06856584099695741,0.010692554170492757,-1.0061258246624103,0.11401352251827304,0.3007935394255824,-0.10213127343559368,-0.13431476121248082,-0.019893473389864053,0.8828125
0.200760543632136,-0.9711244335461373,-0.19548239560524963,1.795743443687549,0.0632170833325304,0.18724326402317085,-0.0816836934216068,0.012594323570760178,-1.2002026336661766,0.13613637688880056,0.3590443398402061,-0.12177066262911294,-0.16016669523104635,-0.023491008528989592,0.890625
0.0387016828449618,-0.1812818392448013,-0.0365773285266664,0.3347351598602644,0.012175083628748147,0.03620148085564311,-0.01591194096703186,0.0030245094417814308,-0.22586465905063868,0.02566824903480043,0.0663723957247727,-0.02317112773373222,-0.03005212960525955,-0.005316834280809356,0.8984375
-0.09183210332495784,0.45414272255639027,0.09143824975728185,-0.8380056578031144,-0.028955124846345742,-0.08537718263599486,0.03703611813731634,-0.004663372798300017,0.5579549723000221,-0.06338768215014917,-0.16877742517472358,0.056157041422828374,0.07455465698926218,0.009286072511166598,0.90625
-0.11120872709677998,0.5475232671309532,0.11036238323019942,-1.0088700731260056,-0.03503928140559594,-0.10335209016687057,0.04483262390131113,-0.0057889199295515364,0.6735075488034229,-0.07655330787983963,-0.20326867641706706,0.06783788236030315,0.08992969059922987,0.01142446251805077,0.9140625
-0.07109582696495136,0.35152048326102864,0.07094170983694263,-0.6474675082201387,-0.0223572028611266,-0.06599831052738879,0.028466001174487734,-0.003421465945735237,0.4322200261620838,-0.04902560171612898,-0.1310411057351011,0.043383147909861045,0.057728593690805616,0.006919234945242965,0.921875
-0.02958311435345301,0.1495140859279921,0.030353914810624907,-0.275654204459369,-0.009307498556500177,-0.027420391887751912,0.01156804360548035,-0.0009814177704731287,0.18292312688784612,-0.02068145250624594,-0.05651224865941815,0.01815753143605772,0.02453565763421364,0.0022771536732452977,0.9296875
-0.03425508163851103,0.17274001520748944,0.03510197297776699,-0.3179970129669116,-0.010873080449183932,-0.03177788415205707,0.013451430324804512,-0.0012614103959524218,0.21088992439623094,-0.023992006859352984,-0.06486301721024262,0.02103774624926262,0.028349021405782104,0.0028079532583230177,0.9375
-0.03508502622414569,0.17684866606352834,0.03575220132661229,-0.32443348867901695,-0.011138498470065152,-0.032426510086123156,0.013774896781121865,-0.0013107921725848389,0.215834923074973,-0.024560044514617213,-0.0661039194635405,0.021527474587999047,0.028951226706533214,0.00290053032986098,0.9453125
0.06930006444587575,-0.33174208429781354,-0.06693767683062066,0.6145124106019644,0.02185184066906964,0.06487454935846114,-0.028574513960658895,0.004845164075095677,-0.4106995935827865,0.04673720533590826,0.12210274661144317,-0.041976996715218526,-0.05486718074623368,-0.008787850650980922,0.953125
0.17608638045542147,-0.8514006347590394,-0.17157829932073368,1.5734061254178904,0.05552888086380781,0.1641977152082754,-0.07182260600663731,0.011141491784294797,-1.0513376617128534,0.11951719226889053,0.31439912713419155,-0.10685570263210627,-0.14047333175884943,-0.020731800480821284,0.9609375
0.06276052508722575,-0.2982842193337791,-0.06000868244206804,0.5521655665985905,0.019747459211608774,0.05840216615765567,-0.0257277174765378,0.0044521238478695555,-0.37005606331072655,0.04212238284232114,0.10968922251029917,-0.03783926720589398,-0.0494033375231803,-0.008021598749228082,0.96875
-0.1905802459185727,0.9361259428092881,0.18855806857174312,-1.7273802882517826,-0.060083413964570134,-0.17763698325997593,0.07709689916255895,-0.010496948512091648,1.1517803715603432,-0.13051717786924782,-0.34753258642234897,0.11621778867018719,0.15388946545513588,0.020349380903120516,0.9765625
-0.23232000754872856,1.138190728711851,0.22914804357994245,-2.102063154218418,-0.07314052773066183,-0.21634507939273565,0.09397611371695952,-0.012957178527401034,1.4021817466413606,-0.1587586621232725,-0.4228820994394894,0.141498129995559,0.18726285301810802,0.025000766155214883,0.984375
0.045178078579522406,-0.21548155996094032,-0.04322666564939253,0.39593585216469507,0.014315190957658338,0.04233250575263504,-0.018663254858218778,0.003424121145877695,-0.2652639715710849,0.03039314268347763,0.07802519151113214,-0.027297087286515337,-0.035492913217540875,-0.006099268703572628,0.9921875
0.33211528387660644,-1.614208699041814,-0.32449732908705753,2.979123033882871,0.10462764650052775,0.3096732885716568,-0.13508742931183626,0.020362734693559655,-1.9895152752960124,0.22576187121027408,0.5961406740419873,-0.20174345119757092,-0.2657430631927246,-0.038243361168300995,1.0
0.29639841820045326,-1.4396786775753185,-0.28935500453588175,2.659152599588251,0.0933241115520716,0.2763998805854927,-0.1206044494385228,0.01825684615256439,-1.7755412165069429,0.20133473384715234,0.5319539227399525,-0.18001651894823176,-0.23709778570161966,-0.03424624744133821,1.0078125
-0.01853736230439501,0.09614826355807969,0.019463555124163433,-0.17430558651966588,-0.005863490501843652,-0.016966100805523823,0.00716263639146588,-0.0003317889030208151,0.11600926695736981,-0.013256457322215892,-0.0362355645643578,0.011453257105988853,0.015607578575355984,0.0010298688808220396,1.015625
-0.24312137293726713,1.1921174065816857,0.2398241501951079,-2.196565244947334,-0.07663271477973305,-0.22622839245131837,0.09831330425687537,-0.013592977707574196,1.4652659059578879,-0.16639944549413324,-0.4415069163184431,0.14804740448039003,0.19592301117080352,0.026203739935097482,1.0234375
-0.13806228269498036,0.6812218746286991,0.13701632748780404,-1.2529200372053744,-0.04361219596863949,-0.12845956556334298,0.0557253695240837,-0.007401157688310885,0.8345167781342245,-0.09496627108181475,-0.2520717600013953,0.08424794372186509,0.11174396533962959,0.014459851200459306,1.03125
0.07824378242283299,-0.37356485381369575,-0.07520882507324862,0.6937272382709216,0.02454105040562427,0.07305552460278418,-0.032064795541879555,0.0053652129643208995,-0.46475762108255164,0.052489990005105125,0.13816369979219628,-0.04728255968104419,-0.06189263663226814,-0.009768699811172921,1.0390625
0.0622443947804118,-0.2976581929718187,-0.059880224650403165,0.5514147259490411,0.019614893644149565,0.05827263402682647,-0.0256383583314842,0.004435443699870705,-0.36872358505311964,0.04179084428128224,0.10945940351741554,-0.03764675233097058,-0.049252303839984725,-0.007997433044778826,1.046875
-0.1200610472812136,0.5896008074196157,0.11881294850863129,-1.0888571989039075,-0.03776023945434569,-0.1115449800512833,0.04830795722503162,-0.0063114027924932765,0.7266365322774354,-0.08236491993436315,-0.21943034906596712,0.07315944890440904,0.09698413563347763,0.012414068319788743,1.0546875
-0.159192270762384,0.7811198224976175,0.15741835694129008,-1.442870305475813,-0.05014757919379622,-0.1481215381091736,0.06420065244295572,-0.008629544938977565,0.9622235685507691,-0.10905359729413423,-0.2904658226909171,0.09698877417593336,0.12851638303047672,0.016810596252000744,1.0625
-0.04441497806767121,0.22286761053531726,0.04491954458902984,-0.4115659684141298,-0.014031466442222279,-0.041231862660351615,0.01763765105708583,-0.0018756564547914786,0.27306389195231207,-0.0307633729025062,-0.08386585606725572,0.027230734223086937,0.03650156625499086,0.0039661383509987415,1.0703125
-0.00510425530677817,0.0310168728474819,0.006197041523782529,-0.05762021084503886,-0.0015926259573036275,-0.004543327625993177,0.0017025221023769528,0.0004408690828248787,0.03699488489137006,-0.003873362316378862,-0.01285644977827222,0.0033374084107453336,0.004940851695258681,-0.00044048489859361525,1.078125
-0.07874206207637177,0.3891638647776978,0.07844974004191999,-0.7194158825404575,-0.024741835025057585,-0.07320992494715713,0.031613169033139314,-0.0038883074765661283,0.4794622832867868,-0.054102365905730025,-0.1452812674091844,0.04813257245745523,0.06405559377633968,0.007800762334999468,1.0859375
-0.10579511931552639,0.521347131402521,0.10524133102185887,-0.9620744362567839,-0.03330629552354583,-0.09858630716198757,0.042589086689718794,-0.005472536553931805,0.6419419388436817,-0.07266393763518877,-0.19392376862886404,0.06458404152992309,0.08580981639888752,0.010827758209229568,1.09375
0.019637635081823184,-0.0890222429497533,-0.017757254591276975,0.16739212721443794,0.006159596026845849,0.01826425946742953,-0.008323949305553146,0.001923534095765863,-0.11187983937085494,0.012760307456566734,0.032304402513786176,-0.011712519051932156,-0.014903210995768626,-0.0032272374152851314,1.1015625
0.2702628129725831,-1.310285510794859,-0.2638216288747916,2.4223601013446094,0.08514975141058011,0.2518928387937233,-0.10996348790516285,0.016701769480076855,-1.6174392238590354,0.18354851692897034,0.4845035200365547,-0.16408835422998302,-0.2160878695313851,-0.03130384625846335,1.109375
0.44522888569176994,-2.163740977565979,-0.43551339183445104,3.9953928197800015,0.14031951917498006,0.4149261709304875,-0.18087884327123777,0.02702573442135351,-2.6680576560010385,0.3027791008587842,0.8002210527722307,-0.27042397063148477,-0.35644121957835967,-0.050896485718858964,1.1171875
0.298912519938185,-1.4515305399019967,-0.29185888285561856,2.67891740426112,0.09418355539114287,0.2786072374614869,-0.12156270712513191,0.01840018404266023,-1.7894463145236172,0.20309510829626892,0.536185208806788,-0.1815025723320012,-0.23901985341639778,-0.034503204012514395,1.125
-0.04141472388699595,0.20685703955864992,0.041955577719736785,-0.3809639460175989,-0.013114286364994085,-0.03827169135837531,0.016384371765646912,-0.0016767704546887842,0.2534648405258943,-0.028820333761274665,-0.07776417725095601,0.025296495209435166,0.03392719589281049,0.0036077208260706117,1.1328125
-0.14644699950127105,0.7195898407672334,0.1448683887248088,-1.3251223880641685,-0.04621419985689961,-0.13595851948425589,0.05898828002357125,-0.00788061652681046,0.8836387012817118,-0.10047492281710844,-0.26712388273033094,0.08914473842206555,0.11816520641925839,0.015366608804842414,1.140625
-0.011096928376169499,0.061378034166909214,0.012233887330120582,-0.11016041069705716,-0.003534924042758978,-0.010025442706113231,0.004195364228150747,9.326492886298267e-05,0.07172728725658707,-0.008307054583901952,-0.023104874644453436,0.0069960021689688375,0.009792725645290858,0.00022407620846166522,1.1484375
-0.08656936184935841,0.42988492906824527,0.0865399675654218,-0.7919959905843009,-0.027325045600459025,-0.08059761331277807,0.03486056435412747,-0.004366078566554647,0.5263129015858229,-0.0597143063173257,-0.1596145035559136,0.05296813958708724,0.07055263365212847,0.008698857696322896,1.15625
-0.3904925905038086,1.9105033150515192,0.3846730548863714,-3.5251646895657376,-0.12312931955601532,-0.3636958482219291,0.1580848337061891,-0.022293884004083685,2.351357366635449,-0.2668061042359086,-0.7078846729035372,0.23767179930380616,0.3142836546630397,0.042732306565763496,1.1640625
-0.4259119330157172,2.0821539322460416,0.4191729563554819,-3.840770225288776,-0.1342877142766278,-0.3964937818148528,0.17241008047060055,-0.024378396884011416,2.562923913869187,-0.29094821676346566,-0.7714575992391154,0.25914013803965763,0.3424504927890088,0.04667228793939672,1.171875
-0.13230481030484575,0.6505320393807286,0.13099398957955316,-1.1986551923438586,-0.04171251775810362,-0.1229866407502618,0.0533322022925361,-0.007055879266796241,0.7995919636926612,-0.09075646459778798,-0.24176918691292704,0.08069116004104213,0.10682829186092387,0.013774808785451892,1.1796875
0.04060541574341979,-0.19281126960496364,-0.038666693543305174,0.35569627950915544,0.012841575050979409,0.037942457509046144,-0.0168059656417509,0.003149875951009195,-0.23778439452066022,0.027243181406434367,0.06995979968412186,-0.024396545613700846,-0.03181444828110137,-0.005585963226892383,1.1875
0.041405492087305464,-0.19720636721939822,-0.039511406078273456,0.3629089355218613,0.013131311130675534,0.038700133236021436,-0.01716232407977189,0.0032130410874125835,-0.2421910474746643,0.027772959657111115,0.07160571279459127,-0.02495689626620439,-0.03245468194739801,-0.00567044636263994,1.1953125
0.19457959763643884,-0.9436250876398532,-0.18979443340521548,1.7417829449286755,0.061394907905348725,0.18151012382693116,-0.07929752656345884,0.012261857756184668,-1.1625502525991336,0.13202235237175267,0.3483354167430949,-0.11812519001367314,-0.1553929968495105,-0.022819161503998358,1.203125
0.37357368051513534,-1.8155882270324628,-0.3653073331596545,3.3512033030797443,0.11777232427896271,0.34824931276312066,-0.15189843744910467,0.022813130454681342,-2.237491290415476,0.2540456254290722,0.6710708433110041,-0.22688368253510477,-0.2989488669587916,-0.04284924605236901,1.2109375
0.19378528558162145,-0.9390728844015893,-0.18888666426233652,1.7318102734013434,0.06109466159168537,0.18070199989882274,-0.07901380742630516,0.012188117145465428,-1.1572700475348705,0.1316734231805685,0.34615297500670206,-0.1175560805520232,-0.15462340467668628,-0.022703043864203274,1.21875
-0.15425960024009563,0.7578324772289551,0.15254440142730902,-1.3995218518712993,-0.04860108287120659,-0.1434910145321503,0.06213065631941538,-0.008350968330108977,0.9326447446668937,-0.10559486061794222,-0.2818301437868957,0.09395410168317417,0.1245964938303268,0.01626471988660514,1.2265625
-0.16720770733761908,0.8219891328212838,0.16537466284042104,-1.5143795670633091,-0.05271586866571639,-0.1555546660580311,0.06743938276701361,-0.009108875300566352,1.0095202093826174,-0.11466355127877113,-0.3047849820978944,0.10178459615788296,0.134938670464149,0.017697589813276897,1.234375
0.13077289997201194,-0.6299453277859148,-0.12670710629401952,1.1675395653230014,0.04114693705486281,0.12186184708389476,-0.05334687183464509,0.008475031560311326,-0.7801995447511495,0.08836847544974726,0.23296193014198602,-0.0792939256166179,-0.10409815506588503,-0.015679516245983786,1.2421875
0.3377979024632792,-1.639553479614575,-0.3297179478732228,3.0299779288114257,0.10637787933613581,0.31458482775162816,-0.13731293909814238,0.020689219673549034,-2.0231157002145093,0.22959317283457117,0.6062670577835062,-0.20509827540289638,-0.2701363601113542,-0.03886796176039541,1.25
0.3148904203340041,-1.5281139306149505,-0.3073816982516109,2.823457919691786,0.09917694607329212,0.29336962893718865,-0.1280429677561379,0.019336889091902995,-1.885698692823527,0.2139638147075495,0.5648791462376146,-0.19120605833221238,-0.25175199332825754,-0.03630715752839819,1.2578125
0.1415388438914584,-0.6825509953654637,-0.13743801894402424,1.2633412875452672,0.04454994871435481,0.13210400443794926,-0.0576899486271351,0.00910272130462931,-0.8450508971248137,0.09566993463748974,0.25225209812813776,-0.0858144460751787,-0.11267558661901467,-0.016880633632621662,1.265625
-0.1514933802968278,0.7458999329797011,0.15005699814095888,-1.3735470614718375,-0.04782148108143754,-0.14082253371280168,0.0612191991640557,-0.008196161500812238,0.915049748553985,-0.104038363367222,-0.27640961802253294,0.09240707731648223,0.12244774605046839,0.01596226307811197,1.2734375
-0.4350138977683494,2.127029064094985,0.42821946145272,-3.924374691115948,-0.1371824714553182,-0.40501608005552137,0.1761857216646943,-0.02492468879189643,2.6183613582705063,-0.297135153951091,-0.7879741785833234,0.26477167352981207,0.34991367203424434,0.047720637999988706,1.28125
-0.4680480552206046,2.287337734385674,0.46052500620736464,-4.2213820431788855,-0.14755310552518358,-0.43578899812419236,0.1895044322876388,-0.02686408293640635,2.8168338604741066,-0.31960766585937544,-0.8475042033046142,0.28475878250518805,0.3763652371993642,0.051405413233008526,1.2890625
-0.2405932059800693,1.1783290940653128,0.23720967353661074,-2.17525109554266,-0.07579758786035565,-0.2238126012795135,0.09720449117551057,-0.013436564338547253,1.450709682651119,-0.16458658342750404,-0.43708760651972817,0.14643846562513899,0.1938149271344745,0.025926744802377194,1.296875
-0.007395873003720728,0.04084790208303589,0.008284879780594674,-0.07716959358006269,-0.0022528424182921437,-0.00653662818721996,0.0025875198025152295,0.0003255016849786945,0.050393125112509436,-0.005540480108520294,-0.016444193360453777,0.004700054978504332,0.0066400881141521,-0.00018718138697507096,1.3046875
0.041649079826276,-0.19930937899564377,-0.03988703029985557,0.3653354080448806,0.013208018443634143,0.0390950489195538,-0.017356346597012323,0.0032266230948234565,-0.24408259526384815,0.02797921958897292,0.07199468971543044,-0.025129257570260636,-0.03281341883585637,-0.005696244873349336,1.3125
-0.08501046422739253,0.41778367081936746,0.0844305388241735,-0.7730376119150636,-0.026725240848770527,-0.07898809637404945,0.03403776662682365,-0.00423873978232347,0.5164320502193713,-0.058423135841950836,-0.15649311424256218,0.05185698538892974,0.068776644450228,0.008468222074365372,1.3203125
-0.22145869205298652,1.0835231450336653,0.21840401584729272,-2.0011901084221178,-0.06973440242589367,-0.20617209041442572,0.08950613999457924,-0.012294181211714385,1.3360479164232775,-0.15149947013651577,-0.40277334856313807,0.13490469153903256,0.17837534888036108,0.023760539555827492,1.328125
-0.1043895440309495,0.514028657118412,0.10365003160164768,-0.9490604475977718,-0.03285908074761864,-0.09714835338199158,0.0420822888115214,-0.005401169105568894,0.6331398665155502,-0.07162603906647487,-0.1917444061264408,0.06380783512353591,0.08462376786686392,0.010674275230608835,1.3359375
0.3134588298466882,-1.5209477065636228,-0.30614776749537514,2.810273470595791,0.09877072695700821,0.2921007279648832,-0.12749795657141286,0.0192438295668108,-1.8769332796619218,0.21322184374128986,0.5621716206467209,-0.19033791907027095,-0.250543397151627,-0.03612655345131385,1.34375
0.6387727316470454,-3.1047292788969694,-0.6250915224326625,5.737221643133462,0.20123715066137857,0.5951349415272343,-0.2595189645501165,0.038436809528830586,-3.831412566883952,0.434780042691804,1.1493465653002992,-0.3882447914726675,-0.5115399678005176,-0.07257900618102209,1.3515625
0.5335641511441269,-2.591380957481985,-0.5217399976367896,4.789517710947847,0.1680685020600273,0.4970868037519746,-0.21674623222369113,0.032227531249682036,-3.199187609625029,0.3628616210110593,0.9596331934719209,-0.32418980859468116,-0.4271047360118357,-0.06078702295349747,1.359375
0.2406738211060091,-1.1648975893190123,-0.23446941841699281,2.153286856467463,0.07577810259487434,0.22423569821441178,-0.09784738603039378,0.01494559693013528,-1.4392385534020753,0.16322068755822788,0.43106882406010755,-0.14596848604532442,-0.19211337497128392,-0.027957150817310355,1.3671875
0.1142250987548964,-0.549764194569734,-0.11059530324867144,1.0162554500525396,0.035933833407566444,0.10651098042728972,-0.04662473538872742,0.0074919775482803,-0.679797750593643,0.07713688255559573,0.20283745246298315,-0.06915071675860728,-0.09075664904112385,-0.013789336769855241,1.375
0.015269663703856634,-0.06784864914617367,-0.013634364134210094,0.12746272136913933,0.004763006684457495,0.01443910470906082,-0.006582826241540773,0.001663612829697871,-0.08620392087842865,0.009716481770404899,0.024431152791632934,-0.009143796977815932,-0.01148842281473751,-0.002720808337681516,1.3828125
-0.2331718463233222,1.14252413610651,0.2300483267874222,-2.106819659191736,-0.07349689714383004,-0.21690393481203424,0.0942155510624769,-0.012991205954941966,1.405585924057968,-0.15962739650535518,-0.42358094387299133,0.1419097703908643,0.18779297306252882,0.025093526806846032,1.390625
-0.3585613665409688,1.7525257961976226,0.35301975259537327,-3.2344236228886323,-0.1129994038424269,-0.33366166903084793,0.14511443558905857,-0.020390709896594948,2.1587629353838254,-0.24501297536853525,-0.6497007876193137,0.2182282357565213,0.28841157665863604,0.039128215886613,1.3984375
-0.2409535715802877,1.17860675263173,0.23758984701080346,-2.1759562325103388,-0.07596089805990751,-0.2240998413896208,0.09735098564997202,-0.013452583147712308,1.4523582637245402,-0.16473878677048512,-0.4376057489888754,0.1466792209292192,0.19405013940010124,0.025944098850461044,1.40625
-0.2856536474611974,1.39681255403911,0.28135532331486657,-2.578566833897543,-0.09005317934235695,-0.2657618546802949,0.1154424071328554,-0.01609313566658492,1.7207925121840992,-0.1951831684087624,-0.5184503240143731,0.17377767197757518,0.2298780752195641,0.030952097821052373,1.4140625
-0.5704920847770913,2.7857076005797587,0.5607193663535873,-5.142505086161381,-0.17977994161868152,-0.5311505326140684,0.23105435842603994,-0.03290630730185116,3.4319098605155163,-0.3893925958215604,-1.0325047202077466,0.3470381661699828,0.4584072256109862,0.06287387265399014,1.421875
-0.5060385005121854,2.4719509882677504,0.4976119904949474,-4.563970784422419,-0.15945162254778233,-0.47123710278538733,0.20498867055570272,-0.029108454404211212,3.0454275412149125,-0.3455265401800805,-0.9163086409496949,0.3080149635375175,0.4067914087843066,0.05566871817178262,1.4296875
0.057361502970868825,-0.27345933417050555,-0.05479181153578068,0.5037518915119144,0.01806938312856568,0.05339505874850122,-0.023552335272307663,0.004133800297171448,-0.33775081750369934,0.03846852151025075,0.10006266792646142,-0.03447188384066653,-0.04507564296673492,-0.0074369188462573834,1.4375
0.4198335311173562,-2.039456940453925,-0.41026860056663034,3.7644324608275093,0.13230428632127647,0.3909554255688571,-0.17061271021429245,0.025522826042739314,-2.5144058103516596,0.2855643698164811,0.753962481375661,-0.2549104866539972,-0.3358237236227077,-0.048041740678838867,1.4453125
0.26387233730751836,-1.279221764769717,-0.25752916379301966,2.362432581973033,0.0832272130749415,0.245812836825729,-0.10734821097712885,0.016323793651940904,-1.5780758215777704,0.17932192979003903,0.4726815627617809,-0.1601657947221132,-0.21080415960267024,-0.030576372602258223,1.453125
0.15736245547630942,-0.7604809965493518,-0.15329485208598506,1.4062494823838776,0.04969930569879073,0.14683048015742478,-0.06415746830068549,0.010044628005667265,-0.9394916513776481,0.1067436209613159,0.2807125668511927,-0.09548415550345757,-0.12550247627912875,-0.018649930408084183,1.4609375
0.39752339349257715,-1.9311257474675059,-0.3887826903662171,3.567920367289105,0.1253160375710268,0.37064104464026404,-0.16162574233523758,0.02421973203712367,-2.382840156020028,0.2703777614483574,0.7141389955227806,-0.24157031850475813,-0.3181937493548235,-0.04555149412811682,1.46875
0.5362420114801363,-2.6071338842813816,-0.5246304673242278,4.815903863323883,0.1689444530843338,0.49981641378262,-0.21794018381670185,0.032406986324175685,-3.216127654092015,0.3648557528720167,0.964528368642674,-0.3259373404882733,-0.42940601522620586,-0.0610921084980089,1.4765625
0.3430858660118472,-1.6659375196680701,-0.3351253396967009,3.078643065877745,0.10805551013701474,0.31984426692677587,-0.1395949562278085,0.021009949812116617,-2.055746684751375,0.23320330697653083,0.6161537081741355,-0.20846323872643152,-0.2744392890982514,-0.039467742970860864,1.484375
0.09014061447396327,-0.4333684337721852,-0.08704744318505232,0.8032798768089094,0.028345011802197246,0.08417375125620517,-0.03695116255179446,0.0060777706733492025,-0.5361193948113991,0.06086357062504092,0.15967958966898962,-0.05458762453598379,-0.07156168059699691,-0.011141098211767052,1.4921875
-0.1746981296404512,0.8577052058627782,0.17282540898583926,-1.581058910957557,-0.055157138000407044,-0.16262440630522365,0.07054421355787938,-0.009564598156927912,1.0552177985788187,-0.11960554744555087,-0.31847870107520554,0.10652362254897167,0.14094899530590532,0.018540085017037935,1.5
-0.5317405929013777,2.5982104544122,0.5231012575430732,-4.79528782662548,-0.16770416984748363,-0.4952285719318085,0.21541193876657086,-0.030639440439043934,3.2000631556827517,-0.3630069199589765,-0.9627562347096265,0.3236172734894854,0.42747942472024075,0.05855464680595463,1.5078125
-0.6072363635083693,2.9657714092371603,0.5969896571168295,-5.474169508796692,-0.1914477091741958,-0.5653833143517217,0.24601425923744794,-0.035079645072490354,3.652927990635285,-0.41458673530487,-1.0986619468255379,0.36943185358064523,0.48802064187284316,0.06701224506364799,1.515625
-0.15452611108495173,0.7586882290096383,0.1527508559750808,-1.39991431768781,-0.048705711706911466,-0.1435169078891912,0.06234188586937594,-0.00834663883823693,0.9330698715441009,-0.10613393013813649,-0.2816556887112846,0.09410390220998834,0.12472863198667312,0.016294236938795295,1.5234375
0.2753766126762571,-1.3366127107606867,-0.26891707841753826,2.467441545051257,0.08680937563497872,0.2568477498234348,-0.1120565540363158,0.017022665064531005,-1.6487472111619546,0.18691622250120493,0.49383222663473064,-0.1672591092179417,-0.22016938019106697,-0.03186000747435334,1.53125
0.19121617848105726,-0.926140417815047,-0.1862796026861818,1.7092435017209857,0.06030732810936601,0.17817698442197932,-0.077929649143913,0.012045776428091466,-1.1422507116456904,0.12973430914897316,0.34184989173959374,-0.11601802473979002,-0.15256667778718153,-0.022436232770538123,1.5390625
-0.054634471038538,0.27203903773915417,0.05488287742597356,-0.5022359928715762,-0.01714035843600325,-0.051000480728352345,0.021793951189843633,-0.002465895693501108,0.33474921839421123,-0.03770935729717238,-0.10160127991317737,0.03350902220142277,0.044706252186226446,0.005085357074990546,1.546875
-0.10484253680881346,0.5166668926907216,0.10415524187540423,-0.953281891519777,-0.03296967164631765,-0.09769499796443445,0.042198116172422896,-0.0054271857192279204,0.6357472933221324,-0.0720049382254347,-0.1921372229238902,0.06404712847772906,0.0849521203438669,0.010702660442734938,1.5546875
-0.194761744161709,0.95522220083418,0.19241193509171814,-1.7626278027130264,-0.061360434998352496,-0.1812632616368689,0.07870267452298914,-0.010735342767623803,1.1753272654955313,-0.1333877417420715,-0.35457179604798644,0.11867812211951864,0.15705216777845024,0.020790354425410027,1.5625
-0.32243655704624463,1.5778073862680686,0.31761727267841405,-2.9114185889725563,-0.101623072346076,-0.3000717217713151,0.13045658076002487,-0.018272209974154584,1.9423897106599062,-0.22031039513564668,-0.58510075829001,0.1962263061113593,0.25947268360605646,0.03510389865003767,1.5703125
-0.05822406969683492,0.2903371985433382,0.05839916006957495,-0.5337978747640628,-0.018335762471717115,-0.05397115007086301,0.023254199957406945,-0.0026814959591335316,0.35595013520779606,-0.040099131587065774,-0.10841451813064581,0.035565827120962394,0.04754245454722609,0.005504623053005061,1.578125
0.4263859611513842,-2.0710062888621406,-0.4168835451334762,3.8258881024996385,0.13438405200146467,0.3973862896133995,-0.17326793527998965,0.025911791242068393,-2.5547536656971013,0.29008930753922246,0.7659050036635334,-0.25900439849293017,-0.34118749278380517,-0.04878068354623714,1.5859375
0.4627309335048866,-2.2478421010247436,-0.4524618278569418,4.152211764994239,0.1457839627105651,0.43124364212495925,-0.18797730452530373,0.02805145542636306,-2.773655191739517,0.314653690263598,0.8314228163821484,-0.28106882071344746,-0.37036845646476985,-0.05285098311435816,1.59375
0.13410067146678,-0.6469538338130967,-0.13019453793044738,1.196375451133004,0.042178494083620274,0.1251499568526817,-0.054752922246918544,0.00866132910299834,-0.8003092909096947,0.09068968109709934,0.23856608980337027,-0.0813310898320488,-0.10681759714970807,-0.016050810603259916,1.6015625
0.06301636747011821,-0.3015718005916176,-0.06053789858529283,0.558206112981204,0.01978000578812229,0.058893708882827044,-0.025986180730197823,0.0044735976015188575,-0.3732437645098001,0.042402210641677866,0.11047256399973585,-0.038138699675522476,-0.04980589441612597,-0.008098200506931113,1.609375
0.13675322713221674,-0.6610829709071051,-0.13275507798171884,1.2215642214298723,0.04302041016622828,0.1275184573661409,-0.05583031571098911,0.008827660070321217,-0.8159006229786742,0.09264559348853114,0.2436635590408389,-0.08288520285952954,-0.10886830929476124,-0.016346558268801867,1.6171875
-0.14981939154544707,0.7356082453815206,0.14838841483954626,-1.3570045647329476,-0.04728880464528431,-0.13938682744735667,0.06048093783011536,-0.008079663834890036,0.9050480217514902,-0.10279115557622187,-0.2731893702911221,0.09137956110317579,0.12105217669082184,0.015763862845664296,1.625
-0.478351247916342,2.335910103209981,0.4704144515049788,-4.311802189327394,-0.150776456501238,-0.4453134483528729,0.19366435348680638,-0.027457578421196154,2.8779472778192994,-0.32664173226320714,-0.8657707196753124,0.29101237611700514,0.384491123648174,0.052548028535718834,1.6328125
-0.22776144739399554,1.114243141255519,0.2244075951850962,-2.0568985960633053,-0.0717403958530374,-0.21186817164666674,0.09190957038056284,-0.012668586971832761,1.3732041516931237,-0.1556829870347872,-0.413714890084433,0.13857973722156142,0.18337974803563437,0.02446371370729279,1.640625
0.28656372212798875,-1.3909170925656575,-0.2799622122340143,2.568563378192204,0.09035791460334332,0.2671533891400614,-0.11667256843741197,0.017669095097449742,-1.7151554194588199,0.19483359322180557,0.5139994223371755,-0.1740408326747461,-0.2291559763537679,-0.03312775794698304,1.6484375
0.34494515826978633,-1.673819135892007,-0.33699604266819344,3.0917665047878695,0.10873411079281362,0.32148115483190765,-0.14022672030128025,0.02110485765428876,-2.0653866115799793,0.2344489993936684,0.6191929416279067,-0.20943530079257508,-0.27589723927469517,-0.03963614533921761,1.65625
0.03363122312527812,-0.1567745173697817,-0.03160100854230675,0.2906022741423593,0.010628980786135033,0.031482279668803105,-0.013912648683484106,0.002741362327190791,-0.1956200744259036,0.022196929702862613,0.05753101830282787,-0.02017607257746657,-0.026124574989768296,-0.004761089556185274,1.6640625
-0.1221183478974575,0.6015787020326653,0.12115187459192703,-1.1103001691677485,-0.038448862066628876,-0.11362598761377557,0.04921374745990506,-0.006440904838090748,0.7396849953362622,-0.0839381291794643,-0.22345443348464467,0.07447184355260852,0.09885964188017228,0.01267031380832329,1.671875
-0.12135538190602989,0.5983812835788126,0.12052944437307365,-1.103197849360262,-0.0382479888155722,-0.11295095442417052,0.04889071583067711,-0.006400609622502714,0.7348612641573514,-0.08344901874224238,-0.22206329786378687,0.07403034626978572,0.09829417235800676,0.012578397802383609,1.6796875
-0.21180580613681962,1.0398425182650959,0.20933135456660235,-1.916068891391801,-0.06679490982426844,-0.19719250847060543,0.08562712922874585,-0.011746561226917904,1.2778285676421948,-0.14510286040152512,-0.3852465735497732,0.12905904619268693,0.1708119118958009,0.022707774866981077,1.6875
-0.24400425753265667,1.1961088526289927,0.24079670060761166,-2.204855647712886,-0.07693192444919668,-0.2271616002554352,0.09872232333751786,-0.013648363591865883,1.471242056276287,-0.166923813116601,-0.4435118099523784,0.14862614713550135,0.19656318766728426,0.026304822000651585,1.6953125
-0.019810605979385783,0.10256795540041029,0.020791710459792632,-0.18843530998322888,-0.006253459159169915,-0.018363207191702532,0.007763059255883783,-0.0004187801377308828,0.12503105146983026,-0.013986585060880444,-0.03934532600557221,0.012294799042661921,0.016737914904750156,0.0011849144798219992,1.703125
0.1994203421742346,-0.9659501468714916,-0.19421086983202746,1.7829639572391547,0.06283177681610001,0.185812855040344,-0.08121661583183726,0.01251783490208407,-1.1916900206481629,0.13543973440780777,0.35611118225551613,-0.12102416811389331,-0.15906876406995898,-0.023369331410678346,1.7109375
0.10496537876591186,-0.5057044933069704,-0.10162953886044718,0.9340679501802565,0.03305926952971408,0.09792496631313975,-0.04295269732464234,0.006949757023286096,-0.6249509347973922,0.07100042409838499,0.18604048230425338,-0.06365130808674113,-0.0833700054568698,-0.012787914444330802,1.71875
-0.10078423998346504,0.4964165922326739,0.09995463555331031,-0.9149579218180799,-0.03177531089562677,-0.09352675647658806,0.04047307549987316,-0.0051849405414705185,0.6102064916745298,-0.06926031320987913,-0.18475867827964862,0.0614081458972878,0.08152969428474428,0.010252680818549572,1.7265625
-0.03227844266644512,0.16234588884762083,0.03267892670286087,-0.2978877390393712,-0.010206408040535585,-0.029603629633801136,0.01265943095304174,-0.0011455430541968414,0.19870094972973767,-0.022568946595695333,-0.06104652657260983,0.01980055588450554,0.02654180959156656,0.0025758538256992827,1.734375
0.2294651023888292,-1.1128642330714518,-0.22388248307801148,2.055876744689927,0.0722481850705217,0.21411756374800578,-0.09352120611292661,0.014293106330292451,-1.372878787871284,0.15583074052548848,0.4110502900352931,-0.13926544987138118,-0.18333257908412032,-0.026735346742108205,1.7421875
0.2654479377964653,-1.2880955116534523,-0.25903978717524057,2.3780940558520114,0.08360831434558898,0.2474685885348335,-0.10806782171199539,0.016418345014159213,-1.5884065913162784,0.18035346399264104,0.4758042784665708,-0.1611171964010169,-0.2121282214974418,-0.03075158551132764,1.75
0.015682752069582005,-0.07094059787915684,-0.014088409318331963,0.13027172405936474,0.004950059986767045,0.014738037888722952,-0.006659742163831153,0.0016856062617149716,-0.08804135882915144,0.01008444347747577,0.025120168137847596,-0.009261895074894158,-0.011768642532463179,-0.0027642671177832774,1.7578125
-0.12301865816098088,0.6054488189541568,0.1219519197774289,-1.1171362776824068,-0.03875475035049994,-0.1144558166095443,0.04964091046799528,-0.006499659684989162,0.7448144498703456,-0.08449507380547838,-0.22505574608479245,0.07507577924209315,0.0994929127622854,0.01276881795612966,1.765625
0.006267493299745782,-0.024171295084846972,-0.0047811270686428705,0.04705693887947876,0.001963124951448278,0.005971084903355059,-0.0028687105980804394,0.0011282253851248832,-0.03196689882087914,0.003656773286400844,0.00828877861252384,-0.0035590975123916072,-0.0042146877318290366,-0.0017258028252520273,1.7734375
0.05679783472345399,-0.2707064177298719,-0.05434828112469434,0.5017356161879902,0.017912581836805507,0.053034926327850465,-0.023436698809900607,0.004116603367553326,-0.3354530561881607,0.038175840405462354,0.09941606087862552,-0.03436476919812888,-0.04475830654501207,-0.007390206934215332,1.78125
-0.13027190091844887,0.640744412907834,0.12909295754085873,-1.1825993584695,-0.040990159713062586,-0.12120575894415515,0.05246865616169506,-0.006916149386000445,0.7882342224737247,-0.08935929676142348,-0.23820573834350753,0.07933020847786935,0.10531934872389237,0.013574428805129391,1.7890625
-0.1929454878448151,0.9469481928936118,0.19068589356284316,-1.747396752541854,-0.060766540069855005,-0.1796180423483896,0.07795320959178194,-0.010619536864939239,1.1646232330726711,-0.13222529972973537,-0.3512777304561848,0.11749177546982176,0.15564861455503679,0.02060199538155584,1.796875
0.020217553940610727,-0.09099643299997713,-0.018214126470431018,0.1712199661552403,0.006323877840389151,0.018877810773793923,-0.008510468790127054,0.0019495458305529361,-0.11579803257744846,0.012991590870124657,0.03344154116999688,-0.012043440105685702,-0.015315804636944411,-0.003283924059019442,1.8046875
0.10819087418728184,-0.5199350524893105,-0.10458545677116303,0.9642497420562076,0.03401850789028224,0.10089022193224023,-0.04422972664027936,0.007137923204512604,-0.644323464283336,0.07303284201575291,0.19227849348589976,-0.0655395761226307,-0.085925043764048,-0.01315150159295035,1.8125
-0.06250473460965489,0.3112006553603816,0.06254415339637584,-0.5711433462041664,-0.01972972904891332,-0.05791420554735484,0.025014810298301653,-0.0029350495281521448,0.38077697803300387,-0.04323551171990636,-0.11568876267897361,0.038215271704209866,0.05094797598336803,0.005966698428931261,1.8203125
-0.04962754025562554,0.24836742326839176,0.049807826299066986,-0.45671961137088135,-0.015648348934566264,-0.04587087270838886,0.019827304621654256,-0.002181968839986089,0.3037149743222122,-0.03446813171231085,-0.09265055962707924,0.030428736056367964,0.04062816145373487,0.004534891319709839,1.828125
0.2136019304699193,-1.0342374996417538,-0.20820888295719078,1.909668335764958,0.06728601254735929,0.19911314778171543,-0.08693443496939321,0.013343573636358297,-1.2764272436604889,0.14498051069166024,0.38188547109084475,-0.1295377983783905,-0.17046520678559982,-0.024937379008018866,1.8359375
0.17363263808883425,-0.840021357566989,-0.1689244768831751,1.5498813045527957,0.05470309609483117,0.1617283999697747,-0.07073821858046793,0.010988908984710402,-1.0358521713727629,0.11786745980593262,0.30952555319825553,-0.1052316000379943,-0.13839592168588408,-0.020460258776073693,1.84375
-0.21991118208644558,1.0768190457889766,0.2169150726662946,-1.9888880611670485,-0.06927559634423053,-0.20470525150628002,0.08886491799049441,-0.01222230181304992,1.3270970235580692,-0.1503017222613933,-0.40031591440430114,0.13395906958587417,0.17719284912887628,0.023604094111669773,1.8515625
-0.3151827100333228,1.5407651406858318,0.3102661886553058,-2.844435778331082,-0.09931765525947164,-0.2932489385063294,0.127455917162393,-0.017838890993148452,1.8981327146452145,-0.21530677973987067,-0.5718608840921912,0.19179297528820557,0.25352147286767707,0.03426295712157274,1.859375
-0.035749222859645914,0.17930027570974202,0.03633924464621117,-0.33097449832241366,-0.011318671354185284,-0.03300337985392668,0.01405077490996601,-0.0013499327800055065,0.21962849673527277,-0.024896746343122497,-0.06766552155074008,0.02186032481232133,0.02940310533060429,0.0029774853792316498,1.8671875
-0.020768685609737204,0.10627976494139842,0.021752998626247515,-0.19698866864594286,-0.006581541344006432,-0.019174722715996514,0.007980004362620875,-0.00045890235349566066,0.1301898824913652,-0.014648475901494585,-0.040688287625354896,0.012759921770035298,0.017469305756907617,0.0013197907595067291,1.875
-0.2214720019935144,1.0841909788032904,0.21848852769433758,-2.001357720536528,-0.06975131615987676,-0.20606743740498476,0.08947444446226521,-0.012290848644523946,1.3355766782182976,-0.1515009965930996,-0.40247736690855496,0.134817941388661,0.1784470230875332,0.023791536187486844,1.8828125
0.09293517732420883,-0.4472462898688713,-0.08994211382551673,0.8288398636633124,0.029322992682375613,0.08690250611239456,-0.03798686716924242,0.006259817947878518,-0.5533469323328873,0.0625760745646717,0.16517400320728995,-0.05628691593891648,-0.07381503203053177,-0.011449253321217412,1.890625
0.6957325755171017,-3.383464527599506,-0.6809613260509916,6.250896511763502,0.21918964473563815,0.648284045769187,-0.28249983358599595,0.04181410156759638,-4.173580728920802,0.47330587010526853,1.2525804021141869,-0.42271947280276134,-0.557286343157875,-0.07896621704691141,1.8984375
0.5085776712531271,-2.471104232502972,-0.49722313443304317,4.564801635469492,0.16018966513479593,0.4737395963477931,-0.2065990145065693,0.03076105837333421,-3.0484355571951567,0.34589239150524603,0.9143884448847263,-0.30888944663214707,-0.40703612813155254,-0.05798217020692464,1.90625
-0.38387317860203535,1.8770536572548084,0.377961273510869,-3.4643536130359176,-0.12097188394383197,-0.3575770281612688,0.15542737690830102,-0.02189672808338647,2.312227145205522,-0.2621777904053714,-0.6959136577965022,0.23370466743109497,0.30883070247617234,0.04198004106564252,1.9140625
-0.6329345739402998,3.090327204498392,0.6220220415867938,-5.703424030567585,-0.19943736103426687,-0.5894088832237481,0.2564443210036231,-0.036591222866717295,3.8074062855488484,-0.4319455751074164,-1.1449451253242129,0.3850770675198649,0.5084939495590922,0.06985682780340083,1.921875
0.11819865701976812,-0.569343454914885,-0.11472068351625515,1.05458190991611,0.037202488045574765,0.11035799327111061,-0.04833661228064559,0.00772500410029545,-0.7049320250800257,0.07987619005242631,0.21043332419351884,-0.071682903590833,-0.09408023242521216,-0.014282502489114364,1.9296875
0.638731689056468,-3.1055667477405926,-0.6252286815134287,5.736191253128822,0.20123894332915288,0.5951984353721012,-0.2595714258813834,0.03843754719733682,-3.8313120162735848,0.4346882773408525,1.149327632153788,-0.38822486602267586,-0.5116033100689777,-0.07257241609289895,1.9375
0.1815570363356048,-0.8784390473091876,-0.17688246833935753,1.6216522957970196,0.05726583636780474,0.1693100665585408,-0.07408846484543695,0.011465717914860436,-1.0844743279548974,0.12328072588432955,0.3240988610407857,-0.11026077011038551,-0.14486364041808905,-0.021348439628517325,1.9453125
-0.4634702072733767,2.264371665176456,0.4557998414517757,-4.182368448343812,-0.14597041344447,-0.43153834899329374,0.18767730074063038,-0.02659510772593948,2.7906395212271886,-0.31626813334919,-0.8398661595045365,0.2820024745918739,0.37261274713989134,0.050915599396334596,1.953125
-0.45145143261023707,2.2067179376907835,0.4442314733115787,-4.074618349172258,-0.14227336084855824,-0.4203839042652726,0.18286946471353197,-0.025893154994696545,2.7184931181080363,-0.3082198015000447,-0.8181250173591631,0.27479549958999216,0.36311408924008465,0.04958155428398506,1.9609375
-0.07220945807122484,0.3596315108357679,0.07242436775020661,-0.6618439551317697,-0.022836372225181995,-0.06716538857013385,0.029015024315995525,-0.003516343219711799,0.43981997529169065,-0.04993331426383142,-0.13366981609574047,0.04421886443173892,0.0589501201167815,0.007094218739413981,1.96875
0.030731164587303694,-0.1427623615445933,-0.028627726913470368,0.2663658188769423,0.009632064075544186,0.02874401466190877,-0.012780521647531089,0.0025706507188086518,-0.17930959718123374,0.020198159140853454,0.05228315433912281,-0.018458159391787445,-0.023763708386814318,-0.00446649205764603,1.9765625
-0.13057295322171253,0.6412471715166792,0.1293917836433409,-1.1828787471099749,-0.041143871323188135,-0.12144208721200556,0.05263381413831179,-0.006931949025998897,0.7894110727235084,-0.08961125200964509,-0.23860774063802725,0.0795643244812998,0.1054785065539559,0.013578030794597544,1.984375
-0.12127691301014142,0.5947691626062358,0.12015603652503981,-1.0984045971154073,-0.03820647040516973,-0.11273336224423061,0.0488546257182692,-0.006379872380487108,0.7338750487781912,-0.08316860898283429,-0.2217440562630158,0.07396190458143545,0.09800384591096015,0.012536576512875836,1.9921875
0.18091671729618822,-0.8772228772939866,-0.17626691872937178,1.6200869073689765,0.05699995053576244,0.16876528429183857,-0.07373738763242192,0.011443146452438085,-1.0811477615495233,0.12274891358623138,0.32352515129546994,-0.10971793860186319,-0.14438637188135908,-0.021305163707802083,2.0
0.42020131107743164,-2.0421639933917364,-0.4109304388974686,3.7718755579728063,0.13239001226214808,0.3916554325409779,-0.17080858509400787,0.025554312865941394,-2.518588568639857,0.28571528718890676,0.7551785752774225,-0.2552314742595324,-0.3363647868188193,-0.04810545574590184,2.0078125
0.26336377603089894,-1.2778021478313502,-0.2570739211270853,2.3599744535517475,0.08297264828872632,0.24559735102985783,-0.10719372308424863,0.016299837738066154,-1.576623897726842,0.17880531762767166,0.4721459458632058,-0.15992629981776346,-0.21056109402561848,-0.030534155964907977,2.015625
-0.09269163928543041,0.4568150664641161,0.09213317528597109,-0.8433272327686927,-0.02921939901834217,-0.08602166525325369,0.03723380996137559,-0.004708061755208399,0.5621678862531049,-0.06375521617968234,-0.17014508076573612,0.05656610515466654,0.07513019426698822,0.009357071709726862,2.0234375
-0.17032655938457877,0.8357625656080654,0.16831753492580181,-1.5416040958829385,-0.05370210399125773,-0.15839275165679792,0.0687221018704798,-0.009295035183354993,1.0286508539239736,-0.11660064250208259,-0.31013240155944605,0.10380481428737509,0.13749305226179265,0.018061390461159284,2.03125
0.061061474500312914,-0.29008743245724755,-0.05846325617418624,0.5391630474898133,0.01918703673458156,0.05698237940335399,-0.025145446319215153,0.004350041904550184,-0.36113093418371145,0.04102322047772769,0.10709561605511485,-0.036901795226358475,-0.0480910475168519,-0.007852189627568042,2.0390625
0.16892390986561207,-0.8148195355676224,-0.1641620016973118,1.508214657993978,0.05320931645593018,0.15736743119894792,-0.06889799835481628,0.01071622622399411,-1.0090110032870225,0.11444064575459137,0.30134493535051776,-0.10254680921536334,-0.1346490479757823,-0.019933885039187436,2.046875
-0.014400139176019691,0.07771174411293567,0.015504144569173416,-0.14113713308216094,-0.0044877166389779505,-0.013313006524755202,0.005491632172468995,-9.403273844262848e-05,0.09224730691622629,-0.010465851345164997,-0.029456733300383342,0.008903192885170965,0.012354059029517903,0.000595089378381259,2.0546875
-0.207820131114159,1.019181994027164,0.20508348576759938,-1.8805031026329355,-0.06543963102417309,-0.19339850031835776,0.08399226190083874,-0.011509271334809055,1.2543812511746422,-0.14218404066615042,-0.37827193644314644,0.12657816483175116,0.16751262987101415,0.022255089491248596,2.0625
-0.21855347760334365,1.0713381418148886,0.21571476784536162,-1.977051249052358,-0.06890039165635138,-0.2034554718298132,0.08837271859096883,-0.012150105733397427,1.3192227197705426,-0.14948623508341707,-0.3976321811061347,0.13319044539238845,0.17619126265551563,0.023459898694452707,2.0703125
-0.106605002938435,0.525788911767395,0.10599354585879124,-0.9700495604991375,-0.033643313249599203,-0.0992202862883706,0.04295309438933676,-0.0055400348033167275,0.646748686490842,-0.07326668691488424,-0.19567710415804343,0.06512813407340876,0.08639535364711667,0.010924226707916335,2.078125
0.0751838610825707,-0.3607248710213198,-0.07248191334030492,0.6665242422683062,0.02370268663685099,0.07023200928128165,-0.030834455975230178,0.005199915312282716,-0.44574995691758285,0.05060083173699695,0.1325272273851285,-0.045485248329727425,-0.05954786476117355,-0.009444996030024008,2.0859375
0.21818798232344985,-1.057986217947227,-0.21285787015113866,1.954382309178289,0.06876660380382452,0.2035490708200755,-0.08890312165753801,0.013640703316725207,-1.3053049078692656,0.14812011262826236,0.39077022462751054,-0.1325089687435233,-0.17431924163229437,-0.025472211862302047,2.09375
0.12640412288366518,-0.6101196649281159,-0.12260522822862319,1.1280558208099802,0.03975775140428192,0.11797212815367701,-0.05168826889013954,0.008216828730983207,-0.753999320088632,0.08559600604728915,0.225080084895364,-0.07668871469495309,-0.10053637765649494,-0.015182072746225512,2.1015625
-0.0894520495318757,0.4424269996286245,0.08935795270702446,-0.8159045412748507,-0.028278354312809173,-0.08324447917400987,0.03592602309944152,-0.004520683497242423,0.5431767651219452,-0.061572276765504794,-0.16461938813461482,0.054628439495250807,0.07280167826089254,0.00901961168105409,2.109375
-0.07449412133422181,0.36915876658117097,0.07455139677029494,-0.682156962527637,-0.023457981810518478,-0.06932810838264544,0.02991326677045439,-0.0036293101913157898,0.4538900036941985,-0.051434621408016565,-0.13768462352877578,0.04557574874516173,0.060734496435738,0.007348306690484708,2.1171875
0.10635776075273604,-0.513240633700309,-0.10317688907249035,0.9463241042978493,0.03361282652659641,0.09924364897102687,-0.043468312679241373,0.0070450962520826055,-0.632650857007114,0.07183445640952944,0.1887539661115873,-0.06440207161710931,-0.08460575616669536,-0.012939193256444778,2.125
0.03793855872196336,-0.18047228835233484,-0.03622272160238171,0.3328161517725115,0.01201745086159337,0.03564483707559279,-0.015757643419528865,0.003001122141391651,-0.22254615285866788,0.0252450429839704,0.06544270618563809,-0.022827671568995945,-0.02988161342271518,-0.0053074165491626465,2.1328125
-0.23079492205522092,1.1296282930518053,0.22746347305776474,-2.0844742200508204,-0.07273262559688436,-0.21460780182150685,0.09328760778341251,-0.012863695180859476,1.3912007666218704,-0.15789374079735752,-0.41939898637595074,0.14057169761062605,0.18577098976928794,0.02479869706562246,2.140625
-0.23179264165192487,1.1359084840508444,0.2286388054385957,-2.0947362853663916,-0.07307522596780877,-0.21561180020339168,0.0937671827117678,-0.012927503101696904,1.3976389363718782,-0.15858247857889285,-0.4212921270010196,0.141191469264017,0.18675252283614258,0.024941233725695868,2.1484375
0.06835527931754912,-0.3256864164035221,-0.06559604357966804,0.6049659747863998,0.021483485926864603,0.06381200622601688,-0.028003072054808932,0.004781819395356996,-0.4049281969128907,0.045973127198038914,0.12019314108087024,-0.04132916330028098,-0.053926493311199496,-0.008667328686269375,2.15625
0.24437966644344009,-1.1837464180367727,-0.23821153591493738,2.190024347732686,0.07691811197637227,0.22775340814213252,-0.09951564494005742,0.01517348628737542,-1.4628820363972588,0.16594765149047921,0.4379092945186478,-0.14842451352486652,-0.19516962210678293,-0.028403989707253656,2.1640625
0.14889042166987848,-0.7193890335874242,-0.1446419271368316,1.33217836332002,0.04682813953374846,0.13894963011016292,-0.060845985463529866,0.009545182495274945,-0.8898967314117446,0.10090472283978731,0.26571166120671413,-0.09041673709751694,-0.11864724825781237,-0.017724080020089433,2.171875
-0.0018273319490397853,0.01476586636763244,0.0031190701560958995,-0.025418094058467514,-0.000621956745627716,-0.0014117775299463994,0.0003259848276370609,0.0006488480147286702,0.016137138972425493,-0.0017616499295340555,-0.006495073216273641,0.0012545934243190023,0.00225094196644778,-0.0008300689684663737,2.1796875
-0.0872088745636985,0.4313078076224058,0.08690257040605238,-0.7966096632051703,-0.027480210810551374,-0.08113584723103191,0.03501565921897287,-0.004397082587292448,0.5303093683591852,-0.059943177673289424,-0.16095551613160738,0.05326332626495935,0.07081222977250394,0.008754968751617713,2.1875
-0.09258849311104658,0.45790560576133293,0.09222123971077202,-0.8459421523820827,-0.029145383811478756,-0.08629619549694403,0.03722947531515704,-0.004713794919462895,0.5630521072887664,-0.06367456900457244,-0.1706605343762873,0.056609978601868685,0.07518508374812448,0.009367016365523298,2.1953125
0.0549404243394643,-0.26095547895550986,-0.052501765325460956,0.4826239259086313,0.017358272379372146,0.05117581725119463,-0.0225772410747136,0.0040000872064317895,-0.3233789758368274,0.0367809325796149,0.09591708290826864,-0.033072691903527796,-0.04317279292388912,-0.0071556631808533415,2.203125
0.25016265101372764,-1.2123553418053135,-0.24400696437346472,2.2399272206806162,0.0788693058643933,0.2331024976951708,-0.10174436568846519,0.015525945264049053,-1.4959944143153596,0.16976702495594284,0.4484361141658976,-0.1517941732545938,-0.1998436999310191,-0.029021510772201158,2.2109375
0.18377528844501867,-0.8892559163890239,-0.17893880012161115,1.6425962818631503,0.05792748350497503,0.17129995472542794,-0.07485829082823765,0.011610973273451201,-1.097202892320467,0.1244942623849362,0.32867712020961753,-0.11148038574893174,-0.14665711676385876,-0.021590468525147948,2.21875
-0.12996788095954043,0.639000874310698,0.12865132294603956,-1.1798689057516099,-0.040952595955487364,-0.12080267052692376,0.05234254008217058,-0.006902838403961122,0.7866122396398055,-0.08930820305011938,-0.23740499454904168,0.07921696564734296,0.10500812720408012,0.0135435737741975,2.2265625
-0.2502600409201464,1.225046485562011,0.2465297620870749,-2.261364463846095,-0.07886399764023833,-0.2326474121973551,0.10112983151901339,-0.014007759326152993,1.5081760109427953,-0.17120189669114086,-0.4544400519612624,0.15231562951708666,0.20154263708057493,0.02701157756031958,2.234375
-0.027981823415345254,0.142015381794762,0.02860829667344161,-0.2608018719372434,-0.00883041171010822,-0.025605618360156176,0.010977670803425437,-0.0008986954378200755,0.1726844571209067,-0.019585245306439528,-0.0535251700842024,0.01714590040395175,0.023241160349947977,0.0020996692587282656,2.2421875
0.07622896603437733,-0.36631813118700873,-0.07341088747468613,0.6773967434415379,0.02399922868359975,0.07122183855630078,-0.031334270507828395,0.00525393217826274,-0.45305159346222745,0.05155303729046281,0.13427327139184408,-0.04624521348555218,-0.06040886957588511,-0.009599376730461656,2.25
-0.22575790613552651,1.1046794713126245,0.22287061159660837,-2.039730014281595,-0.07116580391437122,-0.2102773422140131,0.09114207630564536,-0.01255972443334979,1.3613393452481015,-0.1542176698444949,-0.4107525781869007,0.13738703475885164,0.18185071806067651,0.02421943182054112,2.2578125
-0.4550607921758604,2.2228898805408885,0.44778152904755353,-4.104300964424337,-0.14343782319237094,-0.4238838592878831,0.18426208875068295,-0.026097058767426275,2.7394308425207496,-0.3105988858027553,-0.8245199053626949,0.276952001308954,0.36593647660615897,0.0499377727432717,2.265625
-0.10958805769801952,0.5409650232859486,0.10895982272075473,-0.997332188923874,-0.034590912155387774,-0.10199744273036254,0.04427121302327114,-0.005721135149928132,0.6648540116241494,-0.07536213497843457,-0.2011005227567889,0.06706563591918611,0.08890702093055446,0.011280232890172548,2.2734375
0.42644240629355895,-2.070863525528757,-0.4168111879765797,3.8262853063838063,0.13433369230723644,0.39739608822279165,-0.1731608283728134,0.02591455615812534,-2.555288421779646,0.2898438655367231,0.7662435639499117,-0.25885683711526514,-0.34117387321270753,-0.04876013560161631,2.28125
0.44501079570584456,-2.1622034900400506,-0.4351220048120037,3.9949516615130203,0.1402133872882848,0.4147539588526806,-0.18082235745421088,0.027021418523443256,-2.6676914580894233,0.3025825607017274,0.7998915953181122,-0.27029961121936397,-0.3562026416654235,-0.0508623297433917,2.2890625
0.0798131192412862,-0.3826209443767648,-0.07698703631297882,0.7090655097664907,0.025136707757184084,0.07458649559586238,-0.03276692141083755,0.005469115299890695,-0.474294654646911,0.05377229615394659,0.1409972554795692,-0.04833779223456062,-0.063258203483414,-0.009965070160941662,2.296875
0.02696305459132274,-0.12444196842471662,-0.025179786068930274,0.23284055090095093,0.00848144128505032,0.025355399798536946,-0.01131736817718322,0.0023433299206231167,-0.15661017566688415,0.017683891186937212,0.045691028989334734,-0.01618140617112727,-0.020857546875309427,-0.004047911323224001,2.3046875
0.2793937551240424,-1.3549621517770525,-0.272892853416164,2.505012682172395,0.08806063196326892,0.2605465257776614,-0.11373180211915908,0.01724531795325839,-1.6731268867638134,0.1896909630672281,0.5012740948556346,-0.1696975553650753,-0.22345054320574376,-0.03234007167588692,2.3125
0.1667914696567448,-0.8073284770440818,-0.16254043762005405,1.493022685114347,0.052599507653124246,0.15570863039690885,-0.06813552833355194,0.01061098962079804,-0.997127994493345,0.11310303931457949,0.29812441247120886,-0.10134413447727009,-0.13315970636110946,-0.019737059539987924,2.3203125
-0.3632921322404218,1.7759153835452377,0.3575466584363516,-3.277907718503245,-0.11448722655510887,-0.33813505713770414,0.1468871467918605,-0.020673043870930462,2.1874719737761437,-0.24805602450174405,-0.6584827889781792,0.2209475895485381,0.29222744298409115,0.03966318852248921,2.328125
-0.5891619631194004,2.8776770278253094,0.5793466603096774,-5.313186221891825,-0.18571409478271106,-0.5487002414248745,0.2386474564033147,-0.034013749717671515,3.5453530467567473,-0.4021144583852185,-1.066276038482293,0.358423199617602,0.4735827968584203,0.06499676067390693,2.3359375
-0.2526088930919952,1.2379580250397058,0.24925879767504766,-2.2862906099013705,-0.0796248600350307,-0.23531407189019612,0.10225583458303864,-0.014158820942930455,1.5243219355899456,-0.17286681264608406,-0.45925640457776734,0.15391116827101184,0.2035693749815783,0.0273023755391651,2.34375
0.09294789197454434,-0.4464642423610716,-0.08983399431064726,0.8236078514685948,0.029331616030484495,0.08659944095303632,-0.03793305155284393,0.006234225361051282,-0.5515907104357413,0.06271815490328769,0.16414672459596663,-0.056211454891010475,-0.07374070993282487,-0.011417422405502585,2.3515625
0.12784957988030274,-0.6169109390029666,-0.12408888342882235,1.138658332234711,0.0403200270756519,0.11923116933395567,-0.052184678120404726,0.00829805010811033,-0.761578325970865,0.08660361000673944,0.22731907436245907,-0.07749238067095665,-0.10173884396980969,-0.015325741087840006,2.359375
0.14680914231145958,-0.7098377036443623,-0.1425911783600187,1.3105823158010843,0.04624083476054122,0.13697069778131027,-0.05992234637682085,0.009426160204243132,-0.8756253707329555,0.09950423551702212,0.2618837326408349,-0.08902015480502021,-0.11691357912742635,-0.017448208796348775,2.3671875
0.24469296767416307,-1.1878668421147698,-0.23861088917576415,2.1932505074543704,0.07707886517595113,0.22808365821681403,-0.09963315453465564,0.015210580885590496,-1.4638202886610874,0.1662440043017688,0.4385751254434953,-0.14850964883253442,-0.1954735088256859,-0.028438705490950848,2.375
0.1196118920060287,-0.5785699439510908,-0.11601250111912217,1.0686791055327567,0.037686302290608084,0.11146133969455874,-0.04891141930681517,0.007824005155175829,-0.7128976163391296,0.08111444516629733,0.21260807679546756,-0.07246889151674717,-0.0951614056130692,-0.014458811958153973,2.3828125
-0.15671105819959594,0.7692660180437716,0.15501478279908706,-1.4187878150203665,-0.049400976255168545,-0.14588232708109872,0.06318413383256781,-0.008495570819462294,0.946504030944238,-0.1072583036033194,-0.2861361723556014,0.09551836414248364,0.1265559719220402,0.016498788378808315,2.390625
-0.12321104376404293,0.6071503399379415,0.12220330636957286,-1.11863698604736,-0.038872996353766995,-0.11451137298706815,0.04966398557341527,-0.006521058632600833,0.7451665344807821,-0.08466946116168257,-0.2255035043976059,0.07516539770226012,0.09970917606889279,0.012775723196728903,2.3984375
0.1730182274508839,-0.8367650225365161,-0.16837156142087806,1.547177284626984,0.05448339322704369,0.16146721847655776,-0.07044471797679944,0.010969430003100968,-1.0339808224935736,0.11710955240990295,0.3091877328381844,-0.10492507948783797,-0.13799795472242857,-0.020397718695584464,2.40625
0.18569520615276625,-0.8989906182352468,-0.18087593190193965,1.6620445032186557,0.058507481612931865,0.17322033801519898,-0.07562560327566037,0.01172085490376205,-1.1100253082656393,0.12585944744876615,0.3320176379646734,-0.11267499372713591,-0.14824395056110692,-0.021831594635596804,2.4140625
-0.11807141911192287,0.5822886496865426,0.11703351304126058,-1.0717645879945994,-0.03721175184527413,-0.10965455240126605,0.047528251224036554,-0.006214287483591683,0.7142561991014447,-0.08111604016877665,-0.21614762897697892,0.07193480203041833,0.09545538374786694,0.012193548017188683,2.421875
-0.19818211305047836,0.973885249159332,0.19563270378344272,-1.7936597942139307,-0.06247289725885198,-0.18413833025465853,0.08003341716675348,-0.010950410769322957,1.195182390213885,-0.13579910400267434,-0.36064815681084744,0.1206219674772568,0.15979118015214747,0.021182059877470728,2.4296875
0.01759961622060766,-0.07809525139325327,-0.015966554234468196,0.14816554854664649,0.005523734149844344,0.01676444705810949,-0.007450211965177143,0.00178619452705939,-0.10055448998590376,0.011286801912580002,0.02871032674296679,-0.010511690563812561,-0.013282067873787357,-0.002986837510251083,2.4375
0.016245715033388574,-0.0729541150310845,-0.01461942266376676,0.13704779709727086,0.005115506975179713,0.015249393144810731,-0.006926432668733027,0.001716189995633238,-0.09188022917013199,0.010525022089848622,0.026241537068148777,-0.009646659940669025,-0.012224169377613241,-0.0028478210466956985,2.4453125
-0.26434301248488834,1.2937885134262623,0.26060375124898544,-2.3879103510565693,-0.08330081999217204,-0.24621422708431315,0.10681225310657574,-0.014835408689019882,1.5935400966466802,-0.18067342884586823,-0.4799781681563027,0.16092490785273472,0.2128633905339777,0.028583911617498996,2.453125
-0.27766395395376947,1.3589002244321713,0.2737274228926614,-2.509416470291492,-0.08752276202024696,-0.25858011226710925,0.11219656477717233,-0.015622512201942163,1.6735573360006282,-0.1898720062934983,-0.5039727214020405,0.16901851736130716,0.22360271715676072,0.03009265219484997,2.4609375
0.09888947753547317,-0.4764595697661425,-0.09559931615405673,0.8781833596030677,0.031129767137541325,0.0921619955787372,-0.04049635741827409,0.006594319870838675,-0.5876990546668547,0.06677431805390212,0.17533229128908073,-0.05986901931845927,-0.0784749190382888,-0.012086242420575545,2.46875
0.330448541116386,-1.6056820989266645,-0.32286653438440843,2.963014300206366,0.10414008719471653,0.30784435748998523,-0.13439903432706282,0.020257820208641433,-1.9780635486518332,0.22477768674243867,0.5929671070421801,-0.20063257635263324,-0.26435189806779263,-0.03804124659748777,2.4765625
0.19210070301984347,-0.9314066995190594,-0.18725891142213752,1.718745964307506,0.06058080455128244,0.17904637587187164,-0.07829113677752193,0.01209670270335976,-1.1470910399061678,0.13055239417300926,0.34324229309269216,-0.11655407070500641,-0.1534191729010416,-0.02254411328226852,2.484375
0.07513535112612324,-0.3604597283194198,-0.07231461746621612,0.6647617566754684,0.02369714257101282,0.07010703694100767,-0.03080327800698979,0.005197862719551832,-0.44457821970094796,0.05066007397438497,0.13213657323959307,-0.04542808202550607,-0.0594268926568304,-0.009419694714979412,2.4921875
0.17383444098343348,-0.840908192760753,-0.16886455910465362,1.5519955448596066,0.054757507392296616,0.16198624312034318,-0.07074175217914011,0.011023521498311194,-1.0373571113133924,0.11775497397226825,0.3102646467552008,-0.10536657270523327,-0.1384425988419,-0.02046961318529347,2.5
0.1840891758322161,-0.8909982059673007,-0.1790395818380251,1.6461441862555646,0.05799637908577769,0.1716148260842411,-0.07487186198326379,0.011627092107150083,-1.09948912630374,0.12474480239246397,0.3290021011824259,-0.11160723354929569,-0.14675450311370788,-0.021643529426391743,2.5078125
-0.03243033023645517,0.1643631762979986,0.03306411382348613,-0.3003013542577922,-0.01022325050155602,-0.029910784280111184,0.012876806750536478,-0.00115609938382145,0.20006948634002505,-0.02276978828546762,-0.06150310929453262,0.019943927455198903,0.02677811096850072,0.00259027833441258,2.515625
-0.20606181107786284,1.0111738057416306,0.20339307135342838,-1.8634653570240747,-0.06498508323802663,-0.19164214998366333,0.08322758928688169,-0.011412172847587975,1.2425683469309565,-0.14111284880693611,-0.3749444492928777,0.12547623680850034,0.16610561727478737,0.022046481705645046,2.5234375
-0.21587082570113966,1.0591859428413706,0.21311640350706545,-1.952541002355494,-0.06811222136761087,-0.20081958737765102,0.08718547394828784,-0.011998016259765461,1.3013865573637744,-0.14777518923189056,-0.39280342533717616,0.1314621694541918,0.17407954537522813,0.023149281507297188,2.53125
-0.25012196399358877,1.225695481699523,0.24648908874528047,-2.2589461313105303,-0.07885465626046549,-0.23257730056370388,0.10104409896995134,-0.014017960421971965,1.5064085704667112,-0.17100465556481226,-0.45439969470249075,0.15222143097974616,0.2014666679817126,0.02696866591634333,2.5390625
-0.31895429548991766,1.5607757281859322,0.3137505635517909,-2.876702489058768,-0.10047751159622724,-0.296580380530571,0.12889015077924024,-0.01807270061177563,1.9192487850542415,-0.21782414927557772,-0.5783180040301451,0.19395052919413783,0.25652024589552225,0.03467048530012487,2.546875
-0.1826368895551368,0.8962070578035365,0.1802220968735689,-1.6517444127627723,-0.05752699221507926,-0.1698172076886972,0.07358510507573866,-0.010019748284108327,1.1014046050819097,-0.1249576720825923,-0.33242941418693667,0.11108672762424852,0.1471761664354627,0.01942410105318204,2.5546875
0.146524499379681,-0.7084471941122019,-0.14228774184327292,1.3074823377344358,0.04616450323635966,0.13649399288046077,-0.05982805226201484,0.009413340221799335,-0.8738449232673694,0.09925931680642062,0.2612698956326566,-0.0888794809242919,-0.1167639025300059,-0.017418204091590794,2.5625
0.33392148781630343,-1.622210235744166,-0.3260475014395046,2.993343365050351,0.10522353320267248,0.3110170052630304,-0.13572635485751236,0.02047722426233653,-1.9985573543044006,0.22689690820762232,0.5993994563909371,-0.20269249265172992,-0.2670601551986918,-0.038404630972837056,2.5703125
0.24649075290662473,-1.195979288946414,-0.24041359997110145,2.2074172332868773,0.07768297202220578,0.22966795357846095,-0.10023134934472563,0.015314557439778307,-1.4736670952939683,0.16730018060834917,0.4417165152255083,-0.14951897368436162,-0.19693270151692183,-0.028619528304834923,2.578125
0.12197805122194177,-0.5885624534041458,-0.11827011641789756,1.086757454990976,0.03842274250010293,0.11368502441451231,-0.049740247853269234,0.007958774844295581,-0.7260061202477371,0.08244021834073516,0.21695334057495985,-0.07382264216404974,-0.09701332275536886,-0.014672092267846415,2.5859375
0.13038606761145635,-0.6290486062431283,-0.12644311561322688,1.1616349588974455,0.04105452960025276,0.12153841329048022,-0.053142966545636536,0.00845102280666222,-0.7764784952704807,0.08813044378593492,0.23200084270103488,-0.07893309241979675,-0.10372174423091787,-0.015607444539472352,2.59375
0.1381644038630127,-0.6666518911621367,-0.13405520140086055,1.2315299517654419,0.04351064645719588,0.12887469897323656,-0.05628379122351826,0.008908930495752237,-0.8234934192065463,0.09339961519565976,0.2460028280518144,-0.0836814857745689,-0.10994442722689493,-0.016480475538474912,2.6015625
0.014479809245737024,-0.06361327053296063,-0.012683668995217898,0.11905199465545466,0.004522596005968065,0.013626769786319045,-0.0061443725339478455,0.001604142021791659,-0.08109267788729005,0.009176078357538243,0.022741073434953483,-0.008511774006045369,-0.010690184185858785,-0.0026407578844897463,2.609375
-0.13777830998531204,0.6783916800205441,0.1366857974847471,-1.24990404807937,-0.0434745519190524,-0.12832218179070157,0.05553200119751202,-0.007386140435621274,0.8331166303308118,-0.09442454589686879,-0.2520588830878108,0.08401097773798295,0.11144563506526187,0.014393566798864365,2.6171875
-0.19556276927558525,0.9593988907414089,0.19317896610077856,-1.7680680879243122,-0.06165000088752479,-0.18206857984341457,0.07887718865746067,-0.010787602754900164,1.1799160415915821,-0.13367820914193687,-0.35608178091603737,0.1190379386031655,0.1577035804653583,0.02085410546513262,2.625
-0.2106492646468901,1.0318917150966744,0.20773387967447499,-1.9028507491386533,-0.0663444372106917,-0.1958886569372521,0.08496522841552889,-0.01166082721629357,1.2703015172859358,-0.14396115533178475,-0.3829059166697828,0.12812302620331653,0.16973496918978007,0.022551556062358258,2.6328125
-0.21854331103104158,1.069494106092271,0.21544850365802512,-1.9748988111466892,-0.06882278018524096,-0.20316934534094297,0.08823069962213582,-0.012121780738465763,1.3179397700221522,-0.14940688352358372,-0.397113302826377,0.13297479937749654,0.1761023396659856,0.023453463855773883,2.640625
-0.08375321432943722,0.41263686664683524,0.08330652054975626,-0.7635814908552345,-0.02638292862684668,-0.07769009882290935,0.03363164304825577,-0.004180381464719457,0.5087531418883201,-0.0575922433496231,-0.15425926008877158,0.05114010057830877,0.06797829879132872,0.008361607679211264,2.6484375
0.22118975222624718,-1.072328065434138,-0.21585951466202363,1.979888116675783,0.0696941777700918,0.20637507769134195,-0.0900846902686135,0.01380050264445376,-1.3230205107966573,0.15018295536133025,0.3957308588752704,-0.13426746732537354,-0.17675634583146743,-0.025802596691274757,2.65625
0.39480797020129704,-1.9170832390972357,-0.3861924582735855,3.5420982210161074,0.12441160904842984,0.36814875710337586,-0.16058464842751205,0.024042728217361354,-2.3663607685270702,0.2684278464282092,0.7091311653439841,-0.23991568436348806,-0.3160899816022809,-0.045250988111459896,2.6640625
0.20212138498536603,-0.97765105726038,-0.19700917246107272,1.8078515595100788,0.06368817730740045,0.1885454643105709,-0.08240077475141008,0.012676518483268206,-1.2088614134493114,0.13704762872526347,0.36168374986940877,-0.12273694905418817,-0.16139912655768807,-0.02365681549232908,2.671875
-0.10546597867570712,0.5208884653736227,0.10492355662906726,-0.9599507034741084,-0.03324862104365011,-0.09817813348085327,0.042494278494494164,-0.005469325066629598,0.6394587280450329,-0.07258398524034183,-0.19327422168911787,0.06441900580870133,0.08549530198874193,0.010804450937254234,2.6796875
-0.19397273500501402,0.9519290389158767,0.19178931562844298,-1.755874602883777,-0.061138187190724724,-0.18073486255306964,0.0784687456901268,-0.010689563140716,1.1715567182220048,-0.132878905422465,-0.3531347071571205,0.11830968989229791,0.1565266716497336,0.020715052688236684,2.6875
-0.2015750764479094,0.9890096176777138,0.1992028023725998,-1.8241640765101674,-0.06354057715181764,-0.1878441022555004,0.08151718208949384,-0.011139634646830108,1.217022040538131,-0.13803270568844725,-0.36705674388853854,0.12290692588634183,0.16261100377303278,0.021562616498890023,2.6953125
-0.3354105934567595,1.64094344984348,0.33047708639942536,-3.028454386895732,-0.10573970652358822,-0.31247865674587244,0.13577451332922513,-0.019038613780276655,2.0205289001079123,-0.22923760808167445,-0.6085574058585987,0.2042575953406845,0.2699947736487168,0.03655410074547113,2.703125
-0.28974302289969006,1.4178236946180482,0.28567708458546864,-2.616593745962821,-0.09136645550658759,-0.2697743591437942,0.11726708986360508,-0.016337385712324248,1.745896391203228,-0.1981644554635181,-0.5258990464508992,0.17647416999121798,0.23333937226073667,0.03143332210411075,2.7109375
0.19026422364900133,-0.9216937372262658,-0.18521725981436782,1.703859725207393,0.0599026932968959,0.17755133576499366,-0.07747244561351888,0.011998109733299157,-1.137648622387735,0.1289254704343111,0.3404387477732532,-0.11545428334518035,-0.15183213099904708,-0.022348448100816175,2.71875
0.5844821768787476,-2.842973399469522,-0.5719838033797131,5.251176707572827,0.18415700531234094,0.5447763840708322,-0.23748899112669916,0.03526221625913138,-3.5056625849418226,0.3976985358315308,1.051652822970975,-0.3552345139686443,-0.4681642595511359,-0.06651645588683422,2.7265625
0.35095731988474593,-1.70511948105002,-0.34299495895104565,3.1490242053920556,0.11060127281546558,0.32712614845405436,-0.1428345358434944,0.0214741091284657,-2.1026397883634305,0.2387509527131975,0.6300752557571552,-0.21326827747052385,-0.28082204431037533,-0.04035302648974996,2.734375
-0.05506016820085782,0.27392838645106315,0.05524274002716792,-0.5051661095746532,-0.017328330685144597,-0.05108979303874144,0.021898112731930246,-0.0024907058558483815,0.3366198915997598,-0.037930619417480015,-0.10249642660432898,0.0336231604154827,0.04493503427855295,0.005141242361604098,2.7421875
0.046290078860749734,-0.21880760001217586,-0.04409020499013328,0.4056617249499131,0.014586523186173159,0.04338415589214568,-0.019120411816661697,0.0034863121268010134,-0.27175224255815483,0.03093249477749817,0.0804749323682002,-0.027953015597571525,-0.036319986226228285,-0.006199493992097651,2.75
0.2859285272031461,-1.3860401824909956,-0.2790568123290937,2.5602164491336965,0.09006914598344778,0.26653918327860354,-0.11625735044235436,0.01761898728921321,-1.7107396641354427,0.19412334313971094,0.5126634803930984,-0.17356826704043074,-0.2284770813013956,-0.033034511011190044,2.7578125
-0.06570253162493966,0.326682273073652,0.06580538973575818,-0.6044288041183186,-0.02072545879407753,-0.06112727912080447,0.02638419655979493,-0.003136002973966934,0.40152259323853773,-0.04537225224532008,-0.12210572787114779,0.0402919329369736,0.05367965229194787,0.006359526708416617,2.765625
-0.6230288600846533,3.0416157932117676,0.6123245157135551,-5.617635104765448,-0.19630287187374737,-0.5802074573957535,0.2523951903990551,-0.03601559098245622,3.7484951764295276,-0.4250235348113384,-1.127628872634197,0.3790804806275129,0.5007230677729737,0.06878625944865462,2.7734375
-0.43329428651075236,2.117078130807887,0.42609746242791813,-3.907940305011922,-0.13649096503237293,-0.40326347951992814,0.17534038304425947,-0.024808301367521893,2.6076620785436444,-0.29575816075787176,-0.7848602981945433,0.26357828045411413,0.3483379142513045,0.04751622542758482,2.78125
0.30746753744887795,-1.4923420333727277,-0.30056768160325,2.758829292356767,0.09692321862414147,0.28683759571535206,-0.1251932822971135,0.018904263445236096,-1.84247392855674,0.20895529240910457,0.5520089747869633,-0.18684951926309698,-0.24606970290807795,-0.03548222155296951,2.7890625
0.45699483494262727,-2.221208050586685,-0.44722540705495295,4.104378930245889,0.1440264905752404,0.426005181957838,-0.18582814226369634,0.02772538176334886,-2.7403954841011795,0.3108474749383556,0.8217565078944684,-0.27769785490098514,-0.36602989287431764,-0.052238485580814446,2.796875
-0.22064850787796783,1.0808988008243894,0.2176694123665748,-1.9939814293307934,-0.06952866706777565,-0.2054243105799287,0.08911578531088338,-0.012257863912865645,1.3306384441772878,-0.15094305746183206,-0.4011690536245302,0.13435742226509237,0.1777339663761409,0.0236815058380592,2.8046875
-0.6841104993803896,3.340027093332064,0.6725867728248718,-6.165852842357165,-0.2156113671075459,-0.6373137768106866,0.27717661738106425,-0.03960482886865652,4.115074385779754,-0.4668418991759387,-1.2376239338139443,0.41615839954884193,0.5497177501529465,0.07561294986294595,2.8125
-0.2728168637550498,1.336217212026926,0.2692591265453298,-2.465886863288045,-0.08603336916329359,-0.2542206247533811,0.1103629838842593,-0.015340291657640554,1.6447158058748637,-0.186609462060682,-0.49553832059221803,0.16613375316834011,0.2198438859045153,0.029543057453632025,2.8203125
0.3838591284701138,-1.8642283910726452,-0.3749920000509268,3.443779086729133,0.12090495498127408,0.35761119425589616,-0.15600593279183114,0.02340901200595783,-2.2999782244953617,0.26088056302281665,0.6894897718541506,-0.2330822139425325,-0.3070295121588892,-0.04402464301949116,2.828125
0.4881054415248657,-2.372554841730827,-0.47726983131444206,4.382594742199225,0.15376072557569104,0.4548329774812329,-0.19823971170234828,0.02956563516346938,-2.9261643611176833,0.331870848207785,0.8776167225156489,-0.2964509364054586,-0.39074619244757197,-0.05570587895366838,2.8359375
0.16275676340910575,-0.7867056477298071,-0.1580480265182136,1.4541167586182682,0.0512174455185031,0.15176677510615513,-0.06617430672793866,0.010361390554764675,-0.9713353712199797,0.11012041781049192,0.2903086038116137,-0.0986173419767238,-0.12973392470860734,-0.01925590488011746,2.84375
-0.051958404784974634,0.25983800888829633,0.052416331045268945,-0.4788893775583699,-0.01644165500606154,-0.04817141125145594,0.020931836405024492,-0.0023239630102211933,0.318679463197997,-0.03610010316679405,-0.09727015392230193,0.031948391308753994,0.04255981360400998,0.004801749912342263,2.8515625
-0.008276758189878983,0.04649740292123434,0.009246469764402413,-0.08479499240240222,-0.0026322600382927175,-0.007283330354550502,0.0030854197705612934,0.0002521930112963585,0.05562248914371011,-0.0061732099344506824,-0.01815659963226912,0.005332047660942787,0.007504613250397424,-8.958026864464671e-05,2.859375
0.180278808045885,-0.8727678149046035,-0.17573541992094333,1.6134188431335044,0.05682144467762956,0.16836530964229648,-0.0735540308068217,0.011396318186115919,-1.0777395108625258,0.12236559718230787,0.32245962987233495,-0.10942570275293463,-0.14380588642817496,-0.02121361543198333,2.8671875
0.39339004557919555,-1.9113765322845584,-0.3845437649678112,3.5310669027634694,0.1239881148008899,0.3665933142996208,-0.16007309689421426,0.023987059891416227,-2.3576990215150944,0.2675643654454334,0.7070411309203013,-0.23907222386601348,-0.3148203741261278,-0.04509589845706619,2.875
0.3427737577366219,-1.6649035879514715,-0.33490734417917783,3.074911657846895,0.10806338119873085,0.319278509878239,-0.13954909187291437,0.020998597468207692,-2.053188888398882,0.23310331015566518,0.6155647516872308,-0.20830455540210352,-0.27427450575492307,-0.03943653049647945,2.8828125
-0.14362562312632096,0.7056242565625999,0.1419629279865188,-1.3023083983046337,-0.045189843007232035,-0.13362839274167798,0.05777875448580965,-0.007715156828775524,0.8684407666838136,-0.09833156354776199,-0.2622003726345622,0.08744991330193401,0.11594275002997884,0.015058986380124708,2.890625
-0.6235652691418845,3.0455982327222473,0.6127877442126156,-5.6221230536716424,-0.1964720320672776,-0.5805517728041859,0.2525253836540762,-0.03604604454479374,3.7512021721791298,-0.42547861853415214,-1.12841708242684,0.3792922119644882,0.5011246271637696,0.06885162653739953,2.8984375
-0.6007926268493518,2.935302898557123,0.5907689590525826,-5.418832827671658,-0.18936470645547485,-0.5594797092672948,0.2433466924943505,-0.03470393963829111,3.6147918242434485,-0.41005551425991627,-1.0875982640880237,0.3654800000487155,0.4830066282266522,0.06631768936543785,2.90625
-0.33385672581006903,1.633401613184425,0.328953143966727,-3.0167529845715415,-0.10524298965131225,-0.3109286477480715,0.13506401965246895,-0.0189457757952064,2.0116831386593454,-0.22813233415273904,-0.6058827174146669,0.20318153793010854,0.26878186760624473,0.03640016687524418,2.9140625
-0.22631772879820014,1.1078747357621828,0.22311644623699375,-2.047022656210373,-0.0712887888971907,-0.21058654615424674,0.09142624308781126,-0.012593838084422647,1.3654147462730364,-0.15481537902099915,-0.41148619856715124,0.137793511756054,0.18224913983362567,0.02432905150812655,2.921875
-0.012255083025735447,0.06452612667167693,0.01293642287829064,-0.118794564665193,-0.00380528138767911,-0.0110406233207956,0.004639464040258433,3.7315164658135154e-05,0.07907759035623896,-0.008981779980108965,-0.025041223855349227,0.007686045870032249,0.010325827929509247,0.0003350933604459794,2.9296875
0.47210333737478555,-2.2954309429327933,-0.4619836649244238,4.240876022814673,0.14878557149481075,0.4400278395387276,-0.19176137585786496,0.02861729340783362,-2.830635893685073,0.32105830340933184,0.8489073401851958,-0.2867425999156928,-0.37823845247126225,-0.053939902027753873,2.9375
0.6089541969998813,-2.9621776390791554,-0.5958804433850976,5.47287787534754,0.19184511565168177,0.5673425743916934,-0.24723384933774661,0.03669399561450533,-3.652799222211048,0.4143250499914445,1.095879670156594,-0.36991866887511177,-0.4878444965605138,-0.06928678168827936,2.9453125
0.12990473767927818,-0.6268942417694181,-0.12570948964146098,1.1610078526362795,0.04082414895090013,0.12109417649995431,-0.05290413602716067,0.008422578817509593,-0.7751597337300224,0.0878195171851366,0.2314879863845981,-0.07865237573724469,-0.10326868459404007,-0.0156090820042427,2.953125
-0.19119081023740783,0.9393133281777688,0.18937416569411,-1.7311289837510702,-0.060393594614244005,-0.17797793622858407,0.07732690190443833,-0.010533377226135713,1.1540488525444685,-0.1310628518788122,-0.3481584654053275,0.11656357375718812,0.15450842878332605,0.020402619837555883,2.9609375
0.08486856668144942,-0.4056821076945535,-0.08154227382495935,0.7515568531316125,0.026639982332754778,0.07915117660544571,-0.03471562682489219,0.005755114193085134,-0.503802605514201,0.05713764299072548,0.1496959767899278,-0.05132086039411731,-0.06699195765638384,-0.010499220948463447,2.96875
0.2961959838237015,-1.4367580995068676,-0.28917384361140835,2.654486716254199,0.09333520660288903,0.2760153819947582,-0.12051620949189044,0.018233838281057214,-1.7733367785799081,0.2013214246448057,0.5310657322660302,-0.17986384272266617,-0.23670160421280328,-0.03418750356807467,2.9765625
0.03512675975450335,-0.16557201262676577,-0.03337807901275254,0.3068243927303068,0.011137562119342163,0.032892836653220174,-0.014674992472246594,0.002835712376611124,-0.20540278381918348,0.023495529959376236,0.06016306478370356,-0.021180251428315762,-0.027401930118775255,-0.004961605932704382,2.984375
-0.1528161499666051,0.7500163145478554,0.15092147836259773,-1.3844686172421377,-0.04809272411692167,-0.14214655393774034,0.06150798704171337,-0.008252604414952906,0.9237278704084723,-0.10458038978560687,-0.2789382183657171,0.09304342529934054,0.12330700669539042,0.01609071848262304,2.9921875
0.028967974150116423,-0.13612801045657438,-0.027263331677519185,0.2503595570856286,0.00915454233423577,0.02717205397645849,-0.012249568258750787,0.002475550511916843,-0.16764550576907536,0.019306257716578415,0.04903677202431542,-0.017496789928420506,-0.022534725544533077,-0.004264945723011307,3.0
0.10802870650570406,-0.5212262612001864,-0.10462096801389459,0.9604305290282547,0.03404621358097468,0.10079438960243338,-0.04422267650914843,0.007138015403810864,-0.641971772661695,0.07312488199365862,0.19166878218565467,-0.06548125802426921,-0.08585798163200793,-0.013106326045451323,3.0078125
-0.15102832155424883,0.7424850447011693,0.14961641649347457,-1.3723093376260382,-0.04759537329778762,-0.14056735136503,0.06101209099093961,-0.008159561635754441,0.9143824689546699,-0.10357725795226423,-0.2758361370499489,0.09215748673397367,0.12212445748327982,0.01593326986993999,3.015625
-0.38424194276975665,1.8800931630420201,0.3783037014284287,-3.470593432292918,-0.12108858882826216,-0.3578256810623731,0.15563344484931904,-0.021929705982985853,2.314607208549247,-0.26261323152798494,-0.6965448375504638,0.23395815673437736,0.30922340919279506,0.04205438158537828,3.0234375
-0.3444423920016925,1.6859201445766125,0.3390583486852824,-3.1091938745353764,-0.10855428817298161,-0.3205957779931893,0.13937181957891254,-0.01957702731047391,2.0738347339281717,-0.23548776521547826,-0.6243011861691197,0.20960854167300766,0.27711452825136634,0.03755827285013206,3.03125
-0.15471942032207414,0.760692149578422,0.1528631069965456,-1.3991323974917922,-0.0487898471752597,-0.14358931168833872,0.06234999645051711,-0.008372403060311886,0.9326595137968717,-0.10623535619970739,-0.2816074861790654,0.09413418898215906,0.12477030596922174,0.016276566906066967,3.0390625
0.00842791590120848,-0.03477462123478513,-0.007102621950481215,0.06844108611766656,0.0026072794405761594,0.008473176250806238,-0.0037739544562932856,0.0012587010458381856,-0.04718187775057829,0.0048894571874841765,0.012614529277610859,-0.005014145867832426,-0.0060924567976025365,-0.001987776292643138,3.046875
0.0603071621710846,-0.2884877153727132,-0.057935102930148814,0.5338299706074651,0.018986214421672035,0.05654667375888053,-0.024786762991994782,0.004321207160245867,-0.35726268279950235,0.04040587110976682,0.10577642567766345,-0.0364374234700518,-0.04766775516151471,-0.007783881822818259,3.0546875
0.07812663995732945,-0.376407479556782,-0.07539538068045137,0.694620030308601,0.024661226854878895,0.07280211792585017,-0.03206561130921766,0.005375374080501586,-0.46316607792665937,0.05287206401197821,0.13765135699234232,-0.04724190643180501,-0.061995464089424517,-0.009798971444821693,3.0625
0.21765565233280215,-1.0561297085011847,-0.2121584886755261,1.9505995726386662,0.06864959940664567,0.20264554518759917,-0.08868658036421115,0.013608661511351181,-1.3012684664136882,0.14807278328081946,0.38929711724928145,-0.132135897168474,-0.17393960082864787,-0.025451043193343657,3.0703125
0.3515719723291522,-1.7075432102774735,-0.34337786346332805,3.153774570184207,0.11079707948177019,0.32744727755465863,-0.1429473554302367,0.021504837274113245,-2.1056567647082507,0.2391640826082831,0.630802283206257,-0.21356134023612913,-0.28126739323042765,-0.04043026102965528,3.078125
0.22051207283013488,-1.0685327063766643,-0.21476917883469832,1.972180317859807,0.0694225926060865,0.2053936701231603,-0.08971612223726248,0.013763925769589106,-1.3176557741457522,0.1497109943127409,0.3942858767447827,-0.1337509556605449,-0.17597161031322608,-0.025700748636405552,3.0859375
0.03008749845674451,-0.1408885529539622,-0.027972624424405193,0.25843793006919896,0.009392343325017963,0.027975316969166972,-0.012459741636021905,0.0025243265579858536,-0.1732933181674333,0.019969295978494617,0.050838777336588356,-0.01784713333199641,-0.023107566530876946,-0.0043492654294077695,3.09375
0.11960178778903477,-0.5765689294668512,-0.11577088433758817,1.065005932875699,0.03764511999108384,0.1114015033335118,-0.048808217283337375,0.007809746818787193,-0.7117036547591986,0.08096821588154483,0.2125477610969523,-0.0723251067567933,-0.09492288279993936,-0.014396167436636928,3.1015625
0.17074995674991142,-0.8250245984126897,-0.16607019806424322,1.5262730434220777,0.05382087444652857,0.15922649625169139,-0.0696232903061711,0.01083598101949442,-1.0202381435289496,0.11571189534956935,0.30501557547229874,-0.10361343426883272,-0.1360505474102372,-0.020150771003445984,3.109375
-0.22615774350471168,1.1085941381102322,0.22300591321494856,-2.044342821282319,-0.07124853630757431,-0.21030704410985168,0.09132830821912966,-0.012579240941249178,1.3633590912921376,-0.15483441242583623,-0.41094001184929363,0.137609133727142,0.18224776270484275,0.024305256511137827,3.1171875
-0.5891792855272611,2.8766979485107385,0.5790157862645318,-5.310659089395567,-0.18569410535087602,-0.5484108834452412,0.2386079130057661,-0.034005557256898425,3.544246025391752,-0.4022071679281015,-1.0658795393443041,0.35840315380459836,0.473439127630594,0.06497753030522664,3.125
-0.2727157087376304,1.3354164509640276,0.26880771754444155,-2.4641087296994404,-0.08601362459320423,-0.25370193782198713,0.11030255162470741,-0.015343890083915884,1.6434640415121822,-0.186590072304974,-0.495071232738725,0.16606442730292306,0.21961393280993413,0.02952991576960782,3.1328125
0.3393367861037979,-1.645230877610481,-0.3313595354892468,3.0421081086693365,0.10686094705699892,0.3163396513121461,-0.1379596669380604,0.02076650229118904,-2.0333136249982977,0.23041108848049835,0.6090427837689617,-0.20612741826514083,-0.27135780485361666,-0.03903537362370861,3.140625
0.4368343173384712,-2.120154842768907,-0.4270812972134735,3.9197794558602954,0.13762161860185065,0.40715276646845266,-0.17755518671776152,0.026525634713210088,-2.619020323282183,0.29687460514284525,0.7850081072470478,-0.26547797381096067,-0.34963366035537663,-0.049956924583654264,3.1484375
-0.014549179647855365,0.07757661622922427,0.015447344758399047,-0.1406590302248657,-0.004574399272553936,-0.013263703022344895,0.005524291244064051,-0.0001018658922269658,0.09283629086289778,-0.010571102973631752,-0.029230207283272382,0.009011671925261224,0.012376229467578773,0.0006114978925978157,3.15625
-0.4681104073260882,2.2862602972166224,0.46022001191340584,-4.221379450100777,-0.14745836607115329,-0.43574249895917766,0.1895242927003329,-0.026863567627171424,2.817670916814382,-0.3195097028965775,-0.8475636735080581,0.2848405769869826,0.3761937049718635,0.051417324921333885,3.1640625
-0.541840969518738,2.6454863655154846,0.5325783627237134,-4.884750811086143,-0.17067015556380835,-0.5044827890158525,0.219426316981794,-0.03121250769873065,3.2604723251245815,-0.36968311882919574,-0.9807330594583792,0.3296279462141648,0.43537855857378166,0.05966628075473107,3.171875
-0.15962107741054585,0.7829233382669755,0.15778721703844295,-1.4451849565619321,-0.050245793730498096,-0.14854548728435302,0.06436450190186618,-0.008651758593613331,0.9645745163829297,-0.10918737517261663,-0.2911771848427302,0.09720054147774791,0.12880270783425302,0.016846110859027034,3.1796875
0.3859928107329643,-1.8766852077030403,-0.3772579727081172,3.4642033073975735,0.12164536742141938,0.35960993161825583,-0.15693421121220735,0.02354945922444207,-2.312380727701113,0.2626065202728932,0.6932942696463091,-0.23444542118055967,-0.3088787187506154,-0.0442671351702074,3.1875
