AF3,AF4,F3,F4,F7,F8,FC5,FC6,O1,O2,P7,P8,T7,T8,time
0.12915466802303746,-1.5938364897829558,-0.11783585458422728,-1.6342361956340783,-0.4586816487065353,1.5858181245536287,4.339861470308352,-1.8114363165792695,0.004125927420205472,-0.33325167754570134,-0.1237774717345119,0.1357403797653616,-0.11725323940145402,-0.004348344327456698,0.0
0.21017081430681311,-2.0533620101231924,-0.711845141227004,0.33701537628999423,-0.5131728118602557,2.5142371981277263,5.049260254705355,-4.28663269606501,-0.12651183160755475,-0.43813252749553583,-0.12235775867788308,0.23559679264702077,-0.12084852748219958,0.0250535246572712,0.0078125
0.4718845028156253,-1.4102292628815767,-0.2762427349120726,1.8707435308633578,0.034906927702274326,0.709432344438942,-0.05696268081115539,-0.9849896565197522,-0.03559304505753106,-0.5214541591312738,0.03320624965873854,0.15219032344183578,0.014589397204618312,-0.003220034972481722,0.015625
0.24260156021641308,0.0856322371221317,0.003795867388101685,1.952462693578604,0.3247710720265595,-0.6871526110810601,-2.927971803121885,0.9654072182607428,0.0006080777629506244,-0.14367251700976388,0.10167235274716767,0.0016177545897516326,0.08588023624555316,-0.006475026722377532,0.0234375
-0.3851055906594598,1.2893735276432432,-0.2650105480368712,0.5766925199749834,0.0416475851160181,-0.21946644624374828,-0.48768631890945213,-0.896332711286111,-0.08792819056085747,0.4667070301792724,0.005533269845512764,-0.08542109202482073,0.017465343389066284,0.029981635313088593,0.03125
-0.692578867845167,1.3412585639093266,-0.7793426618132894,0.32394653431507203,-0.28894558692792494,1.0056921034442667,2.6022798965805483,-3.8664172136592696,-0.21109840032667013,0.6932307583406111,-0.08732479813291398,-0.04758229554342346,-0.059513395514685714,0.06703747026416461,0.0390625
-0.3314279249106104,0.7896498694168111,-1.048639909307294,2.9856470126474557,-0.052903998395428496,1.020191009636902,0.6440560775341096,-4.235087679531349,-0.26299655059559846,0.37872890178329066,-0.0009267417346597803,0.03636843457376702,0.006604467764445902,0.07066337364843248,0.046875
0.35274967044571537,0.4361993286286365,-0.286185700677237,4.537957494074844,0.6069373962406795,-1.0438000729152257,-5.414641615827663,0.6581689750933134,-0.07446506163691936,-0.15012895905772128,0.19318771934155515,0.010037467968460978,0.16490176725000957,0.008750888730657262,0.0546875
0.7791094815700453,-0.2073992155631343,1.3129607623576887,0.4544203559548233,0.8048392365156507,-3.0250225600355107,-7.539771598681764,7.4629977066870605,0.3164761716590526,-0.585070612124489,0.22628009445069744,-0.09240770376784144,0.18762059125071381,-0.09520955912349609,0.0625
0.62350271581142,-1.4564730601962153,1.9114438522248212,-5.3439268555865755,0.10537313480899216,-1.8763167544351018,-1.2880331607171442,7.743157575585635,0.4815939442591153,-0.7025770885230367,0.006433349741655127,-0.06753485748365295,-0.0060571265015107525,-0.13070169905855158,0.0703125
0.10914425782752038,-1.9367208155348452,0.6273963554815172,-5.245593570609013,-0.6490276911920074,1.2425415006320901,5.872277011075808,0.5351835724922498,0.18665830915105283,-0.3999002768657058,-0.1966086663251317,0.08260539794276664,-0.18000053483562498,-0.04740197123328634,0.078125
-0.11836743926141363,-1.064966188585252,-0.7891714787925399,0.06508210582013589,-0.5251751684583995,2.2942855379068154,5.039912769508101,-4.611965989150639,-0.1650865778022876,-0.06464230913287046,-0.13529002018088981,0.15641587716760993,-0.12194272940677571,0.04220484317992687,0.0859375
0.12097145321475009,-0.4072422858305541,-0.7305034488507957,2.8770222847004385,0.01768679383899149,0.9177062811727084,0.08521240139915712,-2.7918209813442743,-0.16334602022740877,-0.11768512485521314,0.026922408406338333,0.1103801888753196,0.018795890554616047,0.03578245202840477,0.09375
0.01726502143579245,0.024104732839547467,-0.05696005883460238,0.375105890280468,0.029673997117483114,-0.0076740751687406385,-0.2652150664932195,-0.12897116160176406,-0.013039562729474484,-0.0036699069103508274,0.010831800597033663,0.003563157218051815,0.00986648926115553,0.0023160843837588384,0.1015625
-0.8996206996247633,2.1689471503552467,-0.05536967816687173,-2.3920323956587883,-0.25081434861570917,-0.16273130178488798,1.9518747128108258,-0.9196041608333333,-0.056890658552105317,0.935753547155557,-0.1009747398437377,-0.1937676508725445,-0.06258776615943124,0.03504638482905988,0.109375
-1.4137459111755173,4.151556279550198,-0.40587917817499247,-1.1270682196851427,-0.08985875580744176,-0.7534020243325861,0.3446117702826009,-1.796701771306735,-0.17972368964233756,1.597852256760395,-0.06428172650061989,-0.3263069560406739,-0.01354907658585073,0.07676345352297932,0.1171875
-0.2683084180158531,1.2993617976584542,-0.442830240244565,2.139001333082014,0.19571640718215336,-0.3291538109247695,-1.8085774317545968,-1.142470026646963,-0.13000685818646798,0.39741872700589637,0.05775385672634733,-0.0629889501893937,0.06049677697938237,0.037121787893112455,0.125
1.3272530109137455,-4.174016126262167,-0.29028721727152385,3.0585970762407713,0.0021649145474363337,1.7198993429944023,0.6195908548961367,-1.1749305961312129,0.016807190099576288,-1.5195202910485048,0.053719363198564477,0.3952249151764621,0.005138363755006843,-0.03639063632230985,0.1328125
1.0535690191284697,-3.758968891426527,-0.017709490376800228,0.7778874673336833,-0.18097559785356856,1.6411572643265582,2.121958370049119,-0.6406822287527553,0.07232909329064802,-1.28402098391292,-0.014606009650085313,0.3246639753411956,-0.04726190958590196,-0.04300403023867481,0.140625
-0.8448943302054893,3.2581930049366705,0.5068998900375906,-2.0211576599592194,0.214055033549323,-2.0915161476958204,-2.5057337841508156,2.6367513668119895,0.05432989008882765,1.052962185051814,0.020476472896863506,-0.3324831484811243,0.04930168415530324,0.0068817347917110305,0.1484375
-1.642038965579135,6.596093197670603,0.8352517513415907,-2.866251116747343,0.526696301146501,-4.206585619337719,-5.843984080035027,4.867483686869271,0.0647286497174354,2.092909816706057,0.0746100631147173,-0.6491350137352733,0.12634891430945697,0.023479208838503768,0.15625
-0.06266178684200083,0.6166748678777051,0.5361933536994389,-1.3352037713969063,0.13651820689669725,-1.0869395972560711,-1.4666744540865058,2.499627672839096,0.11518393085313014,0.12207103875447192,0.024524889032158166,-0.10620659252507583,0.0274542192448246,-0.02644921724380612,0.1640625
1.949483647757222,-6.700611300595917,0.0894661679625632,1.4454439879394825,-0.24056990672804182,2.6208937706336886,3.0162573727760016,-0.42156245560136013,0.15794813536759342,-2.33901984429476,-0.003348534609462199,0.5697841529112068,-0.06590393671947539,-0.08497277358831608,0.171875
1.9300954532299777,-5.9940997644207155,-0.028457191415539464,3.0987511667622565,0.01531952410765042,2.0041106655464134,0.6665761793763004,-0.12986795578674978,0.11606793434137366,-2.2103661600422333,0.07206376841945263,0.5283198593645699,0.0033914065512877997,-0.0746012180057734,0.1796875
0.014151838286896012,0.37638446834819067,-0.2015123700765936,1.5829001051303233,0.16891543374809095,-0.24126141916449653,-1.5207233183967417,-0.2888157386897231,-0.05442514860679622,0.05829467648236215,0.054122632505032714,-0.007839314723935701,0.04938591003324753,0.012262514581538106,0.1875
-1.4162232881540893,3.542226500876641,-0.6445241925775144,-1.3964393640602746,-0.31957598306043367,0.17676655205725647,2.538410055720689,-3.4014140909500505,-0.22435157800751881,1.510384216395813,-0.12448248409260777,-0.2559848710302048,-0.0688337143510993,0.08758869504073612,0.1953125
-0.9129108895671679,1.1987546991899807,-0.7569718743150209,-1.6832282432188022,-0.6125937134576973,1.675095161923235,5.507644934432764,-4.713448819336334,-0.2033252540406749,0.8135148709433883,-0.18843946988179863,-0.04850647878657137,-0.1445858489452789,0.07057462721723141,0.203125
0.13317520215494905,-0.8281669986813492,-0.31447167898426076,0.5913432625212144,-0.14826512448469512,0.9262883707276605,1.5143867684131076,-1.6591498056609464,-0.05655769659308515,-0.2068519737166486,-0.030053672977477554,0.09890431230118857,-0.03251565500468965,0.010054191046716543,0.2109375
-0.17477826951333555,1.1801427103793325,0.0583942467255772,0.7117884277567871,0.24076427000452896,-0.9428523426418901,-2.3359481838819356,0.9402807792901453,-0.00918246655973102,0.3002016437231465,0.06197506194293305,-0.10267757757640146,0.06323025301331464,0.00594129327807141,0.21875
-0.9052119289960101,2.899680506574228,0.19474728524437263,-1.9769807146676426,0.015116027254104355,-1.2191973680941792,-0.5925205765272485,0.8289664966838681,-0.012854158647784207,1.0459961883993427,-0.03090167210097344,-0.27477820033631045,0.0028481773002375596,0.0244874856172924,0.2265625
0.14422694640105194,-0.45720727316912363,0.6088728357317317,-2.1013073833766187,-0.0316294497409083,-0.470688041650613,0.16443274985187384,2.278216830648381,0.1535280565649242,-0.1860148061484019,-0.0181710242953012,-0.024882245186191733,-0.01825744038652923,-0.04059290815453236,0.234375
2.0165975290832576,-4.837504832354715,0.9802927129497327,2.128152038384577,0.5254085789138672,-0.541421226137748,-4.319481663584935,5.308191864150254,0.33200109114528453,-2.1172179352815426,0.19667460356484262,0.33884053416272314,0.118399702797378,-0.12864055202644908,0.2421875
1.4811415667618002,-2.60278826555422,0.30923879925220527,4.924421375777218,0.7717641165720206,-1.0274655317370627,-6.635668561214392,3.4296083495832383,0.12839808846191023,-1.3901819683132377,0.26481959636703656,0.22018808926334799,0.19580576980426348,-0.06711510086955244,0.25
-1.3580487266593553,4.531888602448881,-0.93492354310801,2.021739288086001,0.1479440931028659,-0.7634396545445589,-1.6870006823258212,-3.168001967910063,-0.3123292362046447,1.6397123093300001,0.018423353708876947,-0.29726599393851644,0.05869865795668794,0.10703106822487662,0.2578125
-2.6082760817879618,6.650171968520667,-1.0253680128504126,-2.936379381638739,-0.5437190732569734,0.0162728215200896,4.225997064996004,-5.511868775107681,-0.3782847941777529,2.7961116306240394,-0.22037475775408014,-0.4961774405890615,-0.11922639216984363,0.15323554079656554,0.265625
-0.7036254766539206,0.7125925315235285,0.0669608756332085,-4.155296061887808,-0.5831185378217146,0.8537203890500573,5.079213010517068,-1.4278482620896613,0.0006609881533555038,0.5716171765787716,-0.19227796404712144,-0.08947546304783036,-0.1518666209416367,0.01668136650473036,0.2734375
1.287064208480789,-4.709082315182193,0.4608625065465553,-1.1068307066392253,-0.28753904805568703,1.63315238130151,3.0670770272294354,0.9107766546313644,0.20482213480962605,-1.6037120419528557,-0.04861652253738996,0.355008118285271,-0.0842044077925805,-0.08024349092874122,0.28125
0.8609191916785869,-2.8914146241464738,-0.1957229419485418,1.6562127739331414,-0.07094166425846922,1.3290999395621461,1.0689247334561705,-0.9996410793743616,0.013303701549031972,-1.0144256740027469,0.01443185276242668,0.2703824257627876,-0.015023948308541677,-0.024211516959452777,0.2890625
-0.40182063602574786,1.5148183611254045,-0.08713187673397489,0.20969177614939036,0.10129132757681014,-0.6137962915806658,-1.0993139520829476,-0.025719186769574593,-0.05045960471197791,0.5067521776857294,0.01767918399061123,-0.12182700212476007,0.029854657202866636,0.02137015304415092,0.296875
-0.28418697360572936,1.416555791169914,1.0658848907202518,-3.4572364697293643,0.15578107557705273,-1.9876128582769628,-1.894101695610225,4.629037495198081,0.22370659209138632,0.375226092935225,0.0097216441604188,-0.23062589477149603,0.023230758817761665,-0.04716917248475689,0.3046875
0.5865921180423519,-1.757183800317191,1.148342630322794,-3.3136386238152142,-0.022494948889140866,-0.6615814743582934,0.1067737651227238,4.397731266760094,0.30742519032473625,-0.70009022909673,-0.013332007376333402,0.03341819373703613,-0.026093655631309297,-0.08811690351649357,0.3125
0.7263940847590727,-2.5871524967110155,-0.32884660187722703,1.7274815378245658,-0.11094771083886414,1.453518532488554,1.419582525759999,-1.6268094933944035,-0.024260356296362435,-0.8723992217931725,0.0014988135044393576,0.25601054054050715,-0.022856130615771093,-0.011982616357509234,0.3203125
0.45420228126974505,-1.2380165057588906,-1.105006587441902,5.1951128376575335,0.11579684756010035,1.420234198416818,-0.5742283331796304,-3.9773612804744243,-0.23424498890135445,-0.45401891362517,0.0756090698861201,0.22535226567247055,0.05084908259647939,0.04479739658136949,0.328125
0.5053135672439133,-0.9013152617166351,-0.3291398195301539,3.2887560664240683,0.275092217091278,0.11777187375511788,-2.2564457999992737,-0.4876835196066458,-0.057834058239900725,-0.461203451559498,0.10438809971415293,0.12090250732122915,0.07848846980994416,0.001236664251775426,0.3359375
0.25302874349201215,-0.4747001251946257,0.09740368504845709,0.6094223242835607,0.11620089910165272,-0.18420152926319158,-1.0099576955149745,0.7128442563743843,0.03344115427305203,-0.24352370136520396,0.04001384863460597,0.03424754714572728,0.029461245794677876,-0.0145302024287399,0.34375
-0.7378518625489509,2.1739851213837995,-0.5473888020253699,0.6928782261517235,-0.030902916654443974,-0.05080641070771889,0.12370995641122617,-2.2033042839215726,-0.17316369243630791,0.8470190786222604,-0.020682858043202825,-0.13614390272977733,0.003869379209242182,0.05885733513947634,0.3515625
-1.3673371328750896,4.157045058081773,-0.6167584772611597,0.03197297872697969,-0.02287122531368771,-0.6534811554765394,-0.20109722633713448,-2.42922944842434,-0.22985679260760933,1.5760600200841617,-0.03825988530253828,-0.30250837713061596,0.00817856510139281,0.08762730626463498,0.359375
-0.8939793208723374,2.5468862664556595,0.2967114528188968,-2.952057782503094,-0.11285452620686409,-0.9615721817743442,0.5668624035233175,0.8547244631592814,0.018449141461031097,0.979662219887364,-0.06961539331227085,-0.25868985152832674,-0.03242447984960428,0.016820807442167844,0.3671875
-0.19831360708359277,0.21407736800521565,0.5876918964976914,-3.3019772037967448,-0.18593296989798003,-0.3616327764864277,1.4583841326275053,1.7555255685708302,0.13459331064870134,0.1442712239189008,-0.0737777753230676,-0.08687377578749876,-0.057886282347008475,-0.027755656078947994,0.375
0.10333668888695799,-0.12383404023591442,-0.039510805873842016,0.6779567408056857,0.07682713123157485,-0.07035692907531203,-0.6672110834761039,0.07428864197331177,-0.005970933211290768,-0.08513083312643178,0.02669937368665404,0.015938335563885266,0.021690330611574788,-0.0015100210079002296,0.3828125
0.5508271315542931,-0.8416403043808042,-0.20037490049346815,3.2657706058343643,0.34869945314870626,-0.19395688049055743,-2.9557446558684632,0.228203024211181,-0.028818164404448718,-0.48571878186097933,0.12392428747227895,0.10457327521354703,0.09529545535402802,-0.00690356908914381,0.390625
1.047866386723464,-2.8456399808303496,0.29737761666641693,1.279844401990125,0.1524742909944682,0.31090392505392833,-1.0717371050663937,1.5721650500746762,0.1291009708692588,-1.1454511602428166,0.07315150468634005,0.22280622891788532,0.034446620043212924,-0.05653786309278162,0.3984375
0.7506076035881727,-2.714377576453198,0.4934888441663214,-1.4394707136763494,-0.16661081980790712,0.6854236528087785,1.705358548509191,1.4107006812510583,0.17225311501032492,-0.9370515424481184,-0.033124048524043145,0.18066056088333898,-0.052228324256864134,-0.05954602063737842,0.40625
0.002107534762025467,-0.19050845979980519,0.42369471852705975,-1.9618389927362003,-0.09306871217948284,-0.22955957595644694,0.7255879909023212,1.3841787171051692,0.1045834973269852,-0.04496584467322914,-0.03631485984957277,-0.031304683767151335,-0.030742860070857216,-0.02539077174626167,0.4140625
-0.2901469070321931,1.0942490682854,0.4893464693412179,-1.937998966820988,0.04833954396986489,-1.0170199488196838,-0.7284199675989503,2.066888942290173,0.09399094996922958,0.347621380574795,-0.007563793545444963,-0.1463996843487752,0.005472989846170969,-0.01594785907428697,0.421875
-0.5550216298364873,1.1964780704974751,0.12080927597292403,-2.323833464638816,-0.2169868398478205,-0.10376384948043046,1.7325871721834205,-0.14280276034181347,0.004275940481578308,0.5494598864782527,-0.08381656513457263,-0.12601565368255985,-0.057152096485067014,0.01201238723464018,0.4296875
-1.1625868368755163,2.177365204575895,-0.7717781957118739,-1.6245835725071582,-0.535249787134717,1.2108338176913107,4.6899894544525145,-4.541018626347587,-0.22686810924192807,1.1327102794435255,-0.17437653882063295,-0.12997485639425438,-0.12373372976353324,0.08219523610780716,0.4375
-0.8987716078769139,1.7908761873456602,-0.991883685144492,0.4391089469997637,-0.35584943992094814,1.228398346661699,3.1972052489042437,-4.885061429617392,-0.27055694189795465,0.9066129059464084,-0.10848090565011852,-0.0670721427498081,-0.07296695746385425,0.08629305360831521,0.4453125
0.5550932899776089,-1.4368833059342268,-0.21868244700360817,2.2335649448458477,0.12289319768407779,0.47900678103760075,-0.858278982964062,-0.5150791397764937,-0.02161185802342907,-0.5820873917954157,0.06020817734575973,0.15190512240224438,0.03685249099909901,-0.00855404207648845,0.453125
1.3244403823828137,-3.239046488455034,0.3368045192970911,2.4511116099293333,0.33367664468534364,0.03411544847753701,-2.648444910685409,2.247212197047993,0.1464902896149092,-1.3899278497441234,0.13358137198633738,0.2591378791005254,0.0810189417439957,-0.06749621324548555,0.4609375
0.7068385589127276,-1.716879989321809,0.22590222029812718,1.150493852744846,0.1795270759387006,-0.04195776788424616,-1.4441305502037103,1.3884499421597498,0.0891822004203351,-0.741206222884908,0.07061360266812901,0.13173450268341916,0.04318413837876593,-0.03886265017006801,0.46875
0.3372810191972091,-0.8636373368333955,0.2114196312735353,0.060654932689233165,0.06234819568381119,-0.0759727855359299,-0.50953017634044,1.0018259535346656,0.06834696772904024,-0.36392971601638757,0.024667583024992737,0.05469121120766809,0.013114756582811807,-0.024890849604551228,0.4765625
0.5931833837010495,-1.1240008930888417,0.29743197007061484,1.1447902503268836,0.2678758041481626,-0.4973554346062129,-2.3355256289032833,1.930433539720368,0.09443261575887112,-0.5751924692629189,0.09037213092786041,0.07565341595595679,0.06512011734791964,-0.03735537111843497,0.484375
0.03280183787347995,1.2125032024163434,-0.16305131574667342,3.1488093997629734,0.514174155648246,-1.2556903800424184,-4.724110493957383,0.877888682842918,-0.061239963258275285,0.17787046467883377,0.15261697510584804,-0.07368953704799062,0.13864175160173017,0.013313024246836344,0.4921875
-0.9960486406373196,3.8478623421315135,-0.6993608210132621,2.5155605737933575,0.3113100118516676,-1.1284880757027997,-3.1195257521320654,-1.7715559574690538,-0.24179109406530608,1.2867354602147596,0.07186399164942026,-0.2563452418584896,0.09644913750177635,0.08140756575217842,0.5
-0.7445899110209738,1.7991322181870562,-0.3714331674583318,-0.7392543964557525,-0.19245248029839823,0.19794766607614467,1.5661071617006521,-1.980893039627393,-0.12374891687229198,0.7858666727778967,-0.07154360444982413,-0.12712469617567407,-0.04162633611227901,0.04730628351963192,0.5078125
0.1809606029337401,-1.3488042284998882,0.3963623319024959,-2.7172497373301505,-0.32361710204224914,0.6510986018432968,2.9499008799039257,0.5932598139407675,0.12111769221855354,-0.34472771921055556,-0.09549679035285306,0.065456479807267,-0.0908299947867673,-0.03356640534037836,0.515625
-0.0744564299396673,0.1618429813592511,0.5601855556009698,-2.3644645831471793,-0.05442084680734588,-0.5772472413134736,0.2956205270133471,2.0279975273027966,0.12939075945721099,0.0563749144342721,-0.031070315704771652,-0.07510280027411574,-0.022920746270563567,-0.02953115557573639,0.5234375
-0.8739131211583521,2.5492904456934236,0.21909331814541258,-2.4994615775724727,-0.08351019051584962,-0.9327642522791733,0.32845073920277035,0.6375659411472527,9.817733279877678e-05,0.9690555584611613,-0.05875522031876291,-0.25022256726967446,-0.02347398538238353,0.0206794364586785,0.53125
-0.5091967724765987,0.44091815695644804,0.09178313325005688,-3.3119943787890596,-0.45345051313695467,0.6577602450939701,3.9544574521870257,-0.9578457211461898,0.012242779603088885,0.4003686733873177,-0.14904908062504432,-0.06418088149666075,-0.1185911708850888,0.009153248688967823,0.5390625
0.43342577911539604,-2.3800521061807394,0.1525764460268996,-1.8757958905540653,-0.40665539672899054,1.4383860249719045,3.9004134035071742,-0.6143640050758871,0.08422202085363102,-0.6648943649675731,-0.10459455295789502,0.17863933262378281,-0.10858740063543564,-0.030787559615750387,0.546875
0.5108455710343507,-1.4040190020067433,-0.006306447692384568,1.1652860968744374,0.07307038767803288,0.32874872330229316,-0.47311114405739696,0.17073481743774016,0.027727246584792607,-0.5548893434136325,0.039268513564344916,0.1252481780007865,0.01987422258292679,-0.01933783106783383,0.5546875
0.08209836436279007,0.05925717320992965,-0.26289033105122633,1.7253751275846727,0.13189721574210417,0.011268753239909555,-1.123113177693844,-0.6462586402655837,-0.06280252084681535,-0.03427424980625336,0.04745055969309117,0.02529793186016406,0.04045574260787645,0.012602133003538301,0.5625
0.06356977368095418,-0.932556564934884,-0.28025144350115294,-0.23826682329493296,-0.27470667323602926,1.1774324972131849,2.649283512963333,-1.9056091429753452,-0.047502136412107335,-0.1794337147220191,-0.06933148740677417,0.10055738314704955,-0.06572050142343608,0.009543154512803015,0.5703125
0.23342130723489024,-1.369665689677816,-0.1151966155991799,-0.437514586579604,-0.24582588723511847,1.0769519645762757,2.40117639424595,-1.17333517613984,0.000986269057993953,-0.3649591609201139,-0.059313965799721716,0.12255656408339474,-0.06137962881001563,-0.006119051252278046,0.578125
0.23220715826254532,0.14994763586538906,-0.009636527961474115,2.0370945963367006,0.3372486554638352,-0.7209831413164286,-3.046084525484794,0.9573369700331809,-0.00337322987756145,-0.1260013029852907,0.10503183143467006,-0.0025061128831815934,0.08936045075483946,-0.0052234142521706585,0.5859375
0.27732764922637704,0.7200657775674815,-0.03855695337910129,3.5649685046738857,0.61435679214867,-1.432763307547151,-5.588409421894949,1.6532089276082862,-0.021373781039660783,-0.06427825447762052,0.18667898461726662,-0.040149223478734744,0.16229578807061937,-0.002109733767939044,0.59375
0.39320567115167404,-0.34567181108879447,-0.12407358677878451,2.7257117531129467,0.34535645652038655,-0.43829813061635264,-3.0125366218515626,0.5198601785607903,-0.020750354864840975,-0.3068391947668472,0.11572005791555906,0.05352695935334884,0.09316608228245678,-0.004987607635769115,0.6015625
0.39374694554452044,-0.8530916755969519,-0.04323874170820003,1.463501713563544,0.14589776941939828,0.04022051443345085,-1.184964301697126,0.24959034184001735,0.00818980343631433,-0.3905656586172804,0.056690752597821255,0.08299984913943251,0.03951351037526162,-0.011882419139866271,0.609375
0.2744855049270847,-0.3605527056076653,0.3660653183053849,-0.028206655621397004,0.17470014137902265,-0.6438022464155143,-1.6281768280196445,1.9369615876539783,0.09485765412807039,-0.24816893734144305,0.051100963865529266,-0.0017396854352474032,0.03998482164567985,-0.029764996522918453,0.6171875
-0.13311926135265853,0.4736324696569828,0.6833661842268072,-2.6789638061405956,-0.01025144834983658,-0.9090967458846773,-0.18059483655734634,2.6442729018071285,0.15228856463901436,0.1397719956016309,-0.02339881608422898,-0.1137306993043828,-0.013522692249182674,-0.03360283381761336,0.625
-0.8717278147500496,1.7846065942998603,0.22995417658430845,-3.9899950695451296,-0.37874707229777255,-0.09915888194872992,3.060706999737032,-0.18226059634723057,0.017839438375508464,0.8458822250749671,-0.14352066542660616,-0.1938337058856913,-0.10094308972697098,0.016534830903846498,0.6328125
-1.1890979810872164,2.6166994965758756,-0.6771077346512678,-1.3545369193506722,-0.4017881827883208,0.6880179236300906,3.407859838116621,-3.775646573340647,-0.21305744510533095,1.2165334362887212,-0.13942433031748921,-0.17382107231917976,-0.09035139008289157,0.07946778620404828,0.640625
-0.5682826190201736,1.6296766609856068,-0.866446204988398,2.1221739325490367,-0.022564973047572514,0.4711441434502256,0.20760134463084637,-3.422757266262852,-0.23691844908241566,0.6610885015487002,-0.004882527319577769,-0.05526402268934989,0.011570714862978178,0.07006627963966408,0.6484375
0.2081435017625008,-0.05798825449344594,-0.19635445866305526,2.1906933275514198,0.2365090908558957,-0.2354996436840993,-2.062126755908596,-0.0806191472795085,-0.04422559212120234,-0.13690441767762013,0.08016922066956383,0.0320059973099319,0.06651088429347041,0.005114876653244422,0.65625
0.4518385167465112,-1.1837778950436268,0.22620852707510952,0.2815157186809222,0.07743538904841742,-0.01363690625145757,-0.6018806093537682,1.0874859326664152,0.07788208571952576,-0.4895753693133931,0.032971740628871204,0.08180162621746943,0.017022786178993006,-0.029933504937918194,0.6640625
0.6819638470033013,-2.7035708668748906,0.16897404000871696,-0.6838486276174023,-0.23058469117092972,1.176965383885313,2.374992005495454,-0.046958495183432356,0.09481313288286093,-0.8794776584162942,-0.04602409692632571,0.21085408493460464,-0.0630510921371985,-0.03940814667803396,0.671875
1.0095311567109577,-3.8372306988742935,0.5325651972614374,-1.785275890491099,-0.28910335224188083,1.264060862998642,2.95005283732265,1.1920847369287475,0.20377628713727472,-1.2857237060647286,-0.06028949470390799,0.27085999761665147,-0.08553084001109851,-0.07336075688630175,0.6796875
0.39023230481326115,-1.3112734143115246,1.0446458731599422,-3.539757511075246,-0.08333968675475081,-0.570576014308906,0.6230875500278076,3.8174427722189077,0.2736560745217142,-0.49739467294028306,-0.03495693673075828,0.0031967364800688327,-0.040011336229177026,-0.07525405805169255,0.6875
-1.1686950843317694,3.7553860956714686,0.3432492909229673,-2.876237869502251,0.020850240071195392,-1.6872468956005153,-0.8040974925565485,1.4430416645130366,0.005159690844436773,1.3491606731455272,-0.04207979306422982,-0.3654642423053218,0.0020895661521923782,0.02653181533994619,0.6953125
-1.8509386763658733,5.248838119029708,-1.1288647123517148,0.43565340280666354,-0.163603802459576,-0.16229776147654826,1.0493129947571516,-4.813966133881125,-0.37296688000243516,2.081711666269825,-0.08333484851405272,-0.3505971685968759,-0.01890186599904581,0.13355399397731035,0.703125
-0.7211270029039374,1.4051393948834743,-1.2934234086688707,2.162143873819705,-0.2765860771190145,1.5358885669671518,2.6273056584198873,-5.8236765402579875,-0.33360039685933474,0.7387066886255623,-0.07296059892254807,-8.391115514523564e-05,-0.04726725526157003,0.0969597206924787,0.7109375
0.8340460832773425,-2.5082639229720907,0.008700673308566317,1.3936830898692372,0.03564173883333788,0.7556244956003759,0.006619787600950437,0.11843630969809663,0.054155934536279295,-0.9429299239523159,0.03891032033127907,0.2191731284558633,0.009012700846388654,-0.03342717348589426,0.71875
1.2466813618183619,-2.5980041088724124,0.6815221184767194,1.7678428580936605,0.4721908185516946,-0.8467300611491783,-4.071853552283066,4.008114260646409,0.21562887766505587,-1.2494036185353845,0.1621862700191887,0.17201667074401963,0.11101799134135625,-0.08216256000378722,0.7265625
0.633662870207895,-0.533610186796172,-0.06383288910042695,3.9470362103752707,0.5616154572460837,-0.879433959382553,-4.946126989187744,1.3827448024512978,-0.0022610245644327093,-0.4953116977489613,0.18461739371201663,0.07083273576626241,0.14887133967458846,-0.015260321553643926,0.734375
0.023457693797272635,0.8505109945435113,-0.7352291337074147,4.561720710441407,0.3873916788013549,-0.23784133127987242,-3.3887369445384197,-1.7269306747897208,-0.1892506014479759,0.14635927811229021,0.12981341692573586,0.01304372935052626,0.11595133020688084,0.04426845629429595,0.7421875
0.0572252418413462,0.30007456692445733,-0.3121665353682773,2.1621792404742264,0.19654020263563607,-0.14546661453675228,-1.723489097420498,-0.6387515228146763,-0.07842720380264684,0.02249719542646374,0.06624911794911646,0.011439088307322346,0.05808564928048296,0.01701317244060982,0.75
0.6428189018999301,-2.1270327600472343,0.5854607832686142,-1.4747618578854027,-0.07331693869663945,0.19900580139936022,0.7676203930114173,2.047739231039947,0.1823070611279414,-0.7762728866277433,-0.012262556752750205,0.12278457271820442,-0.029447846889901347,-0.0593957430064568,0.7578125
1.0440516975912635,-3.861785211154386,1.217973145056283,-4.162599292203741,-0.2866759827415575,0.4963214502566714,2.734333283840489,3.8708190176637634,0.3661526631428399,-1.335515115373777,-0.0746358515038101,0.20250972394116254,-0.09709489552887132,-0.11303009620450698,0.765625
0.5471450429955668,-1.795344067955174,1.3866093596507314,-4.5686707707919885,-0.09498965168767354,-0.7680517843127838,0.6995439480766568,5.105329159510295,0.3638217833147528,-0.6886264004073472,-0.04095361763053031,0.009947800781211944,-0.049332890374915346,-0.10065796005532443,0.7734375
-0.5043265180716967,1.9736262087805767,0.8612575540096862,-3.253940723153431,0.1142865374659129,-1.857515841721422,-1.5318127352558089,3.707082325463722,0.16332066015539684,0.6142330324475407,-0.004822662678128554,-0.2597248219465643,0.016221203675743166,-0.027458835746334107,0.78125
-1.069409527819664,2.340248196421796,-0.3471666224338085,-2.2079819321416654,-0.37690436908751623,0.3615647920483121,3.1386675880992017,-2.4244735375203637,-0.13013198840625861,1.0824324860173675,-0.1361742470762175,-0.18335801043291344,-0.08985261422202635,0.05663015882380075,0.7890625
-1.0577142312508918,0.5440620020899095,-1.4520033718398184,-1.3739459026881409,-1.0121623570632583,3.475749208404729,9.357702592225882,-8.593579519817286,-0.355161190464431,0.8275664598532825,-0.2912708889682282,0.06750048097494266,-0.23628150694185204,0.11054079109067295,0.796875
-1.3705882956270965,2.6366418061677757,-1.601755012442749,0.8277040130696542,-0.574033960200386,2.06500177120361,5.199873397126842,-7.87868933467073,-0.43194391005627564,1.3701000411143798,-0.17289670112905695,-0.08593665724940848,-0.11851347914286119,0.13632278980504242,0.8046875
-1.918030861506142,7.279276305939683,-0.9198440518568367,3.000221618087065,0.5331430088853227,-2.4733406133581,-5.506925473696196,-1.9522566245070694,-0.36337873859910974,2.441994133587396,0.10908507433778228,-0.5270565719203666,0.1598284842511753,0.13264225704569227,0.8125
-1.290013936310991,5.971057458445551,-0.2875998783490623,2.8157923089452486,0.7606627516478025,-3.2018280201629654,-7.535864457424898,1.1583163220923638,-0.18723241281794334,1.8021064154008593,0.1807065497323213,-0.47022934948137235,0.20726644856056853,0.07523308419398177,0.8203125
0.6915659861137867,-1.979705558406726,-0.16164102037650319,1.9978148437802596,0.07570573604277901,0.6893066211914272,-0.374578616944003,-0.426386833362565,0.0031037318592453114,-0.7596015703781736,0.04964633140732059,0.19147424541681532,0.023022759828547935,-0.01779274431142079,0.828125
1.9623505050150458,-6.572913153445861,-0.02767842166043515,2.2267518132390465,-0.16991174931904007,2.5677254622238186,2.4054322031916966,-0.6654233798726813,0.1279278889240371,-2.3238171639621066,0.019780928015937307,0.5724558109183051,-0.04549396568239237,-0.07819036117188502,0.8359375
1.3086920336427295,-3.391548921432237,0.6504312460622833,0.837982628343523,0.2414148689229895,-0.08220827312754209,-1.8868508561396786,3.205947889469149,0.2238631705505735,-1.4147754620412742,0.09894663521841413,0.23709989538788867,0.050815985570247295,-0.0855948885911956,0.84375
0.5619293126718008,-0.7768979844476468,1.3369747709672744,-2.348455151248603,0.31963272415716204,-1.8837589969595545,-3.1305909937726564,6.13149650086473,0.3325065426378224,-0.535221816501083,0.07943538184643396,-0.060291310710321976,0.05998816537074669,-0.09364055457137746,0.8515625
1.477471084859934,-4.710980422312546,1.1211940620506338,-2.184540315571266,-0.08603579015269638,0.4886499266490674,1.0838080039021558,4.065988465567937,0.3609431708693634,-1.7506663653002368,5.279924427472659e-05,0.29386791356126235,-0.04348904535028648,-0.12228581794801004,0.859375
2.355375567263434,-7.939896981848441,0.21573950486123408,1.6422390035261965,-0.2338581449419236,2.8814081444412682,3.090260529640898,0.07677766309197383,0.21305652653274565,-2.8059607290289725,0.009471965164958634,0.6655548748262733,-0.06701392222079833,-0.10793074999706434,0.8671875
0.8236987454905567,-2.584924527681308,-0.327592026971954,2.458069979152728,0.008304486544592303,1.212872196990183,0.34998102346324533,-1.2743342044104893,-0.023712926445057788,-0.9364097191310171,0.038925150986740396,0.2595854424637768,0.008286791527785128,-0.014479821959925924,0.875
-1.738517172344181,5.924966386854807,-0.11220569455441608,-1.2738338801558131,0.1907209490671273,-2.2425449443574856,-2.4940464824623843,0.18460133909462476,-0.14624974140474967,2.0815368078285394,-0.0021138826539572582,-0.5031634216450842,0.05571125615489107,0.07644685026905812,0.8828125
-2.2528381143253338,7.567376662241809,0.35542438053591313,-3.7483483185286053,0.1833645415841978,-3.3015085432466527,-2.7802222666236784,1.9968957072728917,-0.06969331751600216,2.662573419568122,-0.03288321131932752,-0.6955017543393929,0.046130546127162754,0.07049565424342294,0.890625
-0.9420094651513045,3.1059844547551907,0.4405866091887901,-2.7821804618650576,0.039826744173699836,-1.6154352505009864,-0.9127847534456313,1.86167575229775,0.041081999636496225,1.0949219005600013,-0.030866994268809986,-0.31754259130116896,0.005127379483948799,0.012469846077112311,0.8984375
-0.28415124245834933,0.23563471274903672,-0.1988866058239623,-0.9265231383172629,-0.2473535151672195,0.6396748819772032,2.224425635809084,-1.4931783015276994,-0.05166553790443924,0.2309825138866059,-0.07537710300208518,-0.00933460966512875,-0.05973508691779881,0.01894875771101608,0.90625
-0.4040613592318669,0.12508902115324572,-1.1980322067061386,1.7405163651573539,-0.39228956784096236,2.089895275428785,3.8119838123690384,-5.807833311714003,-0.28535468351358567,0.32569901006112384,-0.09726308027502166,0.09865270475851229,-0.07964406578076619,0.07785634478661975,0.9140625
0.1951401586735762,-1.1077571424534656,-1.4229872060553324,4.715802178101995,-0.13383341462863735,2.236144267203877,1.728503401038219,-5.945277052916965,-0.31270281197720945,-0.253741325835719,0.0027857758739172796,0.2385706576318611,-0.008511719681303006,0.06989553780905822,0.921875
0.7186864357644652,-1.9498192676655197,-0.434150181654921,3.280174516096618,0.13165183712904774,0.8725588907518741,-0.8047521058345268,-1.3227601060748015,-0.06143022940674372,-0.7630876436308539,0.0731325353239662,0.2189031840147412,0.04257563575300768,-0.0029870500042732573,0.9296875
-0.5418541128495449,1.7353991652185123,0.5197916659947818,-2.7229088093820852,-0.009742666125833679,-1.1502564721259336,-0.30102620897650123,2.0311506101825243,0.08844466518826381,0.612902693896076,-0.03380937889596031,-0.20796075336211303,-0.010274981274045986,-0.008526593849193312,0.9375
-2.1189190330880123,6.235797383130495,0.3756369039992979,-5.379812747379089,-0.17101995544893217,-2.169956729276624,0.5739592403511439,1.0487898201604107,-0.03784961439834431,2.362464505817049,-0.1309718521309806,-0.5933992435655575,-0.048062739004440795,0.05967591942413728,0.9453125
-1.2275877234942705,3.9848462295934914,-0.0027037755018036523,-1.5747066032765633,0.054012205896424005,-1.4413008151593285,-1.0282044656282425,0.19728965344278432,-0.08116578890481309,1.4356629530080358,-0.02661766817693891,-0.34921042103664734,0.016714014909274676,0.04848701149902305,0.953125
1.2171446535525252,-3.1593037072798458,0.388946266198209,1.593515897448393,0.2320111411464479,0.15277595290901153,-1.7626548451248485,2.159187812435204,0.15720880854199662,-1.3089166243372645,0.0994353063313171,0.24338380787813463,0.05330197122373414,-0.06744668250065787,0.9609375
1.8870324900760487,-5.897633218357813,0.7234805245060841,0.11179856353996781,-0.03215634529294787,1.223391359361689,0.8746339760602286,2.6628478877260555,0.29159274552220465,-2.1925636000524187,0.039009617257016196,0.44071713563892706,-0.022835176052689792,-0.1155544024664317,0.96875
0.6241875559090907,-2.5814841543350386,0.016514857703196346,-0.32403569423714224,-0.24741706564068588,1.3415356167412322,2.543649779027914,-0.6891445118600394,0.0564948668689397,-0.8170828202906714,-0.049088812065312806,0.2159315659175551,-0.06474757325463291,-0.028743278772572704,0.9765625
0.3358950389668299,-1.056402497474987,-0.853743757909555,3.732669678678158,0.03239677408375301,1.2495524160591631,0.07493788873855484,-3.2589468294100086,-0.17988102494340194,-0.35731330266728845,0.042085482086190694,0.18131783959158915,0.025041105508790348,0.034660677539827274,0.984375
1.6288473767380298,-4.236297406670502,-0.6188009854621415,6.447879818148242,0.35766960665772446,1.3968432895538752,-2.468486777407412,-1.4317480988736502,-0.05894639095622416,-1.7150012876217973,0.17420978702108217,0.44671625704815476,0.10458535342063002,-0.02555258664587487,0.9921875
1.9353116460121749,-5.364224922996561,0.32933997717519725,2.9906987731599592,0.2505115473076013,0.921602577263279,-1.6207530345058538,1.9484480587805042,0.18815526295885854,-2.1261744249438346,0.13130192950263156,0.4441407730531884,0.058766851868120445,-0.09201404120687931,1.0
0.3696478052385642,-0.9799574751075518,0.8612811789675777,-2.3757163294070116,0.027701805223739766,-0.6986946140252538,-0.3697494257027961,3.429682861281757,0.22426920485068938,-0.42485373318593056,0.0006622035794619429,-0.002938593759517161,-0.007468667646083972,-0.06287125988718573,1.0078125
-0.787473862178321,2.7521841902383253,0.8431767810808759,-3.8417432994600857,0.07182749045206052,-2.017322399670927,-1.2637549067226264,3.5331415101178627,0.14396653737759918,0.9241259200958208,-0.026343260118711517,-0.32738376661581464,0.005897560620580655,-0.01586327897245268,1.015625
-0.51474483486326,1.962976649994703,0.7567104706542507,-2.9786326113514616,0.10070476127074396,-1.7145182723901664,-1.3900920789750726,3.2766028928628192,0.13966393159978754,0.6229598931269906,-0.0068319300402248226,-0.24861759927769353,0.014609354717596484,-0.021483349959547617,1.0234375
-0.8344182467812516,2.1801973270014834,0.547953144393788,-4.163841405228271,-0.19334557091404644,-0.9622597841733065,1.266953021953571,1.6127050675791919,0.08546615168286102,0.8730987339463726,-0.09715552478808129,-0.2558501182250352,-0.058513141999303464,-0.000725443778748833,1.03125
-2.4556362921079695,6.4625816201232,-0.12009546193210556,-5.5885563403619205,-0.4702658025277794,-1.088005381121942,3.3475773789221104,-1.7539563099663382,-0.16012209258947788,2.6352026514529543,-0.216249908022467,-0.5714928863081692,-0.117032058222192,0.09722026115549752,1.0390625
-2.7833325638658755,7.788627405582522,-0.973197356153361,-2.281349047228331,-0.31648949877995414,-0.8805994520290578,2.0327627551959235,-4.623187451428883,-0.3883347988527216,3.0892598904397475,-0.1630149237868956,-0.5946428991088296,-0.06081430168225598,0.15970288442611544,1.046875
-0.7237378425479577,2.2180922806742753,-1.3364142458787174,3.863801472430513,0.03796528123071835,0.681282311088158,-0.2752025747486935,-5.069663036076139,-0.3597303506144197,0.8718210756882431,0.018107571926051898,-0.056934409530082254,0.03595146972240597,0.10313806950831621,1.0546875
0.7517481598006615,-2.1204070901200716,-1.1040557795002983,5.740547040952548,0.13575137149654987,1.6765669390905382,-0.6237680504641567,-3.9275371652012483,-0.21623099981264868,-0.7887468516109094,0.09142313202499813,0.30296500062789905,0.05539293739983363,0.0332154212144936,1.0625
-0.07274231982717336,0.2780811623738111,-0.7492652974012781,2.8141447554023706,0.050061171358930415,0.648034067506228,-0.2844842027707666,-2.774151528873276,-0.1818789506809567,0.1187408882498285,0.030225388000663583,0.05354298940941744,0.027777832552453557,0.04487676965331017,1.0703125
-0.24565237365088108,1.1763776580871352,-0.3568631945731004,1.7524104639741818,0.17101379173602307,-0.33590959362287337,-1.6008489779894552,-0.8883718798535788,-0.10754681613050006,0.36099895734324783,0.04974617446522145,-0.06138887536419262,0.05291266097820139,0.031245408807179808,1.078125
2.176028634241304,-5.638751919517667,0.40152656089881616,3.9834642300162555,0.43263156065026914,0.5665366552479636,-3.227561200233961,2.7588329282492876,0.21122173999226687,-2.3290116840511983,0.18993691257583323,0.46674316401726623,0.1046749785317373,-0.10340451017313457,1.0859375
3.7673139066084036,-10.78422840645331,1.203478688056072,3.0318733956394435,0.33284705316581104,1.5857702866808003,-1.8600028341772876,5.545870019288402,0.505466224798968,-4.213119951877034,0.19682433088865114,0.8316760163000341,0.061883477577008315,-0.21211756257106795,1.09375
1.5910838621338919,-5.456788668444378,1.1973076969281131,-3.037645943397323,-0.24086840761405343,0.9606013943401316,2.5470325358523804,3.9095049356496983,0.39384420305948703,-1.9459799151345984,-0.042373675299018844,0.3458167621461893,-0.08539210864149104,-0.13285736813243482,1.1015625
-1.315396651288501,2.3246314082662107,0.3796980057575232,-6.818659065434095,-0.713632945765867,0.22544252861175876,5.942506959016639,-0.5756668701852595,0.04075484637150197,1.2154643717403542,-0.2582471808808246,-0.2678350038859813,-0.19054056699295174,0.021782586092929684,1.109375
-1.2066574811026243,2.2577328013362026,-0.3295555160785733,-3.461029870982937,-0.5767987728901302,0.7720951766710266,4.9246843525628785,-2.9450208481976587,-0.12479734022830984,1.1579848660623868,-0.19826645217090916,-0.18389985312200685,-0.14216603755913226,0.0587952755775385,1.1171875
0.27364592828927536,-0.9976446637580402,-0.37746083467817715,1.5546653388141385,-0.04124535723673689,0.8409843033225051,0.5955169783365347,-1.6032489606968934,-0.06801306626068382,-0.32363302659580123,0.007170405847290387,0.12435489614482251,-0.0032945345644721695,0.009409287881719014,1.125
0.08879134376073494,0.6844154826921175,0.04352586932222456,1.7800677273454077,0.3686464534375551,-1.0189606219784304,-3.408703149197866,1.2555950517219177,-0.0018784532086776743,0.05042154825391819,0.10791212265416043,-0.053526140788185905,0.09654103130044059,-0.0021733870185538804,1.1328125
-0.8101383772914653,3.864980291515766,0.5106255025519949,-0.6329357343779453,0.4913074981992075,-2.856426029004334,-5.065207258763752,3.4717953865217126,0.04362591603417825,1.1268717892316065,0.1007525983371489,-0.3771631451883964,0.12154232879444427,0.008457502650577042,1.140625
-0.6388362753921147,3.1847731572768527,0.5912853145853636,-0.9483302680402289,0.4316355724085963,-2.6009536776873183,-4.466456879344618,3.6055056729590103,0.07637911567399876,0.9042373624746827,0.08769454821624977,-0.3277728904966053,0.10446855449186748,-0.0034675427493604132,1.1484375
-0.5698979993109315,2.307198347027205,0.2553442064933553,-0.832960501151061,0.18918718266785073,-1.4432302016040364,-2.092682262135046,1.5772699949259361,0.01444637427256816,0.731392566900302,0.028870400850480718,-0.22371495154847623,0.047113517024108265,0.009855247616347922,1.15625
-1.3869051464549387,3.9134488229749396,0.04525324346966513,-3.0749349660813228,-0.17005908867318328,-1.023365335933032,0.9573494400522738,-0.27415617989000735,-0.06893865624432802,1.5273310857375129,-0.09700416485191299,-0.3545982064288727,-0.042063743344926345,0.04962128996983421,1.1640625
-1.0790258864227846,2.5176833912706087,-0.1052376162352679,-2.863953807924307,-0.33109389561105673,-0.06394367736106513,2.6305511642889834,-1.3444705718320276,-0.07644900586373193,1.109806959256447,-0.12896348239022304,-0.2220788233145329,-0.08205784996420515,0.04402911100122747,1.171875
0.9954148147789601,-3.5907621703114465,-1.0308105055793855,4.479879218895216,-0.14281619843701282,2.643309748583417,2.036633447889713,-4.4674066566997706,-0.16949605158365366,-1.1835525955134405,0.01843471849549501,0.4155206357696744,-0.019052652574082906,0.016316530530173075,1.1796875
2.165788102601654,-6.718403765264465,-2.095314579311216,11.276176843311664,0.11070862171907458,4.3798722043377305,0.493045221988879,-7.913133685890038,-0.35603060644742834,-2.4088129554405375,0.15675685709671155,0.8083540870962074,0.06479118420408954,0.032749220808565564,1.1875
1.0012302930035553,-2.9602612646954842,-1.2999743218138666,6.738236703651649,0.12104643593195809,2.2097290016931708,-0.3272511624270834,-4.745881405729071,-0.2452515439903537,-1.0793595788470831,0.10058683312568398,0.3968715555505559,0.05470387949367405,0.03422338640138944,1.1953125
-0.5525994683754685,1.5867710379547961,0.947008438359717,-4.685566240341724,-0.09841635262357618,-1.397554848655531,0.3955351736530907,3.4221113564740873,0.19134529664434746,0.5807169275039062,-0.06950575500005189,-0.24158547005824418,-0.04109461071517482,-0.03288468924689295,1.203125
-0.9489348712182594,2.2817266992028533,1.7547040246333936,-9.375153184328614,-0.34534577298420605,-2.044685682082666,2.2836565028997153,5.860841556961727,0.3672794551591768,0.923087350056383,-0.17316311801368792,-0.39422979510456085,-0.11973749922581402,-0.06536067999123736,1.2109375
-0.8989454812629906,1.9509578236959348,0.6413030042333595,-5.430043264193272,-0.364761712887854,-0.6438415837649732,2.8101223413673195,1.4593500325446376,0.11143757881035286,0.8763938332358855,-0.15033175890448414,-0.25065294898766577,-0.10484714021748386,-0.005253133220780304,1.21875
-0.826060312528417,2.5772977167871343,0.022205509443149436,-1.3501433286668563,-0.006077299549601551,-0.8751872054870082,-0.30866069066967206,0.09291963692923082,-0.04685630892985896,0.9489890112656089,-0.030263149216821852,-0.22963169335720168,0.00019505279793022035,0.030733492004020157,1.2265625
-0.025660121872279357,1.2381110358620875,0.3140945043534111,0.9791177258180854,0.43315893618638557,-1.6360723535484683,-4.134953219317533,2.4948209664687515,0.05001922221469924,0.203267430590972,0.11610489836209467,-0.12785878977163187,0.10909282024066108,-0.011945796001259182,1.234375
1.332620230458912,-3.116223643216665,-0.16981639208947785,4.655522551451344,0.41283413809837066,0.40236877859929354,-3.233578132175173,0.5083691529435798,0.024807776331794058,-1.3583416884305062,0.16859043071053761,0.30328648326927143,0.11089414454304483,-0.03856847327205929,1.2421875
1.9374134115539494,-6.186277417398021,-0.8204162472134697,5.778666409924891,-0.016361681511089413,3.018483958617789,1.1931651251834212,-3.304003353361957,-0.06660462252239131,-2.218121650653427,0.08201908930536858,0.6255507700443584,0.009492651856056097,-0.03100048196744406,1.25
1.1595004837408727,-4.156199261166833,0.05965613071944881,0.5112791788087533,-0.2110261604501699,1.7405549040723387,2.411406481001902,-0.4176684018656358,0.09931518747368522,-1.4177990684423698,-0.021530168724997675,0.35018077244719714,-0.05637250674292677,-0.051902917349440546,1.2578125
-0.20792258549351103,0.8045987903310692,1.0203065000628881,-3.8801979585194095,0.01242724973081615,-1.4443042575184195,-0.5226627700521459,4.025460377987872,0.22507847180356522,0.22998950201102114,-0.02744587467861543,-0.17656323209245742,-0.013474861276753243,-0.049200279918364107,1.265625
-0.929489928372955,3.282595570707032,0.08300907727699547,-1.0097623695682973,0.1388419443802281,-1.4702751343749108,-1.7248746895698703,0.7594963754429236,-0.046519432651707014,1.126629013701715,0.00647698995695931,-0.29256645571560813,0.037334485684246715,0.03314590013195043,1.2734375
-0.7148713654116899,1.9737663563362058,-0.9307135429144106,1.9278033331867723,-0.06416072556831826,0.5155212438615715,0.5515721953154136,-3.7990315108258357,-0.25946444769341903,0.8129492646441774,-0.020074123547629292,-0.0797268716829579,0.0020079132582989756,0.07902650628706613,1.28125
-0.5157026428444352,1.0430992606224327,0.042289466225866955,-2.0350001676191414,-0.2254718526263277,0.05548921686339548,1.852323981710302,-0.47990561331507736,-0.011105702745551192,0.5015908736902185,-0.08293081283606352,-0.10438633451122808,-0.05815927978133008,0.014783269609037112,1.2890625
-0.8912267851605019,2.5121963043527127,1.0185953242603056,-5.7315852131395335,-0.15379662201050273,-1.6797411522359982,0.7419229258298256,3.5579114511930094,0.18968402990500033,0.9470648621931209,-0.09887931631331225,-0.33213485054528824,-0.05652166293491105,-0.024293529033865967,1.296875
-0.8151197901148731,2.383234440314121,-0.046429139708469784,-1.384027147133533,-0.0654133301842988,-0.6179842130803824,0.2622684667906173,-0.3366523798678856,-0.0587009225214332,0.9136858559884468,-0.045446042039242095,-0.20781767012338248,-0.014173629206383627,0.03334444921238825,1.3046875
0.36378135103198156,-1.263143454670433,-1.219013220411813,4.910008648006228,0.0018748968332853377,1.785913149108046,0.47922281912861825,-4.755182897869161,-0.26105580713819754,-0.3953410919695358,0.04256645986381008,0.23555139070539047,0.023185558273779005,0.05339111430156129,1.3125
1.0945433723154303,-2.9524840101112257,-0.4849160353007887,4.377690032913275,0.20176129886558986,1.1259411110862623,-1.2785149324703406,-1.3316562110222856,-0.053134448442939186,-1.166199750767791,0.10738310744759304,0.3143288669630853,0.06136101597707359,-0.014104370931176384,1.3203125
0.09825462278890285,0.7670334317333469,0.6505727327128702,-0.2740053436885613,0.38598503099538845,-1.7647944268350049,-3.739896705808065,3.673149644552468,0.13945151983426257,0.03659629093197732,0.09858519475564899,-0.12339678794526703,0.0903352207806746,-0.036307434579551726,1.328125
-1.0368405097999,3.9795269463050644,0.43061066535306963,-1.8039172075453926,0.263769103607806,-2.347531080642898,-3.022207661183775,2.4942990392868625,0.021901932734971135,1.295934088434319,0.02981983482627663,-0.38636968252740717,0.06374343096806685,0.01925874408222993,1.3359375
-0.4553981392236468,1.1664748562487197,-0.30056669791355844,-0.04823763460019319,-0.08987565517676345,0.12609310169366497,0.7190238159482566,-1.42053867630472,-0.09427877900341178,0.49421562432202226,-0.03376259360689762,-0.07541079100853844,-0.01636048490439683,0.033223995057386484,1.34375
0.7480704687709915,-3.2522311456871646,-0.4195223173795302,0.9829530956021798,-0.3376923086989272,2.2368044272343446,3.563338094352272,-2.6571229750486807,-0.03318200600144956,-0.9898875013622465,-0.06034090976603132,0.31646959679579406,-0.0806474597847123,-0.010330977224586677,1.3515625
0.7024924679760013,-2.958154720908491,-0.2923039487063085,0.7190973354047401,-0.28445383410310227,1.8885962765787883,3.011582301235352,-2.0019685383389163,-0.009051362294597822,-0.9177671676652445,-0.04973010085028476,0.27931204635945805,-0.06899953510297163,-0.015043597527496061,1.359375
0.01473114124354039,-0.031455258300073494,-0.2806066377540771,1.1005038633677897,0.014972584013652198,0.29420387718311186,-0.06540405972618926,-1.0494549554280583,-0.06491982671475874,-0.003843543176212274,0.012006787793162435,0.03129483171782518,0.010103736533978004,0.014837034451541171,1.3671875
0.15957609784151058,0.1838371018227712,-0.06181826035854235,1.759997618478181,0.26425991840092306,-0.5250475946966998,-2.383845225520996,0.5339132335542366,-0.01686597679599742,-0.07158847535409349,0.08311441531455745,-0.0020085970002280966,0.07136940470935896,-0.00020464366716756578,1.375
0.681462237720145,-1.7515432306098455,0.3783145999595043,0.3150503990065512,0.12792784417134717,-0.09892346197571747,-1.0249472841577407,1.8314699414771254,0.1260119758048884,-0.7350867014924368,0.05148979055569855,0.11766503891185698,0.027157382701257254,-0.046949055396063255,1.3828125
0.46012639641614056,-1.975280139877531,0.7357617691537948,-3.1067327999652847,-0.24267555259907045,0.31801079635367985,2.217608038253369,2.141318295019182,0.21384280110589335,-0.6385879508352795,-0.0707917418077503,0.08813951925464367,-0.07599861058177126,-0.06254233441665542,1.390625
-0.031705774566754934,-0.5493044977144926,0.9466796840734703,-4.862926028920654,-0.29562284902089536,-0.28989230480515765,2.437462408548118,2.824184709369184,0.23445321175962225,-0.09812918209587929,-0.10790554443924523,-0.06037078981657385,-0.09301829739658254,-0.055607019809098206,1.3984375
0.09550401993853201,-0.26427347344202107,0.8561931942598361,-3.0370744723457106,-0.02688865525563584,-0.8230563321010149,0.02275747462075167,3.259931826837217,0.20819793089619426,-0.13261364050036586,-0.024456988109079907,-0.06721101228575155,-0.021297649750565334,-0.052458989963977104,1.40625
0.20498919758087258,-0.7380154495640445,0.18426653661077194,-0.5861407094620263,-0.048400051177851934,0.13389030696887483,0.46768430969252156,0.5756247845561203,0.0594652789018974,-0.2562749179631154,-0.010850639035980516,0.04289008518749865,-0.01517470064832378,-0.019468369620941495,1.4140625
-0.641180107636958,1.0633165972571748,-0.731084050077763,-0.00914520364860587,-0.33635319484026266,1.1387172624312163,3.051519275876959,-3.813704776421556,-0.19403413097611968,0.6135779694060687,-0.10051837945254455,-0.030047856883779176,-0.07304892396150975,0.06169241997960969,1.421875
-1.6493501145059206,4.766761567467245,-1.1027656280903797,0.9269375190973748,-0.1067992472077656,-0.14198159026900015,0.601891686740362,-4.558781125063775,-0.3570445868465408,1.8728293667020648,-0.06053371048653692,-0.30885230509336337,-0.004797897036332267,0.12486675483997425,1.4296875
-1.4076801879523124,5.864895511119673,-0.769529599333294,3.5625992153598323,0.5980328283893357,-2.297631355300874,-5.934687986525721,-1.1969473661616172,-0.29940973922312614,1.8782993675524138,0.14162220153956132,-0.4164404021661698,0.17351092410931773,0.10492587499358395,1.4375
-0.2760941095113578,2.7014492292229972,-0.33081194915674517,4.324725705527823,0.7249378384939414,-1.9873184785067397,-6.758653368024343,0.8503732719000916,-0.13109507659474962,0.6221573287009242,0.2063717402736167,-0.18019415659729332,0.19724582731068277,0.03731166621771189,1.4453125
0.30944040049843646,-0.7006997171829954,-0.21434100408471224,1.7757161637295733,0.11045854012943394,0.25226963962517385,-0.840332859030468,-0.5198537443346256,-0.03547538781109165,-0.3046680818719262,0.04781111757777344,0.08599865510621446,0.03339729862248472,0.0005969212244358983,1.453125
0.36962268931561454,-1.65970437629581,-0.2130194287119325,0.39395774752104457,-0.18880541399788092,1.1712962976299663,1.9601471440098353,-1.3936671672035164,-0.016012629626825935,-0.49666796560167753,-0.03584551790028009,0.160112569033653,-0.04501123310073055,-0.005330634329107158,1.4609375
0.9676423765988884,-2.7580122177574977,0.04947840471969823,1.7750063258722373,0.09933640369972718,0.6644065563034397,-0.5394074196780796,0.4614534719932891,0.06919460446509174,-1.0707121814700433,0.06086787246024336,0.23862634689214546,0.024996312915893243,-0.040213903056990186,1.46875
1.723430656571356,-5.117758252527385,0.5809761062114138,0.9176063019777063,0.07792694441198174,0.898224176785489,-0.17598350289039416,2.447010096445886,0.24257230104986424,-1.9569928065997282,0.06801156303548322,0.3899420873274577,0.008882464743407661,-0.09993870442558062,1.4765625
1.331102953882415,-5.007076235672156,0.9957028914555914,-3.363009809478394,-0.3733253389589447,1.30033435051162,3.723959571763483,2.746141114170518,0.336798397711842,-1.6971925166478095,-0.08449360064604172,0.32279463448512136,-0.1161289918133507,-0.11291514037177096,1.484375
0.14299616136090074,-1.304551097490079,0.8840467049735024,-4.759090588804613,-0.37380153899026003,0.18972028180639697,3.256760891280214,2.3440662500523044,0.23477351504908822,-0.3296319978073917,-0.12276079464753561,0.009785311131599882,-0.11266154141507226,-0.059895366133174664,1.4921875
-0.4851291617898658,1.7036283718101295,0.24436205452894758,-1.3060940460665487,0.05906531195165697,-0.9639350043852415,-0.8380301665739387,1.142066627988722,0.02358579895799802,0.5797786823971993,-0.005185020415461455,-0.17377256042359254,0.012871550196809523,0.005633329667104196,1.5
-0.7296259428951735,2.339520435755697,-0.42610394820750347,0.6120046545239578,0.03828829958844506,-0.3803566225302969,-0.550149447721995,-1.5260547742548773,-0.14757783252102835,0.8631623649283546,-0.003533868949513727,-0.16102087963296713,0.019730220739836803,0.05252465640171479,1.5078125
-1.402545473072148,3.420530647423436,-0.6283534843330524,-1.586821563528334,-0.35049818873116084,0.2646963713597043,2.831145169441637,-3.4375383534670187,-0.2183325512441357,1.4813946154244322,-0.1330975208712703,-0.24763796068047603,-0.07739549602573813,0.08583294287323083,1.515625
-1.7012445178385798,4.456640276767487,-0.4558044390054539,-2.4982215671140247,-0.31889170710771475,-0.34070439877140235,2.3570823580425353,-2.6605510481401606,-0.1985842616396811,1.835427898959312,-0.13844145829400012,-0.3552344391403211,-0.07170442354476729,0.0883062328808692,1.5234375
-0.6390449333421847,1.894218283637775,-0.35835448013966353,0.17729497288429766,-0.028174959759253614,-0.17726815112919483,0.07907067424622313,-1.4555644713952278,-0.12234497998868724,0.7316904825970962,-0.02105301459931211,-0.1310293661836064,0.0011320798550132185,0.04439040896090167,1.53125
0.7865370779951005,-2.489208780109841,-0.3243481526979865,2.344383456498026,9.763920821185709e-05,1.1944350611009844,0.4120427781758527,-1.285438389564523,-0.024805194143150786,-0.8965081115986898,0.035319637231464224,0.2508574584326623,0.00591468413338543,-0.013300873505472228,1.5390625
1.2522916548734744,-3.438122486397476,0.05525589450784975,2.5882055086481066,0.1809639253557183,0.7235948308200016,-1.1798166043426168,0.70605433933319,0.08415207736315017,-1.3644487282867332,0.09417971370269926,0.30082300237734894,0.04597950002447543,-0.05072109517252861,1.546875
1.0518680480666296,-1.3757068298793187,0.6134496334231775,2.91434152837845,0.7137191840919848,-1.6620210198760772,-6.3732651332034065,4.4529752874761215,0.17476884689379285,-0.9254063397373788,0.22643758086243648,0.07960520253643767,0.1758851234484112,-0.06784768062961799,1.5546875
0.7195410073090348,-0.5886819567843294,0.609714025847488,1.942023205649358,0.6157959445674634,-1.7259386589235668,-5.603063666985229,4.166561162199431,0.15785589818840057,-0.5833970342790571,0.1868567783642433,0.007499793781459871,0.15064197649656505,-0.055752040080257664,1.5625
0.09373454497951822,-1.155376763593651,-0.03716036168892167,-1.3686834080376753,-0.3356214654527845,1.0981139112433058,3.1544795925538467,-1.1279115048962198,0.014883408593541864,-0.2423269736687025,-0.09169236139451126,0.09273983153409616,-0.08627243415893704,-0.006046765868212772,1.5703125
-0.38328031633790277,-0.6008592943977211,-0.5209771897880013,-2.045198137200017,-0.6783440534741928,2.144812762738702,6.276974893061986,-4.008866042448154,-0.11148993491628699,0.17401665930657906,-0.19457184671723513,0.08296546465127341,-0.16676222460400728,0.03582369234360933,1.578125
-0.14186813298961864,0.6845877933093308,-0.39713961910362183,1.7367731192472595,0.10814736122464712,-0.0009954313965360295,-0.9578008732531905,-1.223759895341513,-0.10686817644696106,0.2160523210825524,0.035962576911171294,-0.016750047113829523,0.03672262739573722,0.028557668505347307,1.5859375
-0.15655356654240613,1.7228634051366154,-0.0220870497795744,2.1851418919241246,0.4767184665661578,-1.5107626386585336,-4.498154650596472,1.3273584574035244,-0.03852914297173349,0.3775112458224477,0.13188251326675005,-0.1346360013990883,0.12660806032470767,0.01239735819282423,1.59375
-1.1965238061041423,3.2238084902087616,0.2802500370770697,-3.8627209773996682,-0.21663656242848053,-0.9641160263678523,1.4057458567622596,0.5057884565558909,0.0008438068224334619,1.284976164843092,-0.10968043221131905,-0.3203000594709329,-0.05895942849706394,0.028311105666993127,1.6015625
-1.6184587084564384,3.984137682972403,0.4446257456918935,-6.1850589468279376,-0.4408719174382479,-0.9523670087237207,3.261827109629464,0.4971006853920255,0.023485395825278466,1.6759008206624446,-0.19221111339830568,-0.4110925026868252,-0.12011661707453379,0.03315260684333175,1.609375
-0.10790569754631596,1.4354467477067094,0.33632409389003987,0.6460920948715334,0.4088130905746051,-1.6792216682450651,-3.949292196986082,2.517673636047345,0.05162789947856428,0.2880628010398498,0.10569198302992452,-0.1482873171665291,0.10218900106857562,-0.010288926652868123,1.6171875
1.4535860851812274,-2.70748805661404,0.08651518260003362,5.358029255152114,0.707694711092286,-0.6113509915220492,-5.9881430158470845,2.372013974892013,0.07792928904021297,-1.3814748944104471,0.25093378996980686,0.25064868476727203,0.18281806106181397,-0.054277204239391585,1.625
1.1344069603687086,-4.172807169737639,0.08179085425911103,0.2072164197744311,-0.24838574921403933,1.8000157588578645,2.7496562125169066,-0.4442784644384912,0.10468239009880159,-1.4055151296017456,-0.03363111681820559,0.34822175861157034,-0.06689272256179282,-0.05258685713910824,1.6328125
0.23474401204925047,-2.9536860713813335,0.06474246944162779,-4.120361437576833,-0.8669770912920709,2.651695031280699,8.11421460700877,-2.3030821082563064,0.07430440319386593,-0.6235797718083197,-0.24116277324604588,0.22288480165099944,-0.22719869529024253,-0.023401781934807124,1.640625
0.3374903270651381,-1.7833067471584754,-0.5064144826351425,1.0324788963422031,-0.2632339507306344,1.692820290282145,2.7217455223210343,-2.7640378208984813,-0.08317298244116411,-0.4852856501958717,-0.05103618657044376,0.19921195699858626,-0.05890629184580728,0.011575469315429852,1.6484375
0.37719534699563717,-0.5679688181001911,-0.9991320380634772,5.50783553516555,0.2782980234522617,0.7547248573739287,-2.145370021709918,-3.09627911894269,-0.22312848594355855,-0.3013434737050886,0.11719189401076167,0.16130765503740493,0.0917343602221457,0.04390130780817921,1.65625
-0.4962396556471557,1.2580186635741617,-0.4016038380702424,0.2143871391941271,-0.09915717485036782,0.22876918462668278,0.8107778256702178,-1.8467569586726438,-0.12035746689181928,0.5387424635941472,-0.035172021622966745,-0.0730263038139729,-0.016650771426141072,0.04045305753574458,1.6640625
-0.7924464415948951,1.448596792571641,0.5263192955064802,-5.139448239250192,-0.42516390294008316,-0.2244516338837412,3.4416037966000737,0.8238378754315142,0.0939060173755325,0.7306768264581671,-0.1609346728273211,-0.19637584052368023,-0.11837971545641839,-0.00361655266546076,1.671875
0.09064035487335005,-0.17789061006097528,0.3135841757840945,-0.8506438593977643,0.02469651304335256,-0.3438983237135399,-0.29395676356803874,1.291611072709756,0.07810518121420897,-0.09713184927071203,0.0031600350410796955,-0.01708999613612094,0.0019104316818524785,-0.02128231059812152,1.6796875
0.34145990110697794,0.25333103252103145,-0.44096195655438397,4.683955806811075,0.5291163991578252,-0.6530467648686558,-4.649984034585336,-0.17031165576073035,-0.10724673152989336,-0.1664042989009351,0.17411575478511013,0.03949236562098255,0.14715279386093963,0.01687025964066304,1.6875
-0.5903359616366338,2.9933748593852725,-0.14306252922596763,1.816839131500337,0.44825588094838964,-1.7433042750497905,-4.384660095087363,0.7871027642640446,-0.09288675244111598,0.8672428567969297,0.11175329241788766,-0.23429946307490368,0.12185275748970809,0.03589603566781352,1.6953125
-0.781578446857639,2.939611267261378,0.7083092777870604,-2.9326464037745135,0.15821823176762576,-2.100350653686054,-2.021213052596214,3.2616727774228327,0.10843428277783287,0.95405580072458,0.00168573431407299,-0.32716191753422147,0.030758333811831882,-0.007606027737558002,1.703125
0.2403005565503424,-0.5367713162279486,0.5513316093248989,-1.3353315510711843,0.05643190589927005,-0.557122784413978,-0.5938784230188329,2.32059753112221,0.14223803325710552,-0.2604836261091874,0.011277643422543563,-0.009623968627264522,0.005457521481120406,-0.04025698601833021,1.7109375
0.5129629021502699,-1.6763541122945784,-0.16147230597170972,1.2253162798603003,-0.023853030789961933,0.7849132421424888,0.47406861643784143,-0.7005118098532991,-0.002667432419062465,-0.5948371611952906,0.01470595656873587,0.1612047837479415,-0.003055395823066273,-0.012058152758038444,1.71875
-0.30980078338137335,0.48063128655327636,0.022164355364929077,-1.4907729728820278,-0.1933629545179265,0.19692700755922898,1.6413437451050747,-0.46049516261052315,-0.0038907259343165957,0.27943737718477674,-0.06626220023828731,-0.05227920623852196,-0.04947175218427454,0.008132154669052037,1.7265625
-0.17790849873886816,0.033506390557360474,0.6934758451592068,-3.879838477445269,-0.23548265926712128,-0.32089755917367985,1.8935619068496203,2.0180478688289463,0.16295652975952848,0.0993771007236666,-0.08955989536414503,-0.08343118064551108,-0.07263874565595446,-0.03499901057387037,1.734375
1.0870498970622544,-3.4888417546917183,0.5411825905967069,-0.5636439028919186,-0.05985534837280806,0.6790045331110659,0.8497376139974181,1.8923496849458206,0.19885521663174383,-1.2814559534757541,0.00793126314404878,0.24710398801200173,-0.025601463566404567,-0.07415182798203708,1.7421875
1.046217659155904,-2.9961055378832824,-0.18736730452114425,2.8166004632837867,0.11326477241398798,0.985914212025487,-0.5602815319441576,-0.4361989044686305,0.01744183152544486,-1.1518808717368896,0.07341254260168888,0.28470796193854847,0.03284898664480776,-0.029784289176176263,1.75
-0.725692333845975,2.4429847675147025,-0.5129130579304471,1.1672468761649768,0.08661308839116827,-0.4155324640357256,-0.973569998189586,-1.7220677685323542,-0.16997668358186868,0.8804407273277411,0.012572569774833864,-0.15957139406296672,0.03408970425508983,0.05782323633829396,1.7578125
-1.5077740197670042,4.5595111197842,-0.5596533695870312,-0.4675862930717393,-0.03971158121960733,-0.8177634703683427,-0.12270108212249278,-2.251340755229606,-0.22439153673471093,1.728954658970267,-0.04930971662360846,-0.344288146869114,0.002966657605621789,0.08976244131745235,1.765625
-0.22479992357952497,0.472945324307209,-0.7581121794740597,2.081086050526711,-0.059311884349871224,0.8129181353870559,0.6617973402658597,-3.128830119669269,-0.18821628236143143,0.24847189843114129,-0.005970253468469594,0.03416144357218603,-0.0002317539157465435,0.050175246659851847,1.7734375
0.7891860797686431,-2.6567263391403637,-0.688821145218962,3.4325458963704087,-0.04557343605537506,1.7550037079035554,0.9451802281759845,-2.85200210615124,-0.10821577593357531,-0.9133330892647983,0.03118487757412814,0.3018930001338403,0.0007351425280360328,0.006544743341336428,1.78125
0.20239506903924856,-1.1929505421282605,-0.07164734825204597,-0.4927224614892073,-0.21657583245013123,0.9132433614092645,2.1018345874660316,-0.9251664054570288,0.007301994515091677,-0.3182715284929016,-0.05276155464072601,0.10401953769968808,-0.05446279013409123,-0.006914328382858277,1.7890625
-0.2599679762416875,-0.11574597933950538,0.3787893677006449,-3.598986598811486,-0.3796175644061797,0.3712519285207463,3.2857156336094224,0.372071524845801,0.09155404859571646,0.140050301491204,-0.12618451137919348,-0.0424202175063794,-0.10468276582528215,-0.015849945488036286,1.796875
0.40835049581580835,-1.5116798930270816,0.05906050302345932,-0.06851291443784373,-0.09648703020945748,0.6281100029023727,1.0355773607839909,-0.058814232243906334,0.04556879410135626,-0.5069769139793222,-0.014621649453265073,0.12217022293268563,-0.025710958123032385,-0.021028410178518545,1.8046875
0.7254862103790274,-1.1525875283523002,-0.45787957164540566,4.926457012736921,0.4500614635515149,-0.00755562286344834,-3.7489216522096087,-0.47277590925771473,-0.08215948088953226,-0.6396260113587992,0.1649525843319079,0.16171357766218455,0.1261524777911216,0.0016883973615104114,1.8125
0.026622498348710062,1.3318922650832727,-0.18514800116914745,3.410657054094262,0.5540503415519137,-1.3534931658814524,-5.087943742641463,0.9205790894899573,-0.06825063561774387,0.20182291148465464,0.16407806329021854,-0.08119827567024321,0.14931409952914312,0.01511542638161085,1.8203125
-0.358452098242733,1.5458426703033512,0.8059496556834631,-2.786672993341648,0.1269827019341967,-1.681625119403076,-1.576053461570685,3.536510796444133,0.15967983935432065,0.4531909549417932,0.004927983629381026,-0.21637355367917008,0.020306476408190204,-0.03007644693381354,1.828125
-0.06610604919489316,-0.14863146838389552,1.3420044786260474,-5.841956010210943,-0.19858205261092515,-1.0626701675741326,1.412704898692171,4.651626703714927,0.3193008414873715,-0.025582760028101986,-0.09089959685272812,-0.13360097348088676,-0.07474242451356443,-0.07525784164131527,1.8359375
-0.15265591988548624,0.10444480022075353,0.8404123031469053,-4.108788416709829,-0.18364070243076944,-0.611834454469067,1.3818961199559505,2.737713889163002,0.19572948733089124,0.0880426089244124,-0.07743558760820377,-0.10314683590878337,-0.061613906926665615,-0.04355722443787987,1.84375
-0.5288801380843122,1.297366894852124,0.22342721372706928,-2.317979378425655,-0.15083147034388364,-0.38274555651196085,1.0958309879412307,0.4400711785219147,0.026275201640480108,0.5446205670304372,-0.06606683411234428,-0.1426866519903158,-0.04147492558226288,0.006165205633249497,1.8515625
-0.40181523544033465,1.0004779088517277,0.24521097696968333,-2.0183882749364543,-0.11275686549163538,-0.385061695944214,0.7900728170706952,0.6349599247360962,0.03786525183141823,0.41414007413489695,-0.05130792542783499,-0.11771239029875118,-0.032121153192279164,0.000366461377620074,1.859375
-0.31708286602802055,1.3343624641835676,0.09452427334720294,-0.1867635983524541,0.12631175247999685,-0.8079660651331528,-1.3471514761921533,0.7533715479942764,-0.003729368550870785,0.4168011331578474,0.02341495111774148,-0.12394756290101253,0.032968675248232944,0.008163521764647205,1.8671875
-0.5919481339737759,2.341575369504229,-0.8274171906742079,3.1489307002053746,0.22336691849637566,-0.30391325070730474,-2.095400276112683,-2.540583487015631,-0.24126483520815317,0.7873678137586848,0.06356323131050365,-0.11401200198434197,0.07516290454813546,0.07161181948920523,1.875
0.10153925165357167,-0.879786247929181,-1.3415543289363854,4.126688724030072,-0.16288194278270873,2.1266966168348835,1.9322218375330014,-5.704627407572739,-0.29770502939847016,-0.15950045346190356,-0.0107629499650133,0.2093493680418016,-0.017706548870931895,0.06861930026498698,1.8828125
1.6794799972325993,-6.5242535877102785,-0.646435922078029,2.5386775451141386,-0.4679420896295277,3.846602749072176,5.231006625891539,-3.9512202389968754,-0.019761147831942036,-2.109761684365066,-0.06017431404204614,0.6230236230214398,-0.11208885960539847,-0.035821970085500275,1.890625
1.5505769702650116,-5.009617801030537,-0.0547930960610871,2.2352383602228283,-0.06201425581082173,1.8607651317546439,1.2392167650400105,-0.44997625290214055,0.08939289046150378,-1.8049639907427732,0.03743466923336916,0.4421721902780644,-0.01617855176132524,-0.05911530975910382,1.8984375
-0.7043513339365863,3.506242386120769,-0.5093657781927611,3.3368586150502195,0.5250967767361515,-1.6568978426734804,-5.034419424695999,-0.4154198249604739,-0.19009486743543666,1.0357564976247342,0.13854030650367974,-0.23911941006307053,0.1487800360053837,0.06180667000642414,1.90625
-1.79611940217208,6.676377594009302,-0.745259080719559,2.1124882459870022,0.4398101130504002,-2.2831186679068445,-4.642177617013447,-1.5452663637883832,-0.31027729878924765,2.26037561931752,0.08216171101969871,-0.4957184097936318,0.13226024492031524,0.11696199985562547,1.9140625
-0.23026077894461275,0.6601972644601695,0.11164360943303182,-0.8899597576695853,-0.031363372563931374,-0.2869705706468458,0.14319492145682722,0.3525095622911095,0.013456436441587675,0.2528896158017773,-0.019058705809137173,-0.07152883217088987,-0.008515281594047073,0.0020101774345750003,1.921875
1.3167400746936122,-4.249417446630709,0.7991467714273418,-1.284221029724251,-0.08801910062741926,0.6999278447266157,1.1291884432039347,2.8070223996863644,0.2753654255157128,-1.5610667593406984,0.0016961700238116706,0.28651455166527334,-0.03785800839867556,-0.09793829433422224,1.9296875
0.8967589013887276,-2.4434891583346747,0.4500640652362546,0.3415341373797535,0.11869397519971658,0.0744771850239304,-0.862001381592472,2.0681651182185288,0.15660638706837335,-0.9883749588564875,0.05466845827055325,0.17068021854152277,0.02299692927303036,-0.05952662748202527,1.9375
-0.20037702561410123,0.5050414132048309,0.1019810963646895,-0.9147345330497294,-0.053815481460404345,-0.17683527805917074,0.3725794488734912,0.2453910835603961,0.014159848978651909,0.2084336420093008,-0.02425138334526481,-0.05793516522710516,-0.014365270905879308,0.0010749475782680375,1.9453125
-0.8118780426059166,1.542873183968701,0.4938132786164527,-4.982377599058383,-0.410826830598686,-0.2501983666563275,3.3086451492091604,0.7460596267848153,0.08478418230387094,0.7594945493837892,-0.15684847308459868,-0.20110294863663242,-0.11396349610222306,-0.0009172739305481312,1.953125
-1.1410268388471125,2.7885792741358237,0.9472479584458086,-6.787631525969594,-0.3469758673556195,-1.3048765733306764,2.445039081562711,2.7149810993585874,0.16661308035390807,1.1567334336163517,-0.16081993695669078,-0.3551134137306176,-0.10508467557824355,-0.012612399719090395,1.9609375
-0.6009158986491075,1.8681141715547684,0.9808093432379291,-4.645609716279548,-0.04999861801562277,-1.6303315066809678,-0.08970895832763714,3.706027063358924,0.19411034651192957,0.6563245445865289,-0.05820948252103488,-0.2682985937480536,-0.028856784326005403,-0.03236835292269477,1.96875
1.1758596154667926,-3.724108162178883,0.7642624469853746,-1.216838947516852,-0.05381664645831753,0.49172262196727085,0.7619876511829863,2.7923752702919384,0.2570774940085668,-1.384973723928091,0.007006744300639876,0.24455326443189088,-0.028348199181566506,-0.09022560330639923,1.9765625
2.023545682064162,-6.724116454535447,0.12591827013616794,1.8094818937859374,-0.16136181296608323,2.429354625235563,2.3052368880287126,-0.04559336633651553,0.16732592513170705,-2.3929714933409807,0.020805623474693162,0.5705248359483058,-0.04610518389129777,-0.08904897737801361,1.984375
0.12957517684312936,-0.4007931645173403,-0.9587087298493164,3.8057304596531516,0.04025986920087558,1.1285845837306518,-0.051172187285100264,-3.619999123893344,-0.2170197789845407,-0.11416732677463985,0.03928209869958393,0.13461676957832192,0.02862021595973397,0.04852161506982153,1.9921875
-2.264745039986534,7.550643356766591,-1.6126330713453052,3.5421387560347646,0.2477854314660463,-1.2140433847169236,-2.800524259755954,-5.47615540974119,-0.5328745404277893,2.7351535561645193,0.03180033655901219,-0.4888326260491935,0.09781158662044984,0.18167941813606156,2.0
-1.947878914298262,6.231000792816329,-1.2982725091140594,2.214836235862412,0.10706213826666226,-0.8434992575578814,-1.452162976805138,-4.675840247226679,-0.4322665852635185,2.307790685427414,-0.00506149924612149,-0.41029601819275985,0.054973949780488446,0.14998426558433572,2.0078125
0.3299833262704549,-1.0006172666138204,-0.6929394412076046,3.1713325537735093,0.040136018255548925,1.0320874818236616,-0.04156752658186704,-2.594747592600746,-0.1424550340207279,-0.34965184177350817,0.03985505070199808,0.15954722121442413,0.02362920001819264,0.025772306432511587,2.015625
1.5356971642028943,-3.822329233788782,-0.31899517377272774,5.388258357389563,0.3927085532618228,0.8502020897710708,-2.911485804997099,-0.1425585862713828,0.003982929754297999,-1.5985636642707237,0.17336909534976258,0.38008191590887,0.10761709551091424,-0.03846656313503776,2.0234375
1.0516090062281072,-1.6585302046274817,0.24594360357951608,3.7617647493102386,0.6199291837777418,-0.9652847702117916,-5.392659147869232,2.7459435877648235,0.0936355657148497,-0.9581710640147437,0.20822413574115956,0.1392145324600437,0.15772924385181586,-0.04839092203848052,2.03125
0.46221558152887465,-0.6636884846856188,1.0236567003965593,-1.674429078382086,0.2564474103563491,-1.4443395246506106,-2.4986388364291687,4.726544608135733,0.2557860194137945,-0.4415719165824324,0.06540333629038306,-0.04031860133543976,0.04966230815805747,-0.07289846485787621,2.0390625
0.27622610278929166,-1.3345701141875579,1.1195828622170587,-4.699610916814047,-0.23389391138049048,-0.34446648027677135,1.9456892935453698,3.661325425215104,0.29085877780234676,-0.42949988000115685,-0.08354637039060749,-0.007284340957388176,-0.08009309337534926,-0.07661115341849031,2.046875
-0.2052915647018815,-0.2225695246831722,0.31810810313260796,-3.1590178664278965,-0.352216768370862,0.42088045121127804,3.074680531171598,0.2083208673103936,0.07925061322002437,0.08950834457934136,-0.11487804785391689,-0.025842361990536522,-0.09623952694068974,-0.014245907126922317,2.0546875
-0.8106248871888715,1.6810242883134243,-0.2966996048909471,-1.7415975630849192,-0.3219605224822971,0.41290300628590454,2.7155212907789985,-2.0722665226999317,-0.10393308524322002,0.8084817083589589,-0.11244843247267106,-0.12841249436059932,-0.07664168815697134,0.04425617659646799,2.0625
-0.6943128520079113,1.1794742713252562,-0.08400378905208739,-2.630462455484493,-0.3847260407541874,0.4671544230767831,3.2847386082086807,-1.4290711649613912,-0.043567715973692196,0.6452429547646176,-0.13156127022096956,-0.10863186877578145,-0.09702135816647091,0.02704984106669388,2.0703125
-0.06180015872536029,-0.6590042004854025,0.14850353917162737,-2.281942613298713,-0.3400677479063328,0.7324329490312645,3.0735213369911274,-0.4133923479079512,0.048562596604998474,-0.06850312315931824,-0.10268358252279125,0.029882508012666016,-0.09037701376057258,-0.010313957722915648,2.078125
0.12476334691020143,-0.7835722107385911,-0.22335664195531407,0.27536280698160215,-0.14541024396525842,0.8030211834207962,1.457486072040142,-1.29697847598602,-0.036315091786059274,-0.19778348290419412,-0.0317482927854765,0.08563997923750928,-0.03319862883647076,0.005386347859230205,2.0859375
-0.18003753490220184,0.42499705941384897,-0.3525771625357887,0.7816844466865879,-0.04087039757929665,0.33498772972163215,0.3949415615596787,-1.4832883946116688,-0.09109468773584303,0.19778917306233904,-0.009165740385643899,-0.003282145599884923,-0.0032630339768637997,0.02580643592721661,2.09375
-0.21310688247885556,0.8128155025852032,0.4311704123604667,-1.68900360784367,0.03517979740761437,-0.8286144738243431,-0.5556327289564048,1.7967805793370148,0.08607377374296321,0.25438230908550513,-0.007208686601305166,-0.11565946646209012,0.0026613895155881678,-0.015849690201482122,2.1015625
0.15381898424113613,0.35638008825416806,0.9790458366052919,-1.8845899994436628,0.2796589318236959,-1.7832832917235282,-2.8284325422442675,4.640804374747222,0.22505795751644944,-0.07639374771534929,0.06221616872999703,-0.12451100680703542,0.05645303143454403,-0.05811142451524852,2.109375
0.4512659788401635,-0.291192560486284,0.14817488618025343,2.244759135211751,0.4257573133960446,-0.9260070184626176,-3.8139234460059948,1.820440012545602,0.04251150788156339,-0.3449242082293351,0.13411192894905063,0.022761173049874812,0.10929531434124627,-0.02164358745009823,2.1171875
0.6936289273810533,-1.8542074413262568,-0.9076878327934609,5.068479466797085,0.15949219368894335,1.319195442916231,-0.9317916260406293,-3.0924427399984165,-0.17533451165628386,-0.7152430556418874,0.09166028799969644,0.26051862789603225,0.05828556164904487,0.024841088832317167,2.125
1.0124170516717395,-3.6819191175403283,-0.5496260558202821,2.618267163298738,-0.1783155914298622,2.2066443138494,2.2320160998040444,-2.703222744729765,-0.0544048302272672,-1.2262319264449624,-0.0025087139613612294,0.37296335541775316,-0.03693537073390646,-0.011617025099654166,2.1328125
0.7391368659128933,-2.5042391899391903,0.3741424923119308,-0.6672537193541453,-0.09334515922899012,0.6027202577794273,1.055924296103868,1.161242131348414,0.139714432717495,-0.8925827048919037,-0.009784333727666874,0.1767509455004999,-0.03085914060598113,-0.05157837203819546,2.140625
-0.500784099637144,2.1595711947015483,0.08346941777158294,0.05407691674843182,0.2236787498387163,-1.2679743559098322,-2.3276160690134193,1.0037967432639863,-0.02318085803497312,0.6682010236182517,0.04518893343377778,-0.19209114136595679,0.05905241261848772,0.017138164113791262,2.1484375
-1.4414382735110387,5.087495648844124,-0.7373087569694515,1.706881572470921,0.2535000391295154,-1.384286239492211,-2.762786349266495,-2.0823162567329585,-0.27652016488942677,1.7763481365580407,0.04113879632436054,-0.3628927329749255,0.08288357917771794,0.10047244362040587,2.15625
-0.8823542552513367,2.720555593861401,-0.2631037315112395,-0.41492284581712624,-0.00682083081325952,-0.6022926067565734,-0.24766779223506774,-1.0225010563183927,-0.11720154231713023,1.0192413332307264,-0.025355074389023863,-0.21256118481305056,0.00546416142483799,0.04898177807509705,2.1640625
0.001973215928986682,-0.2972846781963149,0.7779525560174306,-3.488140202734991,-0.14936671736494647,-0.4766932448416844,1.1461015857290173,2.5895149653661824,0.18947478075885182,-0.07381572802061269,-0.060708068417951504,-0.060156121463627754,-0.05177443474098619,-0.045727935242301586,2.171875
-0.5900981302140148,1.7671734805554031,0.24483044793835562,-1.9647917088094777,-0.04369243348358615,-0.7803302964975439,0.07016485140963673,0.8462323680527355,0.022032601443854896,0.6584213841800141,-0.03824625672725213,-0.18286604020199373,-0.013815260032061464,0.008557409062673415,2.1796875
-1.731941254270186,5.402877542538154,-1.3092109735598214,2.2939958930270694,0.04826601291181505,-0.4353414552720319,-0.8136005528334472,-4.899314822990737,-0.41805857161400833,2.034805103618634,-0.014181306807014718,-0.3383198485327122,0.03960986507056299,0.14143729177944434,2.1875
-0.9734725827175669,2.7670553274805973,-1.2873407709131586,2.8433048023718643,-0.05533515410576909,0.6276879928048814,0.46156111957251617,-5.138043208900788,-0.3589972662482121,1.120357662644745,-0.018358660081822218,-0.11291067283288636,0.011036480714900682,0.10912044796022574,2.1953125
1.4055400910158395,-4.809683823973683,0.5356223393324719,-0.710221165693237,-0.18688549386755818,1.3764757456593766,2.157738933971063,1.505879692624843,0.22524381903797167,-1.6991610859696842,-0.01774648059832309,0.35896876724797216,-0.05929239046949645,-0.08802596167378238,2.203125
2.4591461893729543,-7.796723589134603,1.6739127611820714,-2.820763851140641,-0.1158373996984689,0.9559938451385928,1.6155185591026127,6.1118944076558614,0.5544548339207337,-2.9009204698755093,0.011755663651449047,0.5058118447505143,-0.06250333131767048,-0.19231413591690738,2.2109375
1.228092719647719,-3.609601567943378,0.9919574835467893,-1.4516324466924655,0.04493666928750544,0.0021734480563202273,-0.19514677662145366,3.9581696354085034,0.30819853680233694,-1.4086547892892591,0.03185661363909258,0.214404225867561,-0.0065372831128060836,-0.10379442328212118,2.21875
0.2115993642364964,-0.7690938629579344,0.056467366261289925,-0.09760688428360283,-0.046079171249429125,0.28656677168212336,0.4916785075366848,0.07445987410034578,0.02933971031819974,-0.2614555789299777,-0.006751852123406566,0.0590191434983298,-0.012237861706320309,-0.012468440954718064,2.2265625
1.0919332583323869,-4.352208629301296,0.15500579460570416,-0.7257335107682481,-0.3726069043342228,2.028465174397991,3.863368831579908,-0.5287959089391272,0.12502621172623724,-1.4086329688949202,-0.07223854154292852,0.3525898334369538,-0.10065680702199552,-0.05639549352123908,2.234375
1.8728075087962164,-6.827095324188852,0.5371599909810153,-1.0541809157463746,-0.4019085153623235,2.485138334743287,4.354689528752653,0.8494031408968763,0.265608024539992,-2.3244881882140374,-0.06284480433967327,0.529327605002002,-0.1162152708811507,-0.10885048250119271,2.2421875
0.24713643126858845,-0.31495512445267476,0.20815839503538608,0.45246140330265766,0.16601769505824454,-0.4630253532612488,-1.506403358535503,1.29030098665409,0.056508690779024845,-0.21688832119709628,0.051600208491940205,0.01052310170643497,0.04052828379108262,-0.019908950168184465,2.25
-2.426679761296428,9.50523222976454,-0.49193565420263274,1.832255315329314,0.7612788119638902,-4.156159150265861,-7.960171664737757,0.4026015481730723,-0.30738235075837494,3.1130184534701786,0.14657957159195695,-0.7593402824417514,0.21248880631201095,0.1313453239963244,2.2578125
-3.103338442323905,11.119505068776235,-0.8272196496083447,1.118681669204963,0.5808015574225655,-3.958032632628527,-6.477886219499718,-1.409243981331904,-0.4196414122080469,3.822303469460999,0.07954763058676628,-0.8722881979553982,0.1721881000562997,0.1746057849561899,2.265625
-1.5931933078998763,4.292816320140189,-0.8336023930196903,-0.5788661762170966,-0.2346070493570218,-0.03142917231951256,1.7295867707064385,-3.8821288099451543,-0.2838887170858934,1.751599389309595,-0.1017202886281651,-0.29934460246419947,-0.04312034030261226,0.10607686857694269,2.2734375
-0.3035897567185599,-0.855075709193337,-0.8487650444777028,-0.6907088300734969,-0.6659954542097529,2.573488912906595,6.2845590840491035,-5.2564204430756645,-0.18379222344347432,0.09245701283350966,-0.18034862470467614,0.13987774938514974,-0.15741372653277144,0.05122431324736112,2.28125
-0.23927319340544909,0.157954030177516,-0.727605895659783,1.260869232976083,-0.2003903943680877,1.1648727137179768,1.9542187643513649,-3.4204699522296935,-0.17504813417145537,0.20749936844780725,-0.0476437236019895,0.05390237802547156,-0.03767706996020018,0.047395456758286776,2.2890625
-0.16440105880772812,1.6764012746489618,-0.17498091595232848,2.618297947296929,0.4553571408829024,-1.279599880790106,-4.263589689297501,0.6607676935839437,-0.07410591095073883,0.38067202902114705,0.12940494241834485,-0.11493714047858104,0.12402713023310788,0.021165348480099808,2.296875
0.5942084845449831,-0.6645286642559824,0.567552971579869,1.0149758770695516,0.4355947399980457,-1.292493023415475,-3.974831637061147,3.478030114149157,0.14900806892615928,-0.5123079684259921,0.13191794821704084,0.012751813093616263,0.10442605632411475,-0.050533548581337365,2.3046875
1.2950003970320763,-4.082532101895874,0.9238762754281292,-1.608363807955893,-0.05526775299516978,0.4338185620832579,0.7781214230127116,3.406467947572217,0.3018800548663553,-1.5250212361766284,0.006818613742081446,0.2593251099002885,-0.03162841798770939,-0.10385060854985856,2.3125
1.5685902784483816,-5.399997431970078,0.7550258339420007,-1.4354928692935482,-0.2267174208338621,1.4088271870307632,2.5386803215503204,2.235906482895254,0.2885870935850986,-1.9070825090520058,-0.028829850593978062,0.3866206900025587,-0.07404516278127932,-0.10719882205588108,2.3203125
1.6022284191537424,-4.968798268488188,0.46335493610365724,0.741105991970867,-0.005570355533989663,1.1508060110488068,0.5867936621006329,1.7441731948794597,0.21145756097892324,-1.850706852141405,0.04272765484011366,0.3863333748708287,-0.010982246357933552,-0.0895970461309667,2.328125
0.9472754634261918,-2.819454721189742,0.2719467367676709,0.6704623298249316,0.04175555832529541,0.5528308401732374,-0.07471084094837997,1.154676884771437,0.12258793722604261,-1.0748856816452834,0.03846324678873854,0.21929478282813794,0.005836928263752681,-0.05251318344697214,2.3359375
-0.6188209559150569,1.6059094445489275,-0.03342163267986225,-1.4404368661705786,-0.12916363802051123,-0.24207953334823235,0.9366692863840778,-0.48912719707298996,-0.0400519621735829,0.6618342423404275,-0.05693675042331001,-0.14283521253330597,-0.0312499102747641,0.024243081210863965,2.34375
-1.7477822250584787,5.357776952417303,-0.3818636144791753,-1.4096301680419039,-0.028759939882851405,-1.3068133491879028,-0.37189243161564706,-1.516977373736515,-0.1985902475265084,2.0072602034877383,-0.05865908410481133,-0.4325681643582752,0.00278641236966838,0.08934603033503348,2.3515625
-1.1280173041263903,4.141640777162867,-0.23614915397408595,0.352775425323473,0.24555801741961739,-1.6132270071332158,-2.69831857320273,-0.16370251311034478,-0.1389230950127163,1.4039555660993233,0.03768087809050689,-0.33193642414559155,0.07117123336758678,0.06000199106460879,2.359375
0.4285014191699946,-1.1982318232388152,0.31048310403938356,-0.2551408517488616,0.0392790996747621,-0.027943810092421056,-0.2855230281405322,1.3103463249668308,0.09834273683716666,-0.47986012437919134,0.01907706672404731,0.07321259486792492,0.005394680263468619,-0.03422564294731205,2.3671875
1.19942561986001,-5.1731616080752145,0.24557986740784085,-1.8228244019583728,-0.5647923897487399,2.5854673165193423,5.664275444549425,-0.7438324902238905,0.16260937987750615,-1.6124964001251607,-0.12574235266520878,0.408907707518083,-0.1525102719965225,-0.06794495807666762,2.375
0.7440672027637846,-4.1378682599835175,-0.6805537672634527,0.24129094565207865,-0.675737208974089,3.5030789901606263,6.769918688853339,-4.666752174704049,-0.07733601596555764,-1.1189297589659406,-0.15098861404435412,0.41035035056481967,-0.16437333251254546,0.0005051333700858666,2.3828125
-0.27769016231704036,0.5451320273071155,-1.1348316877591487,3.2394802785428585,-0.07902134697024057,1.2506318531572687,0.9308772189595925,-4.648573505820823,-0.27855309532874023,0.3077814071234392,-0.004521992950596323,0.06606621229875133,0.0012410941144509824,0.07304474222037619,2.390625
-1.113054294857579,4.469371723214546,-0.23760854655000538,1.083818279449432,0.39046625579315863,-2.014254625449847,-4.0437966444414215,0.2622128922161353,-0.14552703234290595,1.4462842713417159,0.07958054871021056,-0.35569411443219967,0.10918142571853917,0.06114136656259545,2.3984375
-1.089232724749318,4.221499450408745,0.8540598423024448,-3.332632138271327,0.2752188422178255,-2.9295137347800506,-3.2851955319703734,4.181603233597486,0.11696271702245474,1.3542928351750814,0.02129537389115739,-0.4506308530422206,0.05955686279150202,-0.002213715303688439,2.40625
-0.22840784037033654,1.1674735268567362,0.7802003484541236,-2.4401536644384114,0.1383732299064507,-1.5493197363905162,-1.6282967680357077,3.4599479527563233,0.16123756195374714,0.3091791088693547,0.013534878465245965,-0.17951878099878774,0.023963178052877766,-0.03350997016580657,2.4140625
0.288488477071297,0.08295655207099903,0.055043972230063694,2.0943081935368144,0.3773475615946261,-0.8478471736260154,-3.409846402345038,1.3158714966676488,0.012545953586219223,-0.17653752110797644,0.11696762758254478,-0.0017537868177815309,0.09861361176424276,-0.010503794975512983,2.421875
-0.2269934070804091,1.9410270210785732,-0.17151250096780749,2.6399822532010346,0.4830138219796629,-1.4265527895654848,-4.537160153461643,0.7650318385030169,-0.07832427275076526,0.46285750327724007,0.134696061108115,-0.13830829245407156,0.13073971922892186,0.023603903310577174,2.4296875
-0.6213097499940223,2.0748631575478287,-0.06417579858043064,-0.4528984768634249,0.05143394713938138,-0.7287943759179989,-0.7302893679602539,-0.06630061135586739,-0.056290835251666296,0.7384113135428781,-0.005038318298282414,-0.17556382258538117,0.016352533650809187,0.028027370916843618,2.4375
0.07499800283917496,-1.2461752840395732,-0.3062896723791693,-0.6589500978591197,-0.38166072424739567,1.5225695442590035,3.6522718659310085,-2.3091221592987177,-0.04672788365036238,-0.23529200050541596,-0.09910218796023205,0.12678022284783794,-0.09340785431610599,0.009168368433362663,2.4453125
0.6842073862345327,-2.7762560887421213,-0.615570522667501,2.1472081358369617,-0.22214001390339738,2.064908948361705,2.5221556392628637,-3.0745152906510214,-0.0885636689585469,-0.8658456658329616,-0.02492673478817003,0.29852771258935323,-0.04686702493494482,0.0044310550446024725,2.453125
0.06762429471442469,0.17466462281378906,-0.3936045804404846,2.3210955200842522,0.16495608352154836,0.053904226764266275,-1.3921352209513425,-1.0544643156456306,-0.09565831017093898,-0.002328518227931021,0.05933808222480776,0.02951495189590778,0.05116050618061787,0.02079682152613646,2.4609375
-0.467984964967287,1.764837034177855,0.20045472571374515,-0.8986119635086719,0.1055718114347124,-1.0278341551404335,-1.2431912094323614,1.1070284844661153,0.01210640792217324,0.5798400933637503,0.009680085806189996,-0.1733236423156027,0.025685217930205086,0.007933050348624291,2.46875
0.5136537657308448,-2.1467834863085877,0.6880065743742739,-2.858729264066018,-0.24244023565171674,0.4284242931620652,2.2524073104108826,1.9539014663949708,0.2061907748834171,-0.698757607132508,-0.06767271741522866,0.10815367882137374,-0.07518870048156392,-0.061987828817295934,2.4765625
1.6585875134864432,-5.812058667829468,0.8147190121633581,-1.7661453684596593,-0.2806566065440813,1.5877730240922163,3.0504934269986737,2.297457839445459,0.3107509259344482,-2.032504569519466,-0.04207828341187858,0.4154981025329099,-0.08879530568575865,-0.11453191084936437,2.484375
1.115923559427679,-3.6583237223348273,0.4164062758305865,-0.21678746253888054,-0.08642875956036535,0.9256426655135254,1.135810138162006,1.3346380939475329,0.17353768939064196,-1.3222025205223975,0.004361375484330064,0.27417179328604113,-0.030215037262901798,-0.06865231111112852,2.4921875
0.017770844621173874,-0.40407765326457024,-0.2560985087446973,0.3136531587602979,-0.12745845951254364,0.676093651597259,1.2490979662839872,-1.3712483614340158,-0.05136982660677713,-0.06535397390282936,-0.029156008023300477,0.0570032789489767,-0.02763637880182547,0.011677420441535148,2.5
0.30526449652833365,-1.620523669100061,-0.4430534561578282,0.8510757640997032,-0.24215992202155204,1.524632161428934,2.4881871913131635,-2.4507753399172936,-0.0711985331500547,-0.44033230812062074,-0.04756825087138345,0.17948908482083975,-0.05465843526461448,0.00952771362851746,2.5078125
0.7566042708317662,-2.4504410327983206,-0.08721365618791901,1.3073040664985915,-0.031385533946425466,0.9805102481020178,0.6192566377566062,-0.4626744154486024,0.029699982025260998,-0.8793872580656583,0.019839480306999262,0.22233119327301473,-0.006296039560759666,-0.02563742885523398,2.515625
-0.7765218263965845,2.8941246427956444,-0.12305778195208646,0.18376964681387892,0.1834092324022001,-1.1982498738505056,-2.0090583900999595,0.08121732760606534,-0.08731176684663976,0.9718081139041714,0.029282189499181772,-0.23624429090311583,0.0526322173638013,0.039164283603213355,2.5234375
-2.6636784495752015,8.298516413255124,-0.6358113696065559,-1.6774856957575517,0.012175774831516209,-2.0872984094880644,-1.0661162400821655,-2.3544670725165866,-0.3186376350496361,3.080086125277364,-0.07262750073007705,-0.6633091376551635,0.019359416192838316,0.1400380910359495,2.53125
-1.7956891051844035,5.491839771705633,-0.4445888498853904,-1.2741297217943313,-0.03175167087945192,-1.2758949644989572,-0.34720461389168983,-1.763588309712132,-0.21632523476613313,2.060916378342878,-0.06000608724580506,-0.4382549431140758,0.003140768525165339,0.09462701579711741,2.5390625
0.6122337679457276,-0.6463497927869912,0.5400119073357674,1.2836539239923266,0.46622384898540464,-1.3288789947325261,-4.237488787460148,3.4628492172987686,0.14219038343977625,-0.5200777530885093,0.14178857178878537,0.014800454030151388,0.11258744032489706,-0.04943603443242978,2.546875
0.8596551019639367,-0.7357644769901651,0.7859389242036195,2.0293267594544937,0.7210727786628434,-2.08774059869479,-6.568390121166529,5.166850861314488,0.20270569262041516,-0.7041606315245577,0.21724028887426655,0.005299945070688434,0.17453480356099907,-0.06999203810097256,2.5546875
-0.7112114815820278,2.4001021347106266,-0.08970746375621083,-0.4114949673840488,0.06927325274553903,-0.8455878622722485,-0.9280489139747353,-0.11083687118523142,-0.06913411324802846,0.849687689376725,-0.002482244644634683,-0.20082249513857273,0.02172093565837641,0.033230262607697444,2.5625
-0.793011678604332,0.7353475736725134,-0.523708109980894,-2.5463022872733654,-0.6570965479057975,1.6569897881599545,5.903120105850284,-3.940213999946972,-0.13922592001928988,0.6534814492808704,-0.20263481136203074,-0.03340973253982943,-0.1604348552653887,0.05233029226380421,2.5703125
0.547469504528349,-2.917550080851662,0.15965110944402172,-2.0776276681609493,-0.4772140492738848,1.7514322717476187,4.599739969453373,-0.7960223407532182,0.09681803150926097,-0.8254019392003856,-0.12111003641684426,0.22277184842496392,-0.12732099779726333,-0.03651519812653048,2.578125
0.6435157113215342,-1.5470932762257863,0.6577830109065401,-0.6360056293200115,0.14950139847409336,-0.5230469064473865,-1.3206082013948304,2.9840583224798465,0.1878501237164151,-0.6873167314848139,0.049758753950941176,0.07171540079871347,0.027616808513834693,-0.06087376368099134,2.5859375
-0.208814066950168,1.4548909684515525,0.11986122888974704,0.7508636027635838,0.30325741728265665,-1.2306838074194009,-2.949769186573722,1.3664801187569335,9.736585352116499e-05,0.3646150567455853,0.07729275265755482,-0.13115301390621362,0.07861490231261767,0.0045524965624296025,2.59375
0.12477092708335688,-0.3393628855267325,-0.6128899017611322,2.5968034676003975,0.043715506914593326,0.7135248656694603,-0.1857192375899595,-2.2660519548804254,-0.13693506306128253,-0.11318748142084666,0.03201501959583798,0.09338562033731444,0.023519146045399595,0.029437573435745046,2.6015625
0.9910079338968003,-3.3471510277895646,-0.6263944655812143,3.3898229064785754,-0.0715765759420224,1.9655242233263144,1.2543084350814757,-2.6872134106372583,-0.07924232664791601,-1.1562978697070379,0.02914112066863832,0.3548701963328954,-0.007383656645408914,-0.00520601822539819,2.609375
0.7983315956258084,-2.338359335550912,-0.08538802315884922,1.8277131062508454,0.0623802439910033,0.7509704871003655,-0.22904387032454548,-0.1766644458945396,0.02818618525752595,-0.8888019841483064,0.04789274239476474,0.21486984758406752,0.018231547094812915,-0.026339951262540805,2.6171875
0.6065056950106261,-1.4365667429483657,0.32785901174191584,0.5459526618721603,0.16158568468985854,-0.2139559754676806,-1.352036896973329,1.7345012372573632,0.10785409044806925,-0.6341948840380272,0.05983318879053865,0.09636836635065413,0.036858385206001154,-0.0407819175557857,2.625
1.2789804235034565,-4.136130082085218,0.1741877994330541,0.9994994181316251,-0.06281774366944916,1.3120222358545799,1.0612517853546468,0.4550905026365844,0.12642231664809683,-1.4965524420268377,0.02242082569749169,0.3417744130200226,-0.020219824934788855,-0.06128790946605289,2.6328125
0.9151551160057116,-4.281907773517834,-0.2547460275652798,-0.3727083291733033,-0.5421510586738222,2.804037422172831,5.4833043306528095,-2.613867972588525,0.02699507971687529,-1.2675001665232712,-0.1171724211347566,0.3831142640813953,-0.13762160991162575,-0.02857827870322712,2.640625
-1.0460327799173663,1.5958092454890116,-0.13854579934886857,-4.251919702105466,-0.6468811715717513,0.9173792535144625,5.590130387931138,-2.405565276105646,-0.06613752057614813,0.9423785280858106,-0.21751818416998142,-0.14798861839625127,-0.16446688546100566,0.04088711081188099,2.6484375
-1.8277245114696863,5.742520586177337,0.5041869633415015,-4.615075295663192,-0.014727668392421952,-2.4592380704639063,-0.8010194196321851,1.9809730270765002,0.002011686536663383,2.089114948605748,-0.07871382537554229,-0.5572491715545972,-0.009262450938498966,0.04310514850792381,2.65625
-0.4466120909817953,2.9187548533828425,0.5134599502392189,0.28091639560764176,0.5653773193525062,-2.688064831270376,-5.607221441532935,3.674255191078917,0.0630794079275675,0.738329053881301,0.13482382967244294,-0.29126293437876505,0.14084846874807855,-0.004963143425564495,2.6640625
0.3132913539867079,-0.28738037505007247,-0.29555967507049136,2.9045644763188445,0.27878605013105556,-0.13264808905555653,-2.3880486088609136,-0.3458267607398131,-0.06289309015358377,-0.23930110640233418,0.09822392168770785,0.0640031658454362,0.07944029014587502,0.0070329279004359615,2.671875
-0.7410022539586968,1.6917638855366715,-0.4109406467534152,-0.7596990607773026,-0.22801278416332038,0.34913807358867605,1.9058348861301586,-2.2447441228032097,-0.13146204203633746,0.767710313294566,-0.08059950898597701,-0.11476336342531526,-0.04984485805334741,0.04900123971342625,2.6796875
-1.2270182851696598,3.8761092549124987,0.619529688853117,-4.126469820148582,-0.015313183625754317,-1.967414877026495,-0.5741535465804662,2.4200174144650344,0.06780394769995826,1.396870401519301,-0.061209020621537776,-0.40609368096808796,-0.012216564081087983,0.012897339174267476,2.6875
-0.14730925353880525,1.6481435261762933,1.0090296375834253,-1.789684473360722,0.41382452389845176,-2.5194237519689158,-4.211415418523592,5.166605126717409,0.2063914490509499,0.32437783814143695,0.08945721145591769,-0.23677443047917002,0.09145821723956475,-0.04640408197418767,2.6953125
0.27509782121065973,-0.22412104220587176,-0.14374408022290205,2.1514595995574286,0.2504878766903273,-0.268344446444118,-2.174132082686231,0.17756837647919071,-0.027629306787739207,-0.20966918541850832,0.08473661225738816,0.04111363658611162,0.06864667055616486,-0.0004517093520172359,2.703125
-0.9646165911207323,2.8729953451326247,-1.1506936246684047,2.6044633613298402,-0.008483029482122146,0.34703339467235855,0.002424108263469437,-4.470046862375261,-0.329118068344812,1.1264285709795823,-0.008028477840110767,-0.13522610618520778,0.0205436621711868,0.10163907855774006,2.7109375
-1.6554414124630696,5.686916245111043,-0.7053950522641189,1.1276545158525284,0.22552637279974963,-1.563931678213906,-2.5941479690683784,-2.027010938630272,-0.28121851780189105,2.0097678544099984,0.024695137960233014,-0.4201858361269351,0.07482343885441846,0.10667128977903197,2.71875
-0.04272684840829306,0.9769651448723462,0.10379499096656952,1.1410519392779792,0.3203309728330853,-1.0867345898930754,-3.0306287147928357,1.3475073061583294,0.00586267838986223,0.18107637429890147,0.08825186574474714,-0.086933099598551,0.08304832138193381,-0.0008854925056301409,2.7265625
2.384803455896929,-7.892607326052457,0.1193875020060618,2.314828964196085,-0.1752114799184852,2.8574918033658654,2.5930967496885593,-0.13039925382137507,0.1894754931231705,-2.8137378937191238,0.02963212301493463,0.673474379534652,-0.05020740924066611,-0.10302851255683082,2.734375
2.9292138461288753,-10.51445675396231,-0.11715138290867277,2.2822236028468743,-0.5213897656723189,4.693780768733246,6.1076606919958945,-2.0845639627195136,0.18649024010205636,-3.5778908574819703,-0.045227964597443014,0.9162008227046282,-0.13732131882466958,-0.11528427890547156,2.7421875
1.2189693479434143,-4.662729793577373,-0.023030118054948055,0.3061574184891217,-0.3311180711998784,2.2476566225382246,3.5863307862961733,-1.1013732089715063,0.08959508569980233,-1.5347523583979408,-0.05187734178824463,0.3992347142125546,-0.08671973073769519,-0.051015449553280134,2.75
-0.3422530778546241,0.3862957552315385,-0.057572738999454906,-1.5982838603991991,-0.2661557236272792,0.4671380886554885,2.323207395851484,-1.001231525125748,-0.021737325755681068,0.28824533225583526,-0.08585976021888024,-0.03746620953460661,-0.06656294188949209,0.01323801177901346,2.7578125
0.12553993345398076,-1.6174992853743755,-0.3238943543346911,-0.9134514967470287,-0.4648155024220567,1.835300256286427,4.435162229617716,-2.6451433271689395,-0.04424591495408962,-0.32617892919686226,-0.11994947886073483,0.15984743989168707,-0.11404144425125107,0.00751970709951898,2.765625
1.316222441449318,-4.732561469355713,-0.1138465554124893,1.2437774052735315,-0.23735169533901532,2.1846408251211487,2.7663939028514646,-1.1921451855091019,0.06961228270827839,-1.6059631703162667,-0.018986955935696673,0.4187151765792267,-0.0599568924810315,-0.048493023545169614,2.7734375
0.9200690735650516,-1.969139627041926,0.5980816709260279,0.8496405502709307,0.32366443587561866,-0.6649085889177578,-2.8104858191543345,3.2550536505111074,0.18271839926572248,-0.9333971953061703,0.11055323404168405,0.12060477465658914,0.07416642839933864,-0.06634101403432152,2.78125
-0.7430252764436267,3.4456119055718637,0.8922529612759235,-2.3699816559499434,0.3936483576289215,-2.9466293290715515,-4.244008483795608,4.6667195977265825,0.14185483329947826,1.0022049006629632,0.06603916599619924,-0.3827910040269683,0.08904607538775924,-0.01662244749150237,2.7890625
-1.8486885042539611,6.060322420264289,0.4746059381455827,-4.066977119660849,0.08422799389317318,-2.732333491275855,-1.7154425625477652,2.167005014062796,-0.010682660415178135,2.15425390697358,-0.05067653034633663,-0.5792926403873326,0.016953883050256264,0.04661223900696528,2.796875
-2.3424523686602545,7.844730971065182,0.10047681636827234,-2.943365234418923,0.19344985770803158,-3.129924652312827,-2.827761378486905,1.050437421232831,-0.13495631285037313,2.773633145332592,-0.027553473391585065,-0.6938864301318651,0.05289528646896125,0.08818160376404814,2.8046875
-2.9074695904563335,10.585586652068823,0.16397361493119045,-2.1827699420861912,0.5687383174793251,-4.870752841274406,-6.56658414248308,2.4220967456241342,-0.17508605388138757,3.575726100406285,0.05878347138522309,-0.9287956689061861,0.15061253477135206,0.1111903542811812,2.8125
-2.516785685551856,8.990197722103765,0.08666132778273904,-2.0066937322309717,0.42779616832434125,-3.9646474256539737,-5.067456263201116,1.6868349138299736,-0.1614545459324276,3.06917389075033,0.03378010763864726,-0.785267412762584,0.11454665361076426,0.09855694891358005,2.8203125
-0.4289545725852334,0.9416188786098278,-0.492717924904834,0.44909628726974204,-0.1357107654352033,0.5112437882908853,1.217658740589383,-2.306654860252427,-0.1354422981040765,0.44704287765213396,-0.041582907478750146,-0.0374552471048252,-0.02517807316239084,0.042354883529030635,2.828125
1.584515627424058,-6.141620709377605,-0.9274105656610017,3.63483763748065,-0.4217656561563947,3.9422789949329684,4.850768002077164,-4.91107291669607,-0.0938909437213018,-1.9773759227456211,-0.04356441994485094,0.6196030626431842,-0.09474505907426939,-0.015832171638853667,2.8359375
2.124420035353091,-7.608580157102104,-0.5943151771932577,3.6084089485764825,-0.3508193962529103,3.914691391427356,4.319131908147507,-3.418957203149622,0.015138755464536626,-2.5738705534929847,-0.012528491809206347,0.7162789914040466,-0.08274933227977273,-0.054870105079934305,2.84375
2.38338646690384,-8.14851745493577,0.014249324483967778,2.2114268117392037,-0.2728478588324261,3.254662902419232,3.5229506753853914,-0.8252240315575365,0.16990634173807043,-2.849698973594197,0.004235141805809972,0.7035384327460383,-0.07349226225101074,-0.09817770109204281,2.8515625
2.8689555917141525,-9.377844288795375,0.07953756126209074,3.251661942726212,-0.16305985013750066,3.3729691902444396,2.6894712609444986,-0.2655715464816665,0.21042378156087826,-3.3645450879336085,0.05084267631570204,0.8083307650063305,-0.04651012438609892,-0.11965682994957959,2.859375
1.765347814110368,-5.2317254873082835,-0.17242729599380613,3.865141332747313,0.11766952298432043,1.7062353028486297,-0.3092385472281533,-0.38498843770759733,0.06697327034291507,-1.9768035737226037,0.09914176676609943,0.4796200481709499,0.032901629899710814,-0.05890222891130998,2.8671875
-0.9607749380980871,3.8452941591830934,0.024858353722552403,0.055498806181751785,0.32232425021712546,-1.9631382243760416,-3.422650334797249,1.0792490353610487,-0.07113169476368075,1.2382862263249992,0.059046243864752906,-0.33056984191753963,0.08649443196730931,0.03968867299834936,2.875
-2.201104195301135,7.370260019250344,0.4564169592345699,-4.1238388829116,0.16544400825246777,-3.313355414149198,-2.6203891028968163,2.3425837465534363,-0.04161159984574019,2.5933800944121925,-0.03887466220996757,-0.6894679209326066,0.039358539454426876,0.06253870160163372,2.8828125
-0.7819929826974987,1.9368565506322928,0.267294532180512,-3.1649701879406393,-0.2122440688707999,-0.5254480573287196,1.5437586043337599,0.44608790254872527,0.023679202960250303,0.8104629070600305,-0.09355064893127364,-0.2055161672664325,-0.0580456241557291,0.012890776230548167,2.890625
0.5220541234148691,-2.674151255921332,-0.3105568963107568,-0.028826783884817422,-0.3931077522647161,2.0302862788843554,3.948958660921136,-2.383220483087179,-0.019034691758721942,-0.7535979446378713,-0.08663845192085658,0.2527227815943338,-0.09692202074080869,-0.008220872530273036,2.8984375
-0.0686062900834399,-0.09799246357227841,-0.13309837455527807,-0.2023063948479849,-0.11793466938870445,0.41776518307334287,1.0934024389022323,-0.8624483559334452,-0.029200496526660777,0.03472456683918127,-0.032536089782782655,0.017284015673851252,-0.02731922421457407,0.008282297845207256,2.90625
-0.7806567410131038,3.558045951273979,0.7925701433910503,-2.052102956898627,0.3959172626596971,-2.8770993570120935,-4.252434164656455,4.282474128338036,0.1156512464959726,1.0483287001989317,0.06786837338898057,-0.3823171274395102,0.09171851502715421,-0.009500181574960145,2.9140625
-0.20088527660754174,2.1852689313476814,1.057603244489451,-1.3417642315351526,0.5551573481475911,-3.0365620424439324,-5.56284067462383,5.766955879919363,0.20668583991677014,0.4430101225307222,0.12706616119849196,-0.28411054909640826,0.12794237062211788,-0.04530546998467019,2.921875
0.3680721079719437,-0.9307220845096528,0.13388606689377092,0.4562070362873825,0.07686502984898559,0.003227868038195476,-0.6073372118616464,0.7414915706801325,0.05157889726382884,-0.3913137888270513,0.0317885958911618,0.06901284409720121,0.01833651473793585,-0.02161377427564356,2.9296875
-0.2244740730798045,-0.715777802537218,-0.7011096663061186,-0.40515718235266945,-0.5225098370844051,2.0734046262135695,4.9509875295409795,-4.258981957414011,-0.1510845897582037,0.05807453140794748,-0.14022527983745017,0.11697636526932667,-0.12292871239725622,0.04146461603866623,2.9375
-1.0673193020893232,1.9071708658380806,-0.4738520061696659,-2.5553237356443135,-0.5376502612530234,0.971829278967039,4.663321511728189,-3.393095496552614,-0.1512599922556738,1.0166754899990347,-0.17893172002543262,-0.13690016177587475,-0.12965442208359274,0.06180546332250106,2.9453125
-1.0688714186258392,3.355231234460146,-0.037882481558449616,-1.4523472360385157,0.0033386037119337722,-1.0884695294456064,-0.4893460682772088,-0.10173117295146974,-0.07677272391620683,1.2328068218881296,-0.03451275955892605,-0.29135600956055596,0.004312586822384435,0.043769011194211054,2.953125
-0.4136951321027301,2.41819480698918,-0.41256099001814084,3.0643922015593494,0.4513238836269056,-1.2535661437655206,-4.256552731547017,-0.26167662755561866,-0.1447190456002937,0.6695666119829726,0.1251489293367809,-0.15607502133964168,0.12725761772618968,0.044070512686713456,2.9609375
0.25801127011526764,0.062152482506736696,-0.9422529911706866,5.587524971000108,0.37563892039896596,0.28202635852449365,-3.110275482504176,-2.5693816283738866,-0.2216105612802002,-0.1248608959049762,0.13921956320818563,0.10277427591152946,0.1158139677186303,0.04633925051147027,2.96875
0.6142245223512565,-2.0434548175219054,-0.50120950701329,2.576944960576412,-0.027995006433389872,1.3014927854505947,0.6564008370150796,-2.0527786326527213,-0.07576146173878924,-0.7072768691601428,0.02551971759971518,0.22892289436907393,0.001837220512246132,0.003015400996608118,2.9765625
0.6042384461247877,-2.4423247887334614,0.518427133508309,-2.097543838095943,-0.23919936952572682,0.7129875543506305,2.3102498979959,1.2971919364126203,0.1721667949983904,-0.7993136684398082,-0.059503996233366725,0.15181560693515522,-0.07148491373035742,-0.056002255419113044,2.984375
0.43809207607239514,-1.3188134982932251,0.9167970961649615,-2.7001607727753,-0.022450072375036823,-0.5458563484915301,0.11079813525086991,3.492911994681425,0.24368866218734028,-0.5259647348227287,-0.012681110555847188,0.019138244052910695,-0.021562699007879788,-0.06920593176870339,2.9921875
0.3878460068873499,-0.4993193103297434,0.585841332957459,-0.2680094332620069,0.24874644075018834,-0.9922457121331322,-2.3295688404941086,3.00181531534982,0.14946837507651406,-0.35143724373399166,0.07110803758460385,-0.00970872371722003,0.05542917483078046,-0.045567396727963116,3.0
0.6191876069011992,-1.6015729069384468,0.29669962836501795,0.45175104486606377,0.11450452235235165,-0.02880223667856206,-0.9003629850124321,1.4692858138416354,0.1032120179894423,-0.6675791379015436,0.047592556302393896,0.11258194105775687,0.02518776400932926,-0.04005000045685145,3.0078125
1.3181824235961228,-4.631157719553751,0.2555047568068574,0.05686568452232081,-0.2105609721091748,1.6833705088841708,2.426735254846517,0.3286600723657868,0.15444583141109552,-1.6039156854277266,-0.02043407412635823,0.37196570679592944,-0.06012896726414871,-0.06904797918271528,3.015625
2.099356732927805,-7.092994500700259,0.10446004362199335,1.765987616144318,-0.21093289235068585,2.6768536640348577,2.8082500441707388,-0.2820121500425622,0.1692888873536428,-2.500024760970823,0.009786792748481116,0.6032528242172445,-0.05870272557834991,-0.09140402161569487,3.0234375
1.442441721575208,-4.623657982906355,-0.21856452666616527,2.7778053768910347,-0.03628178273706455,1.862021334463261,1.0020911792496858,-0.9987830115445507,0.043538963959670975,-1.6678135403685728,0.0447164320724318,0.42547976328533854,-0.00640693046810511,-0.04550189844668892,3.03125
-1.3365552362532886,3.7123739426812827,-0.5418490165509922,-0.8746687614985305,-0.161253711835852,-0.3141252499689394,1.0723630531006612,-2.5314859328190966,-0.20281009429064129,1.4820717429088959,-0.07900874757959753,-0.2763982971037817,-0.029554416768302484,0.08049075624217591,3.0390625
-3.8192566185977816,11.008324166291759,-0.8089126864870104,-4.507173368443821,-0.33256388461806796,-2.111265224408688,1.6841469588203666,-3.9957035191008043,-0.4150827379182357,4.271312136023474,-0.20705875744904967,-0.8941872861989955,-0.06624618095511682,0.19115899456810634,3.046875
-3.0718300313434077,9.49462645428063,-0.8249381730572803,-1.7536790061778096,-0.011969888361142133,-2.228312618012905,-0.9665266020861728,-3.1433086080202917,-0.3874523315176898,3.543270420164251,-0.08913898015320915,-0.7491385141740633,0.016865007290869254,0.1663748555608937,3.0546875
-0.239041668867388,1.8902574058746073,-0.2892914990829059,2.887830231141864,0.45295579900797417,-1.2169043975404228,-4.232513832769682,0.21517363224648922,-0.10505230562402527,0.4671444752377118,0.12870919318440582,-0.12219332517016729,0.12507030005256856,0.030343505050812326,3.0625
0.9041017748401736,-1.831573479468985,0.6093128385192109,0.9464964792032501,0.3576233930574963,-0.7899544058783202,-3.1264486934454783,3.39771020000676,0.1825814731721497,-0.9012589465899892,0.1194115806855771,0.10840523141499492,0.08253681322004504,-0.06599583852529056,3.0703125
-0.2888926242713823,0.8769567217982516,1.1722035664957167,-4.919351525223499,-0.06398964618101337,-1.4839376415544612,0.11299300743497026,4.391285386642591,0.2590915768883493,0.28878299219521025,-0.05572815418967669,-0.2010670878095816,-0.03618205697680047,-0.05542044464571356,3.078125
-0.8621781959248919,2.515902478595856,0.8770737178700845,-4.962008051261896,-0.11114018323491484,-1.6066330693069326,0.3948832679206858,3.1227657339282358,0.15587737439657975,0.9334754997424419,-0.08201032560093373,-0.3160213012268131,-0.04245555150369839,-0.016913626261732675,3.0859375
0.5745808775179098,-1.4657077756021624,-0.1212614298150065,1.9493285272635343,0.13148042888413125,0.3612010491503492,-0.9513172837254853,-0.10192933318097967,0.0022259337286276003,-0.6031835247943668,0.06061368513180963,0.1440995503861089,0.03694256700047248,-0.014807817524686344,3.09375
2.0473960581851522,-6.1480356163668475,-0.9738335396139878,7.250555367737235,0.13957852478229232,2.8699964217359595,-0.15163517819828945,-3.452428940062437,-0.10323488575745518,-2.279299319667275,0.13407684181217627,0.6431847537759283,0.05244972651641949,-0.02495030812826457,3.1015625
1.8979106000455905,-6.170989912101398,-0.7745931293288512,5.347500459914536,-0.059700881805700066,3.0527274861460114,1.5724728978609726,-3.2607697650311365,-0.056289466923837274,-2.191442650864387,0.06739035349610792,0.6183147843801855,-0.0028109243627838414,-0.032452915682181574,3.109375
0.9865175449179581,-3.4948078694672557,0.2971416940440994,-0.4023259673785712,-0.17442467831825872,1.18211967945858,1.934939044173613,0.6080997629077992,0.14143733624539942,-1.207365753321791,-0.02228763588568723,0.26916985711892216,-0.05069345072899048,-0.05783232476479082,3.1171875
0.5587982780509979,-2.263220612436167,0.9748268175646618,-3.8134693190956193,-0.24490963709343913,0.1504083456533821,2.21224660026047,3.0584183499932904,0.2758801124863734,-0.755942078990131,-0.07351480550742737,0.08866728075552001,-0.08094923482647472,-0.07977547024049804,3.125
0.28134166212136213,-1.5181970375055671,0.6096813164814412,-3.095267623757403,-0.2761909410639593,0.375972493292654,2.495685368064461,1.5547822141616399,0.17453030694126853,-0.4447780661957168,-0.08352580803530309,0.059882889617475815,-0.08257480166176652,-0.048878669616897706,3.1328125
-0.6139620639139383,1.7836410865010435,-0.056642351935830136,-0.9817236772240382,-0.05274820361787967,-0.4272653858758519,0.23770390725013263,-0.3539802510810549,-0.049383858926760046,0.686520131641011,-0.034599638643918726,-0.153604581665539,-0.011055354129640718,0.026172818380517122,3.140625
-1.504284722471587,5.381045989409518,-0.3547817026356375,0.34202145810997503,0.27479594989767,-1.9539368544641604,-3.0952042757770397,-0.5207966735824372,-0.19220691957088368,1.8495009791495172,0.035577119007208086,-0.4276424424661807,0.08133205663477522,0.08168222424740851,3.1484375
-1.0407594725270684,3.936749751429971,-0.5201551446371385,1.6701992033649575,0.28364538343141865,-1.3047005642828802,-2.9361443789657193,-1.1508406796943447,-0.20147392862173427,1.3235073616162958,0.05799959772543626,-0.2835695716355604,0.08607803380246119,0.07279819567758815,3.15625
0.3862448539489069,-1.0457755684388403,-0.5909080899188619,3.0997005507665456,0.08542349694639326,0.8378020087224892,-0.4744791783390772,-2.053488107813198,-0.11667904218078527,-0.396732932938948,0.05212410856309782,0.15437714431371866,0.03355263282855134,0.018303936674544413,3.1640625
0.5205540535226482,-1.3896678996662202,-0.2079100724328392,2.0057820047286086,0.09851435471978034,0.4957532501110642,-0.652913500788009,-0.5259588795954919,-0.019198915624353136,-0.5519158436565046,0.05141788467627789,0.14539251692396807,0.029969821402277375,-0.008242898222213179,3.171875
-1.2292316314001581,4.2839800339770004,0.20210974756173475,-1.792181407727762,0.15841283472722578,-1.9822379871150997,-2.0682596971552223,1.302958062421662,-0.038300266899913796,1.4774394497347663,-0.0014506671930269678,-0.39280999004315265,0.040704891429584014,0.03839195245635219,3.1796875
-2.181794389987429,6.52590892189926,-0.09082282136283075,-3.5221177726412267,-0.11502794764387718,-1.852446122359775,0.1560436893626151,-0.6175151612322245,-0.15408989859946312,2.464994668232181,-0.10549936211262306,-0.5681176303582446,-0.02435107504307157,0.0891155399389072,3.1875
-0.5601265894966321,0.6526825400398061,-0.5548422812781568,-0.8491155268608417,-0.40531571757197926,1.2174478673442897,3.675788338836319,-3.337704086610664,-0.14457452133879709,0.48910703594380217,-0.1215966156776068,-0.014237617822519606,-0.0942423301177463,0.04791402500013301,3.1953125
1.266611016014107,-4.598858808897662,-0.20693370704727745,1.4710816349683935,-0.24091228560037872,2.252854572020678,2.8222136775383135,-1.5581740246207068,0.04498963133281678,-1.5491507640636992,-0.019888737540804384,0.4159546527903556,-0.059882935901306264,-0.04151180526251026,3.203125
0.8803667478817849,-2.5483969494493888,0.5380788801186349,-0.3166825065962414,0.053559365243903215,0.1381781996651167,-0.29215087961334857,2.2258024205967097,0.17952269491097947,-0.996540272475301,0.033293712783106486,0.1685577645727423,0.004421200913849748,-0.0645710132076837,3.2109375
0.04023991894988642,-0.029167044502146706,0.6861021815981502,-2.3410924710728054,0.005407785454412339,-0.7732422678258802,-0.24336057875082248,2.6874313991789567,0.1628007477771046,-0.05347742771978417,-0.012980902894792324,-0.0694331735802136,-0.009697474807030078,-0.04035868922047587,3.21875
0.9030195544318582,-2.9951127881605566,0.44972371532781424,-0.6533808695551524,-0.08733498385173782,0.6720915743220703,1.0514612168131496,1.4630768673068593,0.16730082130892662,-1.0803556336106581,-0.00415863557371716,0.21226001627035146,-0.030930583537472866,-0.06217950706291004,3.2265625
1.7065920744741057,-4.9648446493944896,0.5045407627358163,1.3818945543919452,0.12128745231312481,0.8502728227021343,-0.563402526615564,2.2642160561297966,0.22097476809839597,-1.9193275063884698,0.08197488818453558,0.3863793250510733,0.02164900471345575,-0.09444537044938141,3.234375
0.6405670920955785,-1.3154199543365646,0.5630444027719804,0.1500215526764301,0.24016862099469133,-0.6765099358812071,-2.137858050587493,2.8770322323662323,0.1605819958472004,-0.6447558042926633,0.07798119667619184,0.06412595041822663,0.05329047411429734,-0.0543439437306365,3.2421875
-0.19831189519444242,0.6763478050205868,0.16015959404878582,-0.7964007287079327,0.011736625352514,-0.43217774174087054,-0.2548774233695555,0.661646871804686,0.024325626163361327,0.23315469742136216,-0.0066412995122045095,-0.07646526843718394,0.0019452948760580824,-0.0014039679327143369,3.25
