AF3,AF4,F3,F4,F7,F8,FC5,FC6,O1,O2,P7,P8,T7,T8,time
0.9053871215969904,-0.12443995816010817,-0.5176612428979229,-1.005526002003481,0.014513669786854347,-0.014598963941678545,-0.029453071918989406,1.7940325106728747,0.014882396995771251,-0.013024271627212872,0.018285808531202038,-0.008419986208243793,-1.0814497872129836,0.044846486492783326,0.0
1.5392865149519384,-0.04182154414423615,-0.9939123162428212,-1.5201340730342074,0.029463992103205192,-0.005960651328938889,-0.046571782631316394,1.2366658379380446,-0.004588001711706634,-0.010232258988204746,0.0023104623201460625,0.010861909013512333,-0.2645697130865254,0.06602770760897854,0.0078125
0.862672962650152,-0.0058909833847712745,-0.568050201903916,-0.831390232149926,0.01672019013681921,-0.0016891260444432128,-0.025908265731174298,0.5061506447208685,-0.00573084768124871,-0.0047703293424598454,-0.0019212346494117685,0.009213824538920215,0.013880677181538775,0.03565086032039431,0.015625
-0.5891045513503284,-0.01514970637605199,0.4018554780390981,0.5481680504168766,-0.012806660500289802,-0.0019167182242119441,0.016737453678821016,-0.13810454077537898,0.00706335806180865,0.0010688227100438194,0.0038071594831246736,-0.007507473268255195,-0.1892244675128642,-0.024103978179449818,0.0234375
-1.2163110783921791,0.018504694191905747,0.7944672900052699,1.1849298727796433,-0.024515839591766207,0.0020690203213878087,0.03585276347507442,-0.817221474149426,0.005932136171770918,0.006145732697045375,-0.0001733003850381614,-0.009018544564915042,0.0716965927401377,-0.05226717092174422,0.03125
-0.2630818894913156,0.06947195052711252,0.127164040510244,0.32846303446436953,-0.003916051319517931,0.007090234076924508,0.008707201056085764,-0.8726131510444175,-0.010400667917134622,0.005361999399159479,-0.011629079597364629,0.008774009281112204,0.6207851926539344,-0.015853048526564727,0.0390625
0.9325999048356101,0.03103444347828472,-0.6391911591476584,-0.8580222881872288,0.019129311727625747,0.002277128875861781,-0.02723161375057158,0.14876122727425742,-0.01279066534621725,-0.002569176575350819,-0.008446831372699522,0.015530071736012256,0.3613355866425702,0.036225061583798276,0.046875
0.9103967985350316,-0.060594883131053684,-0.5606775974676534,-0.9370426714003175,0.016177848788736002,-0.007657876412612719,-0.028260688585188334,1.1138962243018702,0.003581010591901855,-0.008685501683781419,0.00732910321948576,0.0013517323963374312,-0.4892485546706137,0.041021662459535514,0.0546875
0.19674348187135512,-0.05285635724402758,-0.09103396301672428,-0.2445152502056258,0.001985548043775067,-0.006433005313456057,-0.0070878080209698414,0.6656929478087097,0.007701970115858008,-0.0049749356758870015,0.008039110058932607,-0.005003347118733236,-0.4751939387980755,0.010832733016278675,0.0625
-0.0592537557218148,0.05586742575729566,0.004643178847068282,0.12049535438363,-0.0002192130755413859,0.0055089616292292795,0.002455960339098142,-0.6245947896644412,-0.009548607397073092,0.003545615162432368,-0.009873385774425938,0.008837370382784619,0.511284156377998,-0.0066593580328024125,0.0703125
-0.11905120829150193,0.11438624187010131,0.0021587831353034434,0.2413326183622341,0.00018189561471690946,0.011891248528290965,0.005323378517485355,-1.2785318412554625,-0.019438737883256937,0.0077734003362654,-0.019740482759735126,0.017122297738576493,1.04850193600352,-0.01276815327252745,0.078125
-0.47966529094809557,0.09987421235055982,0.2498679312454218,0.5705510052782885,-0.007510441611320347,0.01050888980006857,0.015751754176520416,-1.3083586563657323,-0.014104595239138483,0.008389689033055219,-0.016227056555999996,0.01113087582401767,0.8850160852342972,-0.02676683105312477,0.0859375
-0.29323217862815854,0.12226583157982682,0.11300273003209145,0.41854884024261796,-0.0032111039817434668,0.012848098475880023,0.010694304616080189,-1.4530391768615682,-0.019488781219589538,0.009092082227884508,-0.02059678321303317,0.01651629992339366,1.1077468859122763,-0.020456483012392595,0.09375
0.8534167703487763,0.1436811200280032,-0.6601609341987937,-0.6551609828700509,0.020509412907122392,0.0145625147516538,-0.022806913695406796,-1.0950626949666884,-0.032084471499207436,0.005445841251337677,-0.02753605528265973,0.03186235189144556,1.3988091113218937,0.025737175746945236,0.1015625
1.3131757450888426,0.019215405210972553,-0.8827027107293184,-1.2356340795119398,0.026551488096296604,0.0007901316257774027,-0.03878830597326827,0.4694268781391139,-0.013631017462967522,-0.005071404370954944,-0.0075069329001359085,0.017752589906084693,0.28253710770978546,0.052644969864868656,0.109375
-0.06611622132100194,-0.18316589289160692,0.16604142477584116,-0.14111189770006488,-0.006639214291432047,-0.020459400254513403,-0.0018715082489389261,1.9236674463245973,0.03272660926170099,-0.012691827941321279,0.031124301192173735,-0.027603690456540975,-1.7041188210015168,0.008157411885831793,0.1171875
-1.6064210575133293,-0.2458535128315689,1.2299679189900834,1.2653358556925591,-0.03945268703410179,-0.02643903861269364,0.042472424045733974,1.8034112027765907,0.05564495323133581,-0.010085845029257462,0.046264427254252075,-0.05337564078563742,-2.4091747268438914,-0.051805947213675596,0.125
-1.4702627938510442,-0.16176967528678307,1.0840922611267105,1.2289863724534047,-0.034525994701492334,-0.017372222277848747,0.04003842585701311,0.9754038301627049,0.03974510793575647,-0.004969169148008461,0.03145937478985346,-0.03911760898941334,-1.618857004595492,-0.05139718842459132,0.1328125
-0.6182006503101197,-0.101120691229603,0.47733371908694694,0.4782127627549528,-0.015694911821878314,-0.01124426159638622,0.01597779439340571,0.7655011877083675,0.022481066194154253,-0.004645236640069823,0.018631274452933173,-0.020901738964710658,-0.9881805926434062,-0.01978276626350909,0.140625
-0.5779217694680563,-0.08118342783975466,0.43638633595562604,0.46038749093683523,-0.014300096983116236,-0.009108097015780066,0.015144885297463823,0.5741735884997555,0.018649063132186394,-0.003474411962150768,0.01510071452689471,-0.01747952930947334,-0.8005662081116612,-0.019379642361796144,0.1484375
-0.5702191240858451,0.007649065937296366,0.3734695405160158,0.5546676500831408,-0.011780736611294714,0.0005386763736103465,0.016619339635886195,-0.37110428538334433,0.0028925463539327713,0.0025344380854976896,-0.000148984585408253,-0.003904794046556505,0.02299910488844542,-0.024756686672723932,0.15625
0.5019155308025395,0.1299029247842176,-0.41717916728080073,-0.3323224058880598,0.013068194959550689,0.01325408808455806,-0.012705972134026047,-1.1285074821575103,-0.026952369262262535,0.006076618818547782,-0.024168475797852643,0.026030141632588787,1.242657385794897,0.01199029579613945,0.1640625
1.5897452262811202,0.1599131557625566,-1.158947074229261,-1.3410444801801824,0.03579871457927571,0.01593559789063612,-0.044255036001807475,-0.8915723563861938,-0.040615310965313,0.0032706524515525846,-0.0324198059649243,0.042103802618951816,1.608892654564349,0.05531173789092696,0.171875
1.5140380894606813,0.11893982179492606,-1.0829125745615058,-1.3171093675586822,0.03319256855259977,0.011520075238104327,-0.042781539792092864,-0.49178270708734767,-0.03278640896359904,0.0008183148467376468,-0.025179321094362578,0.03506371324363422,1.2230128004443461,0.05480085508321052,0.1796875
1.0276107044916076,0.10708296730273578,-0.7522834250154959,-0.8650800397879791,0.02307197305111919,0.010487965084880717,-0.028611846929929744,-0.6142399307507976,-0.026945718380550196,0.0021801511380353587,-0.021756065349771425,0.028098571930655142,1.0735705793721138,0.035294476693978165,0.1875
0.7623942275908304,0.08870059521950757,-0.5624333039196521,-0.6293321629493037,0.017219646067972348,0.008635179193553671,-0.02108931062640433,-0.554857524551285,-0.021658983378598003,0.002117345578842504,-0.01784653040545652,0.02249614663390175,0.8818329279945648,0.025345197976794347,0.1953125
-0.13724966339032443,-0.036712113523378456,0.11848484253323216,0.09361942684969575,-0.004285598087471686,-0.004504269610328788,0.003130356983558514,0.3228287006273714,0.007409841263599514,-0.0024002144139804544,0.006219678081393871,-0.006061323302140671,-0.3526519400651987,-0.004099582636503252,0.203125
-1.4428685417218667,-0.19804955688031667,1.0902150123499348,1.1622426261363203,-0.034904282050596605,-0.021334844994341486,0.038602529554457934,1.377322624082575,0.04594205244972425,-0.00756133384286108,0.03760314477821356,-0.044373315117555684,-1.953013384744956,-0.048025690440009164,0.2109375
-1.1579532032916275,-0.17791036341746855,0.8852300023489331,0.9093503575495897,-0.02856689154694029,-0.01930469760248143,0.03046622618044344,1.3092019037706912,0.04018012250809464,-0.007473924699769286,0.03333710443930287,-0.03829994685996462,-1.7436084438463364,-0.03734873570178416,0.21875
0.6827855087883398,0.07517463762952573,-0.5053779492898997,-0.5713745481624273,0.015333491201003682,0.0072037330395079485,-0.019201801592757865,-0.4495233546693292,-0.018693263399811293,0.0015280059674633666,-0.015306129159572579,0.0196437880892573,0.7500370995261695,0.02315565942168624,0.2265625
1.0926901594578724,0.29108889052034875,-0.9199409679519926,-0.7211616697669504,0.0293047640899992,0.030445516609483598,-0.02721080014274025,-2.5446776350546276,-0.05998436459680408,0.014389728946193397,-0.05349614213972769,0.05684162819033947,2.783939719825962,0.02649521282757228,0.234375
-0.8605463899102562,0.1877568374890882,0.4465480697550042,1.0355724970159201,-0.01290952736979982,0.020269397208915678,0.02861466577808703,-2.4423606060690606,-0.02669559763307351,0.016077280234793146,-0.030208151821769776,0.020505736746878295,1.6688455144560759,-0.04820444497579849,0.2421875
-1.9137550202181657,-0.11965777355633407,1.3509928249674552,1.7007699827767826,-0.04231998293364925,-0.012565084523340013,0.05396363586722759,0.2992304130150381,0.035722774403725004,-0.00012931194618535932,0.02550598772321516,-0.037417741884279064,-1.2647549343715363,-0.07261982469807152,0.25
-0.09856523050048141,-0.26030283015375816,0.23996590732215242,-0.1958656465665186,-0.009374789867899528,-0.028820369397665146,-0.002323324472577088,2.72978188932087,0.046612544619396276,-0.017785299347060173,0.04444442259599302,-0.03969446497561123,-2.4214394129672145,0.011659241888657024,0.2578125
1.5486954438531095,-0.14554036562840209,-0.9302764991601955,-1.6460651458959132,0.026914856700655864,-0.017235524520364,-0.048817978460574715,2.3485637339521364,0.013669734230880944,-0.017325649958455897,0.020068211977611553,-0.004844103951549034,-1.2249656281194428,0.07291560694765034,0.265625
0.053170557456477544,-0.037849442295269785,-0.009697475627246608,-0.09348824667765657,-0.0004682563751144621,-0.004732005861055405,-0.0025795044791790357,0.4336196793167863,0.006148393201517268,-0.0033352389862177554,0.005869025830663785,-0.004216314403455778,-0.3478076540690328,0.004052023252175237,0.2734375
-2.355966787205574,-0.06686206938430159,1.6092595673612153,2.1818082178575726,-0.049891039173227625,-0.0065914517847160715,0.06804168464589594,-0.49030289724525106,0.02980336402975075,0.0054346513775688325,0.017717770469099187,-0.03405373619288237,-0.8112705498768416,-0.09422369874208,0.28125
-1.987050953953485,-0.07221394777400225,1.3685477051577264,1.8228842694955765,-0.04254467200970549,-0.00737293667383946,0.057000920793569776,-0.24437083402040116,0.02790581826996017,0.0034275348945575278,0.017586217514218756,-0.030996084320042153,-0.8312421753220662,-0.07861369693013906,0.2890625
0.5287828370795826,0.031142659571790517,-0.3709297227596899,-0.4710250656947519,0.011025198665995857,0.0025042763375471844,-0.015395691256765615,-0.05924779142388829,-0.00971245400206433,-0.0007635308292889228,-0.007312275275747049,0.011276915629543858,0.3295902433670486,0.019403899029444407,0.296875
2.189653215745086,0.1348187852977421,-1.5430029151083795,-1.9454429024107995,0.04728092584438437,0.012879659944475106,-0.0624819124953908,-0.31562415019378043,-0.04080334554256969,-0.0011191636919667066,-0.02982935289541191,0.044603830165076165,1.4245841087441975,0.08191791487467982,0.3046875
2.5655873443999306,0.1994137088241468,-1.8334159816139888,-2.231812784136194,0.05652827424084057,0.019703590818157035,-0.07234536989460591,-0.813703038546911,-0.055095975275387954,0.0016075730853477588,-0.041976442854938886,0.05841637760550401,2.0537247568922887,0.09340099052538688,0.3125
2.645133687448737,0.24705218219345804,-1.9148717017148102,-2.2532582870304116,0.0593933709588426,0.02484101478931318,-0.07381305725914701,-1.28255554193939,-0.06411681746027721,0.004503874655089177,-0.05036666140883165,0.06649103837614402,2.5015408218931063,0.09354453097474656,0.3203125
1.4642941054879182,0.15580841397795767,-1.071514861987091,-1.2252971957977812,0.033195196755558286,0.015554612899961748,-0.04067236800732071,-0.9126090396350981,-0.03892409813524415,0.0035551669555444762,-0.03135318368917399,0.040126251609686164,1.5604125954354946,0.050222914099626814,0.328125
-1.628782790766808,-0.14065248231928795,1.1732833773610245,1.4023792308049856,-0.03706512472383343,-0.015007099920982146,0.04513608582803581,0.6702422977672066,0.03722488057040725,-0.00284014805859863,0.028293497676658706,-0.037620083067224745,-1.4365998715681372,-0.059369210869844244,0.3359375
-3.704711213887391,-0.3693108956284325,2.700038192813248,3.1332515826512393,-0.08506748495774115,-0.038739104044432475,0.10221235135302674,2.0492160018793983,0.09358551622281878,-0.009146588394261999,0.07341375920762844,-0.09429717599436685,-3.7228535014962327,-0.13100480458286695,0.34375
-1.9598605166791736,-0.2379038606099237,1.4572754325819404,1.610963956107963,-0.04640914607811621,-0.025389820409525553,0.053177284921884026,1.5389264747607683,0.05696148625059287,-0.007976225210439366,0.04590731884289318,-0.05587648225056136,-2.364031360916446,-0.06688778179636118,0.3515625
1.2306864068634915,0.09640746923908115,-0.8787151629685603,-1.0688552667289928,0.026879989407243374,0.009226340093659507,-0.03481761571390035,-0.39714414845864376,-0.02663294434249037,0.000548872504124094,-0.020507857770770545,0.028652761645032318,0.991383408910949,0.04436496421497298,0.359375
1.5637490096508033,0.2469739268182162,-1.2002787533226518,-1.2206691182877307,0.037659085032412644,0.025400800671737448,-0.04191052356372846,-1.8330898102076159,-0.05580138620986908,0.009298691947901326,-0.047271533380059516,0.055064060417589766,2.4131475658932033,0.048672156302506736,0.3671875
-0.611565350226228,0.14066736642861344,0.3112407964880948,0.7414644913272683,-0.009059935199218914,0.015010477424448164,0.020295756521940378,-1.810853130092501,-0.020296898477220264,0.011756197426237684,-0.022842387734895327,0.01593387762039238,1.2522589233590482,-0.034843390902314635,0.375
-1.53366125716195,0.006989325307804128,1.0115853759577744,1.475201737402512,-0.03128076043533365,0.0009840526737343333,0.045048536720804444,-0.856365131772047,0.010416715750992171,0.006779033698457541,0.0027054286102529764,-0.014124348263227667,-0.060676562187848906,-0.06462053072546277,0.3828125
-0.34357907190465964,-0.03880012594359556,0.2540757968822844,0.28581493881908326,-0.008520783934824331,-0.004620835863224861,0.009076223850684566,0.24062220545056554,0.009364175698429384,-0.0016288332377935076,0.007162273369753855,-0.008527696675026597,-0.38853525242792175,-0.0123264089259879,0.390625
0.5369918957446121,-0.08657443383833777,-0.29744068452869,-0.6105948245493413,0.008016169184181021,-0.01028091311207739,-0.01785835161928293,1.2013141970071666,0.011034974149404476,-0.008799110484460698,0.012843243422864713,-0.006518272640466341,-0.7600222844973,0.0272050334335272,0.3984375
0.2961909546944168,-0.1669916465348278,-0.08392841025352041,-0.469735162312757,0.0010792811139586766,-0.018891202427903594,-0.01230963862815518,1.9364253054887808,0.027088351841511687,-0.013196484742339096,0.027319284119103115,-0.0213185738650398,-1.5247746856890685,0.022211278253936307,0.40625
0.3708567840522771,-0.1610007689031029,-0.13659306008683372,-0.5327212392512788,0.0027488231034771844,-0.018280507401915752,-0.014377403849996969,1.9093676504655634,0.025450498942599188,-0.013121285905324019,0.026080656308086383,-0.019630429032251064,-1.4633855336552013,0.024852603496975104,0.4140625
0.7779956445583175,-0.010304880650277041,-0.5066172295338469,-0.7529182456908532,0.014913554281697997,-0.0021253469300224,-0.023470233303474634,0.5081352443018728,-0.004303195634826508,-0.004687655062725694,-0.0009166768441377201,0.007603832013710144,-0.034234661153103564,0.03224839205312962,0.421875
0.15617639977564798,0.1542784791873192,-0.20492133430526044,0.02477056062789285,0.006683107443372988,0.01608611315706612,-0.0019383977842096145,-1.5659214280997484,-0.028592170055789717,0.009272484383931594,-0.027360930916943513,0.026095541083445403,1.4404778873455018,-0.0038526054143529437,0.4296875
-0.8287467306976001,0.1824874234999739,0.42869367561119853,0.9972880914246476,-0.012453222099157628,0.019674937040310946,0.027677511848303724,-2.3695907705906083,-0.025993727863581995,0.015579987586730494,-0.029387721149772096,0.019989215845023764,1.6222362206456327,-0.04647140134466596,0.4375
-0.2199789000327977,0.09788796216929684,0.08224150076553416,0.32045030711586864,-0.0023861301878783194,0.010159097711342411,0.008075160628947777,-1.1551496322192645,-0.015725741164919295,0.007119894635410446,-0.016618748515071134,0.013530717339620649,0.8875787976954751,-0.015940428147779524,0.4453125
1.268036328426575,0.015518173665594135,-0.8487632377599539,-1.194726070781305,0.025490649113244706,0.00041677194414661633,-0.03743532467239524,0.4847546132191809,-0.012623781541255513,-0.0051108221081168,-0.006741556453107133,0.016709364687106598,0.24471070808404663,0.05095419737486124,0.453125
1.0348174697954684,-0.03860801884139642,-0.6590768255153915,-1.0323885870910132,0.019369123420620724,-0.005339911380268136,-0.03157943569711261,0.9436734379456214,-0.0012828891647308444,-0.007761073006298416,0.0032003992224163705,0.006038401918528323,-0.2755554760834194,0.04474388462801788,0.4609375
-0.7159268209603629,-0.08860961937333382,0.5329669561737993,0.5860832069780791,-0.01727344438844636,-0.00983962087065486,0.019136618958372962,0.5829063965458313,0.021001830076454463,-0.003371233011300178,0.016763306054585318,-0.02002738332619789,-0.8803122744551574,-0.024655475994314786,0.46875
-1.131670669216197,-0.08990591367929424,0.8079278086661754,0.9818949899315441,-0.0256803616986211,-0.009759240134746222,0.031317981658314176,0.38460150704886015,0.024425036716868707,-0.0016115924256488792,0.01816901346824411,-0.024607544593657115,-0.9258989044981414,-0.041756016725624165,0.4765625
0.33721660386421104,-0.017255686542136137,-0.21434261612048627,-0.34242354897112975,0.0058895139955847595,-0.0026478213359016566,-0.010726854637210898,0.3601687693659565,0.00030109453849316023,-0.003212921800781524,0.0015224277530808267,0.0019502532995221466,-0.13391732808094614,0.014632334907170613,0.484375
1.1633116699425672,0.0326125814033917,-0.7931056538407403,-1.0760534378294264,0.02384616477069276,0.0023339911546631435,-0.034128408240132475,0.2493912789044004,-0.014846947901783291,-0.0034921237629698,-0.009381819802947153,0.018246199700035777,0.3950143182930609,0.045683087021503706,0.4921875
0.21713469002489533,-0.005913751185707898,-0.13705072746948946,-0.21192866001615096,0.0036902142662019535,-0.0013443985958644824,-0.0068158894536357794,0.17537993785682118,-0.0007489530603387392,-0.0018839757735293122,-7.22816120130138e-05,0.002362547166041238,-0.038562716214764405,0.00867702906603898,0.5
-0.8211602860729736,-0.04012724886794814,0.5747784336478018,0.7435116835995954,-0.01816249621074394,-0.004511806530871549,0.023231319491970073,0.009285730402486288,0.013282796714036402,0.00041695991485119773,0.008759109252880657,-0.013834209166951453,-0.43981523606828754,-0.032335209074478795,0.5078125
-0.8692444238860619,0.006631567475181593,0.5725356814789211,0.8392633115134464,-0.017858526904943828,0.000587241309582843,0.025474116854631135,-0.5130710438125632,0.005378990694939298,0.003797780125808672,0.0008766987363411229,-0.007211691176453714,-0.010593953139207513,-0.037142738246106324,0.515625
-0.6821906272830914,0.05785427772519865,0.4115636213272703,0.715310757757609,-0.012729746174181392,0.006052232554868869,0.02085951766178081,-0.9630300417342916,-0.0051204877067280025,0.006436832677820864,-0.00844469903287889,0.0026047096095506185,0.479337241773615,-0.03241764540185028,0.5234375
-0.5553349836666356,0.04931371830259308,0.3342794145872307,0.5853729224685834,-0.010432110489245625,0.005062353545182329,0.016952996178921487,-0.8077010758681612,-0.004584047236545334,0.00529713265326303,-0.007342281161146708,0.002661014012629987,0.41066794981992366,-0.02662371320317286,0.53125
0.004975655258797175,0.037952777247071204,-0.026434655683370157,0.03894925605239943,0.0005777052234581542,0.0035314063278335827,0.0002041642404877714,-0.4011602537628615,-0.00687835145949627,0.002040683246572096,-0.006986749323082499,0.006813798834200642,0.35058676315307497,-0.00283075361571685,0.5390625
0.5338592154866189,0.04741055257228765,-0.38280177649438585,-0.45617110379066816,0.01155119695510568,0.004272479418266984,-0.015241899179533298,-0.23144768516469427,-0.012619887000852863,0.0003271580257965086,-0.010113637626231506,0.013804169516668853,0.4807304995735135,0.01844490419339176,0.546875
0.2205274924214269,0.011005409368545603,-0.1532009298422262,-0.19835978472150517,0.004279595317482407,0.00048092162650541025,-0.0066508452646124455,-0.002006749993633407,-0.003786580426240564,-0.000762636178114699,-0.0029814563830442343,0.004964765795697932,0.11808348605643217,0.007847251701482622,0.5546875
-0.3565905604108356,-0.06491383957024138,0.278851268460904,0.2690964746154837,-0.009432898134995132,-0.0074561123033904265,0.00903538796168957,0.5131374692210305,0.014066652383646903,-0.003355592782722206,0.01167762439368806,-0.012657107579164276,-0.6317746039161812,-0.011217004963064449,0.5625
-0.2142580022028212,-0.08443360520520647,0.19981519962402905,0.1131950659634408,-0.007137543396826714,-0.009646185057473486,0.004520267107071177,0.792832577996069,0.016430443217042796,-0.005305879180139806,0.014620201773962171,-0.014123320730453045,-0.8009691832529422,-0.004150399204837731,0.5703125
0.3977038145944306,-0.03794000331180498,-0.23408861763371394,-0.4191447386721837,0.006451731592750594,-0.004919279049577349,-0.012697593082098552,0.6086787629761032,0.0035141566201631,-0.004862086550215099,0.004907531657207526,-0.0006064087939729568,-0.32078050481078085,0.018175768809562624,0.578125
0.8375657708553559,-0.00886465338025943,-0.5458028414581698,-0.8092277203068892,0.01616369507661867,-0.002000485122167937,-0.02520969968198278,0.5243966883797998,-0.005008641406133514,-0.004850515943856054,-0.0013316324660978705,0.008446587281985378,-0.016008797297494385,0.03458712341431946,0.5859375
1.0669178764985154,-0.019625927357266103,-0.6943349103713138,-1.0434817837698467,0.02055595831946237,-0.0032991523393685685,-0.032232726234471,0.7584581013155232,-0.004875146546119177,-0.006617220347674667,-0.00014500601436676967,0.009235773143051188,-0.0972405276507543,0.04492459950873525,0.59375
1.0115634913056715,-0.0245215033147005,-0.6564300381048912,-0.9963921160431077,0.01928877193534032,-0.003801150267004053,-0.030682737249571917,0.7827804255542425,-0.003587444683821274,-0.006707614198389054,0.0008479951615023427,0.007932775708342112,-0.14690321114974403,0.04305702899772257,0.6015625
0.5579410883270389,-0.003559310351645286,-0.3678537715041483,-0.5369083300133892,0.010631018646805357,-0.0012739502682453377,-0.016860417002664184,0.3255624172245965,-0.003803546340109361,-0.003252564584624883,-0.0014518751103882491,0.006356236513237031,0.010865018758935389,0.022875303601743297,0.609375
0.15695326016344957,0.04280021767065852,-0.13040832209569791,-0.1004832945278273,0.0037571292986236537,0.003980319475032316,-0.004147844394878699,-0.37541456650586325,-0.008907217822249845,0.0016935486867749427,-0.008252862763843934,0.009168255984096957,0.407935413516157,0.0031894437669959617,0.6171875
-0.14037151557220343,0.09482559408115934,0.03134730487319988,0.24049375981590737,-0.0008021520998455377,0.009784923005686662,0.005562438170521257,-1.08188494586998,-0.015810551212573153,0.006549099627871366,-0.016323421634669502,0.013921783713009995,0.8656659441914318,-0.012471294638115214,0.625
-1.1862853161885736,0.07264306237829463,0.7367832094476712,1.2151573863842113,-0.0224517869384626,0.007927235688841905,0.03599388461638218,-1.378712151327968,-0.003855992342489223,0.009687668820543649,-0.009541316751672626,-0.0004870115593946211,0.5755180627070914,-0.05440314290353749,0.6328125
-2.623238034572042,-0.04810074423631725,1.7689376590876964,2.4563792211556894,-0.0546913498341128,-0.004419775763430368,0.07617814705707855,-0.8250941073964849,0.02851751660302348,0.007877140860014755,0.01525365991298052,-0.033989226814361534,-0.6591086394920188,-0.10634930553953831,0.640625
-2.3847819657593416,-0.106999730013678,1.6513203196178137,2.1636410508982937,-0.0514970061981012,-0.010939943866194068,0.06806083476843287,-0.07534787472705923,0.037093423538497663,0.0028182986634610048,0.024671835734676708,-0.04041758743002067,-1.185343550389701,-0.09274055458248379,0.6484375
-0.11176455968784792,0.024375657358303274,0.057638769113113136,0.13414076671826383,-0.0021188161604963106,0.002116128586281101,0.0033835190082467746,-0.31460421296673746,-0.0035856177916005864,0.0016295545016831122,-0.004331020164137943,0.003534925146339781,0.215459960817712,-0.0067260122204391,0.65625
1.6213432922847972,0.17151838662274832,-1.189233386839747,-1.3614804393104452,0.03681930589814823,0.01716872000688988,-0.045064988654574936,-0.997767457075237,-0.04290649961404353,0.003911751033524268,-0.034497262453381784,0.04417442201051973,1.7185379883589256,0.05588713972665842,0.6640625
1.272543415481848,0.0946636449231959,-0.9050882289407888,-1.1121662833482473,0.02772586231353988,0.009005789618910956,-0.03615578028829482,-0.35671350708269944,-0.02664823075013266,0.0002432724582272114,-0.02032263068749372,0.028777412772805912,0.978135647814383,0.04619315203778812,0.671875
0.47730737946148966,-0.10976386595356667,-0.23899904356206575,-0.5765305722116294,0.00616483040641719,-0.012770279087127499,-0.016392692525020507,1.4162808912933793,0.015590143195093496,-0.010103066336563387,0.016997078241881007,-0.010723484213334973,-0.9801001757825408,0.02601399480122746,0.6796875
0.6344278242615808,-0.17655238924760766,-0.29829428254318424,-0.8009724366273578,0.007512473127695156,-0.020105582899743017,-0.02223295791237865,2.2088168283507317,0.026191825980272126,-0.01533881674919151,0.028000654620344456,-0.01922175738711947,-1.5860765598498505,0.03676817187279214,0.6875
0.7270159832231945,-0.09442816859875953,-0.41683855148097004,-0.800139292579791,0.011597718424668097,-0.011236530428744559,-0.023487990671125565,1.3811809248932607,0.010969704727835771,-0.010173785678936665,0.013653798587604954,-0.005735057734864238,-0.8176591292042747,0.03552387158768502,0.6953125
0.04087856829603059,-0.016273330085700585,-0.01604233973723167,-0.0574696419804138,-0.00011334082444309799,-0.0023825003179689884,-0.0018387772922860543,0.19730071897448614,0.0024264503389927073,-0.0018117876061999043,0.0022063822199932877,-0.0010642941502456652,-0.14896543289477032,0.0021447267321078123,0.703125
-0.3047390031945701,0.056177265097592806,0.1651264433919465,0.3560068038046621,-0.005145616533535281,0.005675864501452616,0.00972560218578948,-0.7535211065262952,-0.007725480811745577,0.004651609539343877,-0.009232990179169826,0.006329447119907154,0.49448581423663446,-0.01684386062292642,0.7109375
0.12337107629661923,0.15308659841770378,-0.18253869970173917,0.056524703809503786,0.006056977210718618,0.01597825295268567,-0.0010620555089493162,-1.5699799287400273,-0.028142461405130593,0.009333027366273587,-0.027069451677204884,0.025597808352660737,1.4270582721556702,-0.005225838599474581,0.71875
0.11847264674220294,0.14211805597513033,-0.17308218323805574,0.047779837647724165,0.005673076737449825,0.014785667922025304,-0.0011462811122309072,-1.4547310535071243,-0.02617034940200241,0.008603814581695601,-0.025173404363195043,0.02387070582668716,1.3249337787791704,-0.004637920093075423,0.7265625
-0.5923041847236427,-0.023944276541250274,0.4066463656207335,0.5393272300435061,-0.01305669217247216,-0.0028816247348092917,0.016644378236994554,-0.04416202985445948,0.008629713495255738,0.00047271078439925144,0.005325918610165833,-0.008901631962781422,-0.2713007257908006,-0.0235188949172007,0.734375
-0.6884264270527107,-0.14290288792406267,0.5491676317563545,0.497185403091941,-0.0181534425617122,-0.01575385062754708,0.01720243839731915,1.1767554089708658,0.030386590455227794,-0.007185998266694154,0.02599483396548025,-0.028010181282256814,-1.38125394453432,-0.01997418745595543,0.7421875
0.11051149387763358,-0.10241270941207432,-0.005133588054041802,-0.2203054099891886,-0.0009895240553194858,-0.011775876185640029,-0.005590301615223973,1.152027226135057,0.01710042588806552,-0.007980818679901991,0.01677425241324772,-0.013418721557062582,-0.9413659755411923,0.010512093325599,0.75
0.40787219456183704,-0.0559970617348629,-0.23029822217918228,-0.4509855193498671,0.006212738374691685,-0.006889113461112918,-0.013424058934056411,0.8078851710836721,0.006628945798368094,-0.00613845875615237,0.007970069028352752,-0.003240195069120106,-0.4872149320334526,0.01977544971983024,0.7578125
-0.21674080729150802,-0.07468362786941744,0.19632657769286008,0.12524610462364982,-0.006877888915885948,-0.008590202163330021,0.0047059392423901125,0.6887466548884682,0.0147401845321377,-0.004627678126202569,0.012956241283274677,-0.012696373137835821,-0.7109668850136546,-0.005000977492505158,0.765625
-0.4359957098891062,-0.010594156911386496,0.2962296292560888,0.4043120058815673,-0.009572124736980618,-0.0015169251851568713,0.01237571542089774,-0.10601972505890674,0.0050958078054836,0.0006950471184816971,0.0025915642819715518,-0.005249562606643371,-0.1350069634172743,-0.01803248181786175,0.7734375
0.2809163869501951,0.14969687808059726,-0.28750723006357753,-0.10346685267225554,0.009146391083410622,0.01551432156941054,-0.005792858590491843,-1.4502471848344392,-0.02874621822119822,0.008393971728529159,-0.026936603817254972,0.026732062909278365,1.4081302397249114,0.001714022684355611,0.78125
0.6857364605325917,0.20493998207990294,-0.5908113595309221,-0.42729641629613296,0.018750325134978634,0.02130649812693391,-0.01671169146377037,-1.8344508009891338,-0.041619622564438165,0.010354476097425049,-0.03756077177601932,0.03941839462241754,1.9528228826224256,0.014980581435433614,0.7890625
0.028200488600685365,0.10083191353984078,-0.08291415671208918,0.08762878763106804,0.0027162082232032566,0.010351936073196323,0.0007244990054881896,-1.0607991676009272,-0.018166342595963766,0.00621400022989323,-0.01783308487432494,0.016623695283105457,0.9350901260219555,-0.005877582623901516,0.796875
-0.7616056175636092,-0.0066135021758649375,0.5117623745118335,0.7231663939002355,-0.016033907636765272,-0.0009025238162087228,0.0219927217037563,-0.31753532492736053,0.006887201161129378,0.0024227962122419,0.0028411193737153217,-0.00807482525386301,-0.12440950558904085,-0.031905152802157236,0.8046875
-0.826690097277593,-0.05589209219770193,0.584941697731453,0.7290223118946744,-0.018636313176967904,-0.006226897937534976,0.022995721043641587,0.17609496831499888,0.016087225789224124,-0.0006490215395030375,0.01147271377255845,-0.01625809374067635,-0.5863502418392127,-0.03137780795244787,0.8125
-0.4764897815083183,-0.10474276972928276,0.38424789441589546,0.33946400683198596,-0.01290306456295336,-0.011719421704727747,0.01179049104048743,0.8764743887765852,0.02202259995196108,-0.005533024440745481,0.018846808334944256,-0.019977775461634505,-1.0105273803522865,-0.013668579699849633,0.8203125
-0.05109373433587196,-0.11707480200978322,0.11233149318744383,-0.07970128026488563,-0.004683748613849181,-0.013279187210458645,-0.0009704261611299647,1.2247157748558737,0.020931794558213167,-0.008258691328879804,0.019748019480729427,-0.017347068938427704,-1.0901739761628986,0.0047073106547174,0.828125
0.5566834110441171,-0.03208154491741754,-0.3451660389891737,-0.5656770128457039,0.009857213741739704,-0.004367973066963317,-0.01735031124027995,0.6281475507054848,0.001243671603168568,-0.005181089390346703,0.0034452468199426462,0.0019943587704355234,-0.2535628689745818,0.024451882623726183,0.8359375
0.9956568814618764,0.058443373473421385,-0.6967612421414315,-0.8860739739312122,0.02116473896793566,0.0052260334563000305,-0.028653030180725104,-0.11271987760409856,-0.018122316823623464,-0.0009832369210739764,-0.013324262477338634,0.020372474624108877,0.6203933248893897,0.03693560009807436,0.84375
0.6996566723951364,0.04132807604851231,-0.4907906819641105,-0.6234646728910709,0.014736632559831861,0.0035193872742840405,-0.020219215361324382,-0.08072065256665381,-0.012817427078245217,-0.0008316646982752953,-0.009545124424503393,0.014625702756680814,0.4377299447018148,0.02581565800483154,0.8515625
0.05301934280261135,-0.03565392502704236,-0.01132802368424135,-0.09012403046461635,-0.000409144708007901,-0.004495622419837884,-0.0025164463260347685,0.40992082196785534,0.005757732730033803,-0.0031833130643756356,0.005495989718801158,-0.0038993945464030396,-0.3276222051222453,0.003917494747085647,0.859375
-0.1140917328144068,-0.06522157381010898,0.12031515008092902,0.03837880626410649,-0.004603117953761196,-0.0076127173384400604,0.0018760682380730047,0.6393736872096054,0.012263569144332694,-0.0044444393126230166,0.01104085147768941,-0.010143202091904769,-0.614839748092863,-0.0011517902948570786,0.8671875
0.06959827497847099,-0.029110328456235474,-0.02480437682090443,-0.09709515885246073,9.411225667835755e-05,-0.0037883863853651256,-0.002930740760367192,0.3480694280181868,0.004467394520433788,-0.0028080233125345254,0.004325926659758463,-0.002714098351362705,-0.2654515918636584,0.0041461026787125346,0.875
0.0192561765559193,0.02823478452207778,-0.03079177429068665,0.013022089156320138,0.0006691602650697717,0.0024616490788610464,-0.00043354329024888037,-0.28859787199705306,-0.005277254996263429,0.0013071610597177952,-0.005362747799260889,0.005465967520446671,0.26156343955359423,-0.0015872475746622498,0.8828125
0.04585772790915749,0.06163167473684462,-0.07210403505992145,0.02326797535918536,0.002119845420294807,0.006071904884122611,-0.0005806279651380556,-0.6305458596987458,-0.011378850416830955,0.0034529052711454998,-0.011166270853047578,0.010831027429624775,0.5730768260724568,-0.0025848804734509494,0.890625
0.604163634198576,0.05226567958697126,-0.4356865310556699,-0.5207396871373794,0.01309654523774977,0.004760146458822957,-0.017176567961307107,-0.24536524555927192,-0.01401245383058397,0.00033259632678373446,-0.011154179313588771,0.01531672336063112,0.5316254410859139,0.02118280967816598,0.8984375
0.7764394155541919,0.03687518208390362,-0.5387014175910071,-0.7013938242834739,0.016116159163890285,0.0030018738962068257,-0.022533540009815056,0.00608146511472607,-0.012616910281433144,-0.0014739495228547452,-0.00900732522673979,0.01480957004506756,0.4031590382924515,0.029311104920936554,0.90625
-0.5690417064522211,0.05050729540707973,0.3436472905009268,0.6012278585507159,-0.010662685233893703,0.005201528448460047,0.017396154144807656,-0.8278183095618248,-0.004685765163878711,0.005445359299892181,-0.007507458575916524,0.002688041970028186,0.4206724711545664,-0.027367514698827925,0.9140625
-2.3551995007152904,0.03636443820331437,1.536267766912398,2.2940882968130167,-0.0470378577607049,0.004615002863209639,0.06983120675917463,-1.590193428766984,0.011538468875828375,0.012433385779155832,1.2519933557301754e-05,-0.01832551993364951,0.14504202080803982,-0.10061011223897921,0.921875
-2.226600639348479,-0.057784701463117184,1.5150256592775735,2.067199527049694,-0.04694207776135769,-0.0056825284772086026,0.0643076444749165,-0.5201614504685375,0.02718235045221576,0.005460086158895592,0.01579065503168657,-0.03131346163030937,-0.717016135609797,-0.08940201258204222,0.9296875
-0.16645322172659494,-0.13705805760501208,0.2044108727694083,0.009163671881327667,-0.007525761682869185,-0.01539107665033303,0.002054156058437176,1.3784927262338866,0.02535514189320418,-0.009097950788208341,0.023508641829225258,-0.021642109402385538,-1.2849103264783985,0.0010431809347134433,0.9375
1.116061581879716,-0.08479670989704853,-0.6809441570743869,-1.1606966545845792,0.019712788601881585,-0.010397417154408296,-0.03483143932837846,1.476924134138974,0.006267283360734917,-0.011255762872124283,0.01088910189692575,-0.00014250309635681295,-0.6969098551396267,0.051028965341126276,0.9453125
0.30276187664770376,0.03289538228472047,-0.2228704170354124,-0.25400507746189455,0.006457369662933259,0.0028180126439783753,-0.008655669352330178,-0.1935153665307316,-0.008274914624056136,0.00036044102249236265,-0.006972454078960409,0.009196563530076796,0.3277669087119915,0.009955875388423076,0.953125
-0.48741521531865334,0.06656992720376737,0.2778112801865876,0.5396211918736723,-0.008553699651482121,0.006895517024448089,0.015286926391470775,-0.9566281136127838,-0.008156231930592468,0.006166018853236531,-0.01049198598288714,0.005974880555273055,0.5757889076707807,-0.024971270395274824,0.9609375
0.6741279705903872,0.01636694090938741,-0.4561846230822491,-0.624040593149944,0.01354738291620092,0.0008263189886794968,-0.019926069816750235,0.1714543062275721,-0.008220954245286089,-0.0024125585199003853,-0.0051945865365657425,0.010574606184840346,0.20456085585805783,0.026278504145436914,0.96875
2.3091810036710934,0.0033233254199013123,-1.52953113693929,-2.2006709715381403,0.04617047535522358,-0.0014580746393517306,-0.06842575392098187,1.1456088328328318,-0.01848517196470281,-0.010574915596462873,-0.0076203018947287446,0.025835918825224954,0.21601774309681895,0.09490860229377386,0.9765625
2.095751864416679,0.0659116449655759,-1.4315930291858607,-1.9293461734886368,0.04353132990722198,0.005452059207433932,-0.060961297993463975,0.37000554011897696,-0.027898812480936286,-0.00537495350588534,-0.01774385238358066,0.033113262141104716,0.7786849578960371,0.08222081563750418,0.984375
0.5969555963403252,0.11622421497287276,-0.474626203023037,-0.4436005713846646,0.014647893703487163,0.011709682414369357,-0.01578154279778769,-0.9309804323877369,-0.02526441060284691,0.00471069760841124,-0.022096723833266333,0.02496011412154081,1.1235413689003402,0.01698980759594058,0.9921875
-0.08861888157289688,0.07423132753545568,0.007663956172078613,0.16471986468226227,-0.0003057623732673798,0.007512310486472759,0.0036820420299706583,-0.833194104237643,-0.01257345957542031,0.0049093489251547575,-0.01294129274481302,0.01133734630255866,0.6789723520992562,-0.008817358357283879,1.0
0.06913893767958296,-0.03539154041770638,-0.021033300598024558,-0.10562125760647638,-6.800331032525305e-05,-0.004473339411304646,-0.0030097789812809283,0.41546150673528304,0.005587162038065172,-0.0032352501350838975,0.005404911758644372,-0.0036792805715891706,-0.3238229425174341,0.004506390920531713,1.0078125
-0.5953886417787653,-0.12916245358046008,0.48412551254366104,0.4279599545358339,-0.015983177934005714,-0.014299516658074168,0.014851777174921326,1.0749890087385638,0.027268361890153532,-0.006643097680958516,0.023377427686399402,-0.024958907631799934,-1.2461948561254779,-0.017270729240946768,1.015625
-2.1639131966773957,-0.16394763084302605,1.5460173458756876,1.8894934395845304,-0.04853413452778336,-0.017243946131093514,0.06048588206369455,0.6446436222534344,0.04546989940202576,-0.0020270526733633617,0.03381305450119376,-0.04679931048876142,-1.6953080928812265,-0.08015159712014727,1.0234375
-2.761032134031437,-0.14882075060075836,1.928963379694184,2.476065541714046,-0.060158942624630195,-0.015287859980074701,0.07838507241305619,0.17899155521701363,0.047380388845097314,0.0016497277270964173,0.032919559969687165,-0.050790729115101546,-1.6035373164637676,-0.10577686120556576,1.03125
-1.5673957080860483,-0.08387289841798296,1.0932368063484934,1.4059161581467061,-0.03436215104462012,-0.00886981807716089,0.04437097891980058,0.09630861471924279,0.02672651707281152,0.0007447212268339881,0.018378139290995524,-0.028301485785498227,-0.90529270491893,-0.06027171466326269,1.0390625
-0.10148986846087854,0.028939597507497056,0.047854780940741866,0.13012340637585126,-0.0018097052983201342,0.002607679770571121,0.0032089318855070222,-0.35902367603685104,-0.0044719237485483215,0.0018913607888074294,-0.005143189843032383,0.004339675721066487,0.2585181301333044,-0.006608476767131042,1.046875
0.2671507264028132,0.12769810289966205,-0.2602851848268296,-0.11137359236725103,0.008264829809064015,0.013141515441171432,-0.005849830488796439,-1.2251531523932355,-0.024753759999888398,0.0069707995932880105,-0.023123537767623183,0.023247289482574957,1.2033054467837516,0.0023527272174896597,1.0546875
0.35790503603375956,0.1534847993326055,-0.33764752341908794,-0.16977940863157054,0.010821191261720603,0.015890246966574227,-0.008069333463677279,-1.453289520023484,-0.03000971131200796,0.008319305492434332,-0.027801351323526905,0.028105320311287946,1.4494015834402003,0.0044732940268475945,1.0625
1.3491884715620146,0.1444859200850606,-0.9905973795780013,-1.129932764369618,0.030598145207448014,0.014378338498482843,-0.03748365162685098,-0.8489540630933017,-0.03604060788044775,0.003286689024161897,-0.029086287064252047,0.03718446772143073,1.4460809434854784,0.04628245457625589,1.0703125
2.4036615063463342,0.14501466848929698,-1.6910665415252042,-2.1393581837556326,0.051858245227136716,0.013873392821051527,-0.06856111808534944,-0.31478141239175383,-0.04423744901651694,-0.0013761789990115398,-0.032186421686860124,0.04840723514737037,1.536358797796478,0.09011020386680266,1.078125
2.0812563400058677,0.09221702682180902,-1.4410687708747587,-1.888929262344995,0.04392191913109694,0.00831496654121561,-0.060027004056069456,0.08310085151937437,-0.03242910650531343,-0.0035256438264556866,-0.02221545823974275,0.03698880728097774,1.021296391788556,0.08003441724294102,1.0859375
0.8361670330503002,-0.058192100159055585,-0.5136144402847068,-0.863769387901477,0.014823378566196217,-0.007357787446073644,-0.026133695118016526,1.0506838770822886,0.0037139221345074266,-0.008201771437151471,0.007125066057569303,0.0009505323946657498,-0.47297053220844004,0.037739489199378036,1.09375
-0.12535460233555829,-0.1946035137332058,0.21491561834221853,-0.09545211897981061,-0.0081632707633965,-0.021667009105016524,-0.00033359102716743567,2.0146358793885715,0.03520156840027736,-0.013195088336525329,0.03325736106347177,-0.029981638837949673,-1.8148174104985657,0.006393114391399583,1.1015625
-1.0680915401569628,-0.19624700684560348,0.8394923630239208,0.8043614604958217,-0.02724477989685808,-0.02134474019259644,0.02751727546224549,1.5501206039611215,0.0427369750609568,-0.00911224823574997,0.036227485391496964,-0.0401783989627607,-1.906335466807961,-0.03255690050459468,1.109375
-2.2526020123666033,-0.10506546338062071,1.563015569991565,2.0397475576617925,-0.048795435839530776,-0.010802491042381948,0.0642885029047736,-0.02915041408891424,0.035735862562274,0.0023625874043752024,0.02396968177728357,-0.03876422467309579,-1.1570135972612117,-0.08737997447891718,1.1171875
-1.9958548768305089,-0.019215778949280223,1.3365327717910827,1.890634090261458,-0.04137364875409666,-0.0016074664734657405,0.05834900398821252,-0.8143589567901712,0.018598041278419734,0.007059871760091589,0.008516661142476333,-0.022964649393109125,-0.3405649174946628,-0.08215289331660941,1.125
0.583775248178197,0.05011552555446689,-0.41814721398041704,-0.5005950048303586,0.01256873911432604,0.004545617254175974,-0.0165741815437366,-0.23462644403875213,-0.01348096655765608,0.0002869334121501193,-0.010724923425473619,0.014783055741409487,0.5102216967893596,0.020429978851996104,1.1328125
2.6363417795314623,0.10918141226299923,-1.8178700548656255,-2.400082379065582,0.05562636954229585,0.00985959052529913,-0.07614223845966098,0.18530661886401942,-0.03969356936382548,-0.004839985107862937,-0.026701438312713145,0.04538631541248831,1.2230363070278552,0.10181584032233003,1.140625
1.1276109476283618,0.11130644110027954,-0.820547015845022,-0.9550851103158562,0.02524287711360474,0.01089338918725086,-0.031565838165397646,-0.6087592143909547,-0.028466161627857308,0.002021302706403462,-0.022762834628667013,0.02978557596625875,1.1206777230098404,0.03911417569164089,1.1484375
-2.088509197762194,0.04173866909436895,1.3560344127457455,2.0447911501327383,-0.041553374673537966,0.005057041603340754,0.06211824597873568,-1.511039054675187,0.008549189930801396,0.011612700390033533,-0.0016684022044354157,-0.01469333898319039,0.2164615129694868,-0.08985005847169278,1.15625
-2.727310248493417,-0.03930114654634643,1.8332035203195571,2.5662709466905533,-0.056624024956886614,-0.003401999258826321,0.07945834903786855,-0.9728615890038972,0.027772797498238154,0.008948408986167463,0.014044221635721112,-0.03373582636625019,-0.5857862309533232,-0.11119587124230611,1.1640625
-0.5919229422181089,-0.07859127785908596,0.4452115193136105,0.4794623173677412,-0.014552253028688608,-0.008812452343773198,0.015631836013251653,0.5382238205557984,0.01829726374426175,-0.0032289953326891884,0.014694050165276572,-0.01721172980357713,-0.7774192521857793,-0.02017212608850834,1.171875
0.7118053337990411,-0.06975763435213156,-0.42381660996643844,-0.7586464359022437,0.012032571241868413,-0.008554343081093242,-0.02271642600050293,1.1105811862929307,0.0067177031486105425,-0.008433738160522335,0.009466309669915591,-0.0021597755167098017,-0.5905698291275635,0.03327962955298549,1.1796875
0.08251693634528988,-0.021552900451828783,-0.039361163879358535,-0.10343898908746436,0.0006313999588812057,-0.002984372830409726,-0.003202277302324652,0.27487160872286137,0.003036696583290753,-0.0023608817505436307,0.0029945370316026686,-0.0014640002535101758,-0.19484579070854902,0.00412560124589492,1.1875
0.20181622892418477,0.037371612908729326,-0.15870964911378363,-0.15176945426087185,0.004585365457953086,0.0033566086704086505,-0.00558750325387566,-0.29251115018737356,-0.008298178788024841,0.001107904076991859,-0.007454245817899205,0.008808116815608086,0.3610896477436783,0.005431231373833907,1.1953125
1.978557127961541,0.058564123291661795,-1.350804745968773,-1.8276706119683794,0.04097547091430655,0.004715952675738372,-0.05766983556997899,0.38970000138673977,-0.025700796844015588,-0.0053602732018739425,-0.01615702608337863,0.030810480007348012,0.701359467505644,0.07787733474294974,1.203125
2.5556012002373025,0.04350399640550262,-1.7236225842754969,-2.396993274158787,0.05222584089460001,0.0027721409539722863,-0.0750312676049802,0.8454619922270858,-0.027469826537156527,-0.008949113519727827,-0.01521877290846885,0.03459510329951313,0.6084199070839813,0.10278353051080354,1.2109375
0.5912151993774085,0.05455900432132219,-0.42930906816258935,-0.5054714596802393,0.012906834727147452,0.005016943040636362,-0.016800782470956625,-0.27681886438762265,-0.014323697773208532,0.0005483485852916483,-0.01151022899976253,0.01552676970688144,0.5518049139069888,0.020535282247472565,1.21875
-1.0258264634051397,0.09630653868259667,0.6164834014829942,1.0903436985129518,-0.018627391493999734,0.010414843584948482,0.03182160343737096,-1.5502669217572425,-0.009275769990194303,0.0105886336044552,-0.01405392926812686,0.0048057653705460435,0.8077530373274521,-0.04930258768764075,1.2265625
-0.24277334570318831,0.06995862052605638,0.11839527397149834,0.3149052382296749,-0.003585736623015737,0.007141009617051038,0.008270912981980256,-0.8707156493283956,-0.010637485673771452,0.005321136541843354,-0.011765165976926065,0.009049934530674476,0.6269887731697816,-0.015244709057377457,1.234375
0.5842493391418346,-0.06553250413448672,-0.3388652034959971,-0.6274897864806332,0.009470335865110636,-0.00801627788234991,-0.018722385287004525,0.9977114188036911,0.006953326635178072,-0.007566925661253284,0.009109181550661843,-0.002851416635355445,-0.5614650807917491,0.02766175308938455,1.2421875
-0.8019597944546949,-0.18078291038865293,0.6537209673008724,0.5672171072119949,-0.021537931149441785,-0.019801878390836834,0.019984826030004295,1.520429412023829,0.03797369852793282,-0.009237066386178857,0.03282070080655508,-0.035016139309286064,-1.7414387755703955,-0.022448497210614746,1.25
-2.4099778698890972,-0.15103868164696593,1.697717450640075,2.1375724551654116,-0.05316704441616821,-0.015716387072556598,0.06801231862035509,0.38165149147640487,0.045072665039306514,-6.182985484126141e-05,0.03230431964601992,-0.04744477170602362,-1.5959008180416516,-0.09099867628575599,1.2578125
-1.7182203885057936,-0.05272049655890958,1.1746136408927117,1.5867140738210768,-0.0365878063533493,-0.005401061315842333,0.049426612248230264,-0.31420211684219645,0.02237790666501882,0.003542934181772408,0.013472502923371231,-0.025164200550575534,-0.6288506269024898,-0.06855545611852672,1.265625
0.003769873284667094,-0.02614714712676267,0.01554930097431999,-0.0315423634375045,-0.0011003973886284588,-0.0034309289100302094,-0.000983628640835851,0.28373420989921455,0.004442162512105034,-0.002322012253966881,0.004000893435621986,-0.002929804029180307,-0.24316793744763057,0.0012230049735358248,1.2734375
0.40507225062682384,-0.032305366033961676,-0.2487523982093204,-0.4255027128278527,0.0068816527135549645,-0.004320357544257323,-0.013005011764872995,0.5568893049953171,0.002444784958618677,-0.004538907445075056,0.003907989720885516,0.00037212915343737355,-0.2678041554728673,0.018357528142084526,1.28125
0.007815057296266593,0.054291208017317794,-0.04398939730043234,0.04969987079435983,0.0011457818028866712,0.005293084622902921,0.00039525857729029933,-0.5703666988272703,-0.00979307537699425,0.003116632952453657,-0.009803521381195623,0.009338485960928676,0.5021270700251524,-0.0035629497958963425,1.2890625
0.4120245595817462,0.1885357781626855,-0.3987633651502799,-0.1850803233116859,0.012784576952416703,0.019664876378090876,-0.008926005636513822,-1.7989435759638817,-0.03660466656360342,0.010458119724501032,-0.03396604166965313,0.03401342965530907,1.778473749439509,0.0046420832553063516,1.296875
1.164784324185361,0.20969992607659338,-0.9093156229827869,-0.8792848754116178,0.028503124102385955,0.021570051288846433,-0.030740282642221395,-1.6415772420775272,-0.046125594393687346,0.00855535740659961,-0.0397399763549045,0.04518257536085703,2.03559157217588,0.034437515825922554,1.3046875
1.044484952247948,0.10110112846518093,-0.757379331151032,-0.8852831629344893,0.023252929174003394,0.009837400729740235,-0.02929683320357739,-0.543388734143434,-0.026022546953888052,0.001703185845956481,-0.020780865054411072,0.02739509901597355,1.0197884652246465,0.03626097753954878,1.3125
0.4241114819335149,-0.007608024086060662,-0.27498196032533484,-0.41368339296012974,0.007911966669625948,-0.0016466701261848122,-0.013064444254450452,0.3004756087560128,-0.0020577727296292305,-0.0029326526698165096,-0.00037382608225275176,0.004289446598665793,-0.03776933499699341,0.01738810499511214,1.3203125
0.3298378086950576,-0.057745040460095744,-0.1797070627008698,-0.37917256671568006,0.004661816231004379,-0.007045948877697296,-0.011180406815654723,0.7871358507106928,0.007523103060474093,-0.005921921393782043,0.00849364045414492,-0.004353235157130188,-0.5100993604592703,0.016692300000991228,1.328125
0.5848723378166237,-0.10270465194591556,-0.3187893796543748,-0.6727211575696282,0.00854855451946673,-0.012062685816910683,-0.019480781714508292,1.3969444900052854,0.013511503540642605,-0.010110683251055042,0.015474814968493414,-0.008491808871365917,-0.9058831190631045,0.030181468968029927,1.3359375
0.3010721402138901,-0.16063507032806995,-0.09127079289493657,-0.4653590547309937,0.0012493613972956224,-0.01819923481922653,-0.012163109868631774,1.8698140510129837,0.025933239194461416,-0.012781492150959577,0.02621517014382427,-0.02028125563480602,-1.4653291397817332,0.022049720271908924,1.34375
-0.6300089790916429,-0.17197922720751102,0.5347547261024701,0.41324204942016474,-0.01781416973868516,-0.018934265688018023,0.015078728408554665,1.514351419551998,0.0350926994529566,-0.009403528891200249,0.030817374269840735,-0.03183943959934323,-1.6457990697393028,-0.01597222085014836,1.3515625
-1.2896379847371324,-0.09957472143151928,0.9236957972778659,1.1250222067946036,-0.02915600975391141,-0.010721100471111245,0.03586974654147027,0.40441149428709366,0.027362560834365085,-0.0015457959426511895,0.020287174691797184,-0.027801319983352956,-1.0285383420400722,-0.04794975967427062,1.359375
-0.8145539941816614,0.016461039976496505,0.5294521176027196,0.7989572602552818,-0.01647796907602051,0.0016279120270434211,0.02401743436537965,-0.589961682614836,0.003204024309793659,0.0042196247328745926,-0.000964587886353435,-0.005122780010185638,0.08500922986938268,-0.03543572434015274,1.3671875
0.3657338416035699,0.1095890111995682,-0.3166474733412515,-0.22725194123635772,0.00977761872824317,0.011117850698933271,-0.009060713656293464,-0.9794609485656915,-0.0223204298263607,0.005289800890070632,-0.02030289813114532,0.021537319450631944,1.0436252796762133,0.007811147224061139,1.375
0.7988538931947385,0.15975850173256312,-0.6368609139797892,-0.5856995406603491,0.019822800377525873,0.01634104185476352,-0.020906781927402678,-1.293602434256502,-0.03451121447637839,0.006773434552073774,-0.030142116525023344,0.033767182896637715,1.5436819196433305,0.022627213086518064,1.3828125
-0.055749639120044193,0.1854567742836266,-0.08662740535260834,0.2605144249991286,0.0032834622779469714,0.019587077425371396,0.004780371480306281,-2.005047479466577,-0.03248446172913744,0.012328465164480822,-0.03210916767953333,0.02865479322764729,1.7125381280906473,-0.014546968346940942,1.390625
-1.0862616009157375,0.1584906482819854,0.6142797915566723,1.2155992762252639,-0.018183576620938047,0.017200909225414767,0.03468265598142843,-2.243695524396206,-0.019798360682699828,0.015082803702608576,-0.02454412041780059,0.013648830934870123,1.379071483351219,-0.055662869582484405,1.3984375
-1.3661703503910811,0.014647942798320268,0.895406879149844,1.322666577640022,-0.02765063969738513,0.0017211581677082956,0.04026272246084263,-0.8516478802487627,0.007775055107829522,0.006549874381744075,0.0009176821774739567,-0.01122006262574276,0.023568296819800612,-0.05819832749689675,1.40625
-1.2256241365608886,-0.1856799269013852,0.9366806087998321,0.9658063520151027,-0.03018399501142303,-0.020111056761878084,0.03239035937197647,1.3570912835970492,0.04209687349939311,-0.007690249589502686,0.03486311249298083,-0.040221008931545954,-1.8210082859633887,-0.03973109748562957,1.4140625
-0.6810024214814121,-0.24309872729646798,0.6154651177589552,0.3817049140536172,-0.020758824343734918,-0.026632761154811297,0.015264990595870505,2.247478580253785,0.048058283719080296,-0.014012868706490156,0.04315400025943914,-0.0431947371532451,-2.308768688480066,-0.013550557432179021,1.421875
0.9727046883810141,-0.0957812268371372,-0.5780834404459589,-1.036624178723402,0.016544540303940782,-0.011512723506399146,-0.03079719329297293,1.5211556102609862,0.00931889791787272,-0.01136013238865783,0.013182172845136257,-0.003335512513179609,-0.810237315472425,0.04571838694122127,1.4296875
2.888933803247757,0.046696664746442434,-1.9433855155643784,-2.711789343499426,0.05905586931605256,0.0029356258045705576,-0.08474354230328832,0.980858457351156,-0.0305858366288541,-0.010210581788494873,-0.016707049364904695,0.03852843799965668,0.6643955678022928,0.1161945280839333,1.4375
2.7545638579413962,0.013514139383603243,-1.833060809305324,-2.6194186843440908,0.05549438386579879,-0.0005995858907543644,-0.081449710575814,1.2658971024882817,-0.023698411288041444,-0.01187304430403051,-0.010635411666367122,0.032054627870323114,0.34596540235669626,0.1127127010769893,1.4453125
0.5570955405859279,-0.06358171813740712,-0.3265321300860547,-0.6016772502739912,0.009077757139697716,-0.007796339549741932,-0.018030796999568215,0.9647446328719053,0.0068047786828454035,-0.00733174347549543,0.008843204374024622,-0.0028122595832891857,-0.5456042539327031,0.026483361566030858,1.453125
-0.8189634760811014,0.011034302812154078,0.5345105018333199,0.7973779317396555,-0.016749133313249027,0.0010479972339633927,0.024011192194623554,-0.5344265741818207,0.004198317846312531,0.0038689705404707816,-2.962866979666058e-05,-0.005932227551805286,0.03486406705611855,-0.03519022156356712,1.4609375
-0.206936235105525,0.17681463660345786,0.018272286710766354,0.3945094092675756,-2.6009621269831636e-06,0.018726835553717784,0.009059335861449212,-1.9897032224972167,-0.029788711402007752,0.012416781733171954,-0.030194683227901864,0.02573123444457453,1.620181347248248,-0.020200911959769495,1.46875
0.17093466463319115,0.23158884491678342,-0.2674517022439777,0.09366204959776511,0.009093742271244836,0.024471057033921263,-0.0010626143863207106,-2.381154749850415,-0.042366393516629276,0.014461191180220429,-0.040658383355703966,0.038008862469590586,2.1578922206608855,-0.008048673151018178,1.4765625
-0.8563415301857736,0.12046579195418965,0.4888284821710862,0.95507509810267,-0.014589069587305162,0.012951070620656225,0.02721637872044749,-1.7215962280909336,-0.014840550537036153,0.011483329709801468,-0.01867738129947197,0.010261411018900508,1.0453466323819298,-0.04376050655392189,1.484375
-1.3428096367490105,-0.04652128697790494,0.9229792871999386,1.236581906701151,-0.02886099152927711,-0.004923401127057693,0.03849035255934997,-0.18887027540700516,0.018397123261896277,0.0022973906881168724,0.011336867050079781,-0.020252772448329442,-0.5408254400073444,-0.05342576353923815,1.4921875
-0.42132211047730234,-0.15204453153685324,0.3818643996977382,0.23611095925773923,-0.013069953343613345,-0.016879628647709064,0.009315355777047122,1.409251693184856,0.02995771037715248,-0.008983305388453515,0.026801194156649635,-0.026585155123248105,-1.4439986967676566,-0.008465525551297377,1.5
-0.32475064205822246,-0.15557972976096682,0.31855474521567234,0.13612936655620306,-0.01118796616722067,-0.017322581773084506,0.006377707249488673,1.4979210946287078,0.0298414321783296,-0.009661629810307703,0.02713258811626456,-0.026117906693137603,-1.4691906328900357,-0.004154785367017191,1.5078125
-1.9692424466581053,-0.1018257312599691,1.3712697415495336,1.7676506815579478,-0.042925838073330114,-0.010608891009377045,0.05592561008157339,0.08385274570114193,0.03298319618596406,0.001308702249553753,0.022603484967991156,-0.03528065326368762,-1.1041955401920214,-0.07576321532827508,1.515625
-2.60500707467547,-0.06129403389204053,1.7666430570843032,2.423645537636726,-0.054693711592231624,-0.0058620354881989065,0.07545937439135172,-0.6754424337536832,0.030707374489343922,0.006898596236639789,0.017465894664935068,-0.03580838670072784,-0.7799843818019009,-0.10479441419347058,1.5234375
-0.37732938562907753,-0.03166475449207965,0.2736713765566577,0.329396944771684,-0.008978742166273536,-0.003826920333626116,0.010239839616434123,0.14522161935333677,0.008353090142294892,-0.0009941466028183328,0.006037496712398291,-0.007816461083394038,-0.32539947638893874,-0.014386820652072417,1.53125
2.3555079739196803,0.023616430467228614,-1.5727124745656993,-2.222946458664062,0.0476384562157953,0.0007185927468728756,-0.0694246522285064,0.9524937695862548,-0.022412498991948557,-0.009397536856692184,-0.011228726621414402,0.029396014503237956,0.4075649278511236,0.09545397135362177,1.5390625
2.7548068133178796,0.049536083706334035,-1.8565834861005486,-2.579426488594325,0.056404297273031215,0.003315491673815667,-0.08073315951683742,0.8820013075814991,-0.03005555263397357,-0.009419020436570117,-0.016811884882552756,0.03755117219763652,0.6799293808436394,0.1104849664173128,1.546875
1.4933353739377186,-0.010646301448216388,-0.982982229170098,-1.442579220681663,0.02934973577677033,-0.0025506921348150834,-0.044614714321544714,0.8806168449004118,-0.009724230040751413,-0.007900634081646105,-0.0028998845311150193,0.015108999603534156,0.020463477622407678,0.06207244466899342,1.5546875
0.7442595104850296,-0.032836235574236865,-0.47161436210362967,-0.7501313699261147,0.01362882795500993,-0.004556742011739444,-0.022941357212626228,0.7338552642048521,-4.7492236216186285e-05,-0.0060715395729911146,0.003039265882088671,0.0038474024783161165,-0.24550589609872261,0.03241191595294647,1.5625
0.7742034281972893,0.11860471847162332,-0.5911900213034871,-0.6080251313647681,0.018268977152961805,0.011882261972794487,-0.021047138462023766,-0.8678127326490978,-0.02704120838767294,0.004095227800859722,-0.02301057306222113,0.027208644128457353,1.160120271891275,0.024051003958268074,1.5703125
0.604148587238731,0.28471474508654043,-0.5897935597290915,-0.25983791625246333,0.019289261584119994,0.03001469399605269,-0.012939903638081398,-2.727063079322389,-0.055092493063628456,0.016141770573529148,-0.05100587715679226,0.05068360754660775,2.685317985016564,0.006519641280959306,1.578125
0.09079206377454954,0.198526983222994,-0.1934711792263242,0.13455729989376866,0.006643593086789522,0.020921560126593193,0.0006605971769768809,-2.069139594609785,-0.03592335494826935,0.012562068724811049,-0.03476553691653733,0.03214587767448936,1.8451579458119036,-0.009286631160577319,1.5859375
-0.4151071753217047,-0.06810192445171352,0.3198879405899986,0.321783874863389,-0.010700166276007355,-0.007770093777814087,0.010683755347912183,0.5171047083184552,0.015077252404783536,-0.003310877436283782,0.012390788544677546,-0.013757009379276158,-0.6660124438842061,-0.013437350866061517,1.59375
-1.0908757553030763,-0.1995718916089982,0.8568862909027865,0.822961103780258,-0.027867330395155158,-0.021684408444412738,0.028174583106906886,1.5735342834669703,0.04350351226422651,-0.009234892788845527,0.03685758201557586,-0.04087195021411319,-1.938516149313514,-0.033230026230279264,1.6015625
-1.9798100229968716,-0.12815124519684148,1.3990952724670689,1.7533436930859279,-0.04387999518227127,-0.013450617636654947,0.055695658508660505,0.3564506070053109,0.03771607568178924,-0.0004202175643551091,0.0271472604521085,-0.03937992399198083,-1.3486697403965309,-0.07469130581740466,1.609375
-2.2663042778186617,-0.061149362974488405,1.5440535808829625,2.101463464650473,-0.04783385066034353,-0.006025907034671979,0.06540158615092437,-0.5046487860687168,0.02807943215059146,0.00540907572723197,0.016480150756413115,-0.032240092004185525,-0.7513720961291019,-0.09084993551085356,1.6171875
-1.272701479302038,-0.07142646403431441,0.8921947246188228,1.1388898782193653,-0.028063210917043793,-0.007677470688931691,0.03595813875612709,0.1136102167940934,0.022263053283340075,0.00028731773180231535,0.015412787136066515,-0.023351694939119934,-0.766475186876789,-0.04895797492941568,1.625
0.34476892532841735,-0.041701715390053844,-0.1993084789240481,-0.3752886400110545,0.005308232432978513,-0.00530814963819295,-0.011159519091599658,0.6236268860630199,0.004586310351440338,-0.004889693032803275,0.0057034027901044495,-0.0017507016042563445,-0.36008754132669785,0.016334482509218318,1.6328125
1.1658590828247923,0.0241551034933494,-0.7865521510478359,-1.086845584182526,0.023585261122423557,0.0014143036380298726,-0.03417332057442364,0.3403767740961436,-0.013355040285110774,-0.004063556952049229,-0.007932388926568576,0.01696187329414938,0.31679796605598787,0.04625614786033161,1.640625
0.6678854503672436,0.006243614650504847,-0.4440000853359541,-0.630224625784881,0.013084619113127192,-0.0002660498848621126,-0.019870521466208282,0.2766021900579729,-0.006361845340732118,-0.0030634451127246843,-0.003441358865555858,0.008975809747737998,0.11052038552423081,0.02666146347601677,1.6484375
-0.1611347268707526,-0.04251080658347111,0.13649841526920253,0.10724366235979657,-0.00486649352546613,-0.005128247955211851,0.0036240830425606353,0.37359920338747515,0.00861658951970538,-0.002696801426402555,0.0072828931003779615,-0.007212930427858704,-0.4085945689382227,-0.0046732761484951,1.65625
-0.08700950195507055,0.03217619616018413,0.03433637329550173,0.11742680325430883,-0.00133184261719625,0.002939693118798613,0.0027753751271770875,-0.38419795861053396,-0.005164626612726947,0.002034684108529535,-0.005737731103001725,0.004952848352929986,0.2892907812979738,-0.006187865398379207,1.6640625
0.8368097812284153,0.14556111641825073,-0.6550992989677932,-0.640330452808204,0.020307959199498155,0.014769400143005353,-0.022416122827727425,-1.121501152076494,-0.03230974664653469,0.005624644147606433,-0.0278191538029448,0.032007783568861414,1.4148963314047738,0.025113812223038587,1.671875
1.5550133766134873,0.07101441700254241,-1.0791963306417114,-1.4082733839361297,0.032767862611943734,0.00629843951571407,-0.045013203296676865,0.03978684015868948,-0.024654853693106753,-0.0026296587569193002,-0.017086619658281108,0.028259249063544965,0.7825954859585984,0.059562042586850224,1.6796875
1.5235256887889355,-0.11701606365541825,-0.929872711104329,-1.586059325407021,0.02712201791820732,-0.01411001742161552,-0.04756059678932528,2.028879655826851,0.00882295789943967,-0.01526072256182209,0.015249068324492656,-0.0007349837406473445,-0.9623384219228144,0.06994555681376907,1.6875
0.9685902245503151,-0.09793986679328924,-0.5744867791548135,-1.0349724899434214,0.016461787531236123,-0.011751145876481397,-0.03077114371777661,1.5421304729425072,0.009727221551622568,-0.011493906456857718,0.013567752674415672,-0.0037433177445250266,-0.8309395181709833,0.045651927766517005,1.6953125
-0.017888250244289913,0.13944123716710727,-0.08048683088043818,0.17220776822980885,0.002868136518658193,0.014558059948927182,0.002824979271303349,-1.49421915058406,-0.024632729770920427,0.009032419949537183,-0.024319853999588394,0.021976225867589926,1.2887114125211285,-0.010158187632491543,1.703125
-1.2537629397505716,0.22376021774365762,0.6823290122992691,1.4500393341542106,-0.019883227026473865,0.024385448076318966,0.040901789614687066,-3.0263124365727987,-0.030035419452536512,0.02027281699736625,-0.03525734120794864,0.02181616213801812,1.9705246255498765,-0.06667622477405272,1.7109375
-1.6874066084098138,0.007406590494825988,1.115664375211798,1.625642108993121,-0.03443096767433546,0.0011213050753464658,0.049662664976224805,-0.9407778302737118,0.011525240532315927,0.007503966424948704,0.003073455020472894,-0.015668295449771375,-0.068922897921926,-0.07107606166646512,1.71875
-0.6787291461821464,-0.18197513709181545,0.5743362122375726,0.44875366136538375,-0.019093683947932222,-0.019995195044546304,0.01634497877173629,1.5954115408462446,0.037239729527834525,-0.009860948639991164,0.03267295241661168,-0.033891715594887906,-1.7425122717202541,-0.017376541176648188,1.7265625
0.3429362937390412,-0.08749966039755522,-0.16660757848703317,-0.425037260467461,0.0040804890226983125,-0.010286101779436627,-0.012055579221727385,1.1102740437824272,0.012697896528585145,-0.0079920077561807,0.01356542062972966,-0.008777783393446316,-0.7850125256957453,0.01903605709170301,1.734375
-0.2694052015722332,0.08378079371250104,0.12374536610960851,0.3522698388638062,-0.0037071511251814235,0.008649028393832834,0.009206059787236076,-1.030242155102649,-0.012864380355068537,0.00637485182929908,-0.014059073358389691,0.010852578684427011,0.7526790859406025,-0.017119011208608263,1.7421875
-1.4223388051810144,0.056919556927241814,0.9048532691698811,1.4264617801934685,-0.02769744537749179,0.006354052948652535,0.04271788043962567,-1.3329252066335504,0.0007326084928588299,0.009677987032148058,-0.006173984171619282,-0.005335877913638356,0.41115364619124956,-0.0631853011632437,1.75
-0.8423154451725465,-0.0744272161430249,0.6070239620153822,0.7234195847729641,-0.01947907436379277,-0.008224183845279422,0.02312495158169333,0.36647415003704065,0.019475605690427177,-0.0018416919594938833,0.014688508350003696,-0.01918229049479762,-0.7587843930995977,-0.030751376802804813,1.7578125
0.9348878760943069,-0.07802753347207178,-0.5693132730596364,-0.9839797562991068,0.016313474981382373,-0.009571340542105016,-0.029409647586441278,1.3150811192781946,0.006452534565094717,-0.010005479525503862,0.010240816465144551,-0.0010105439368869105,-0.6487955055370107,0.04327054569826975,1.765625
1.2855054966252248,0.017388949118841517,-0.8649710182443354,-1.2132214864023343,0.025933618576903874,0.0006045120069960158,-0.037962603708267914,0.47595536460317817,-0.013098202910712366,-0.005077509879124084,-0.007115775785192196,0.017184560122467687,0.26340518437108096,0.051759119741794445,1.7734375
-0.10047917569445233,0.01866116816979236,0.05442698960046593,0.11736219659469423,-0.0020204479851752225,0.0014887434558365992,0.0030032925497099944,-0.24795667120045148,-0.0026676466278877458,0.0011878260336287444,-0.00338304383099529,0.0027681054792091926,0.1633364121981063,-0.0059527680479720315,1.78125
-0.8539646653198277,-0.09558384603277675,0.631469224239349,0.7134697667639817,-0.020276867254615555,-0.010514646255016646,0.02312013657736614,0.5849428925854379,0.023310463175635877,-0.0032195529366094975,0.018351465203912693,-0.02255185211477999,-0.955861956799324,-0.030098623384189567,1.7890625
0.058873906472892985,-0.1541266171100219,0.06554502576028175,-0.2255370927127234,-0.0034045016175347984,-0.017364279562892257,-0.004951641804475979,1.6768526261285104,0.0266373025164662,-0.011264960415189349,0.02578800966225592,-0.021843684503464137,-1.424594572153495,0.011493747114389637,1.796875
1.0552756038803144,-0.05976101518878496,-0.6585396021059197,-1.0753607645803982,0.01920943477480959,-0.007650370899090832,-0.03262891881174457,1.1797238040228393,0.0023063408409391127,-0.009286656884221908,0.006771991192257527,0.003005696111539844,-0.47003146011529806,0.046957516654303366,1.8046875
0.9262951653686472,0.08416095095916026,-0.6690246569697871,-0.7919481306063617,0.02039661517679858,0.008053241800106298,-0.026104264899820064,-0.42265902930443516,-0.022125068859145284,0.0010767325474462363,-0.017533934714226977,0.02354437925757345,0.8529223575938735,0.03254258409424954,1.8125
0.4444710154006039,0.15238580649631825,-0.39411914651230107,-0.25386194428926556,0.012455083074002601,0.015727103759210617,-0.010563455896481461,-1.3978962917716717,-0.030468333435412005,0.007866207397401863,-0.027858715888372302,0.028857744281621127,1.4462840299926278,0.008187230206738463,1.8203125
0.5105247146361791,0.16890564522491278,-0.44845592700756787,-0.2981424729496685,0.014252439818754353,0.017488587082020148,-0.01222757163196993,-1.5403749229864088,-0.03389591727179044,0.008693945956416118,-0.030881448509248604,0.03207468556752308,1.6048100652550503,0.00983681795630659,1.828125
0.7132483101273808,0.17983885722511808,-0.5917172119646753,-0.48136690713525576,0.018700702434933675,0.018562720490088565,-0.018080881714494144,-1.5523313625412594,-0.037396983057170444,0.008524187602283684,-0.033335057852006716,0.035868474121418845,1.7223429852208616,0.017608271061766625,1.8359375
0.3047017157492877,0.09745433202506389,-0.2685008612630646,-0.1844770255683024,0.008299885197437561,0.009824379287370004,-0.007587264001529453,-0.880793100941689,-0.019709723005526567,0.004731591541645872,-0.018046204904915257,0.019013893371383723,0.9258273469568107,0.005977400750736662,1.84375
-0.599811534651689,-0.10661543114821816,0.4665995660143572,0.4531921225722782,-0.015414964967726489,-0.011860574948918472,0.01535144669105727,0.8346316453753511,0.02330246374638704,-0.005114450658191114,0.019520009157951077,-0.021577524481680283,-1.0379417548881242,-0.01861816687685573,1.8515625
-1.2894480033073445,-0.2134605516102514,0.9973066825545016,0.9960988367862607,-0.032233513923685536,-0.02309141429970382,0.033773365011111466,1.6208547555351547,0.04749311626409174,-0.009295605779729479,0.03980643281837165,-0.045102496092240825,-2.0833865762085115,-0.04057911990976644,1.859375
-1.406877637353617,-0.07572844775070386,0.9858280524317936,1.2642139182490024,-0.03095740349185588,-0.008061426387417034,0.03982629184102606,0.08951782623673966,0.02406628322007689,0.000602627620146832,0.016530421743489683,-0.025383294402121413,-0.8167137402975448,-0.05428147357196179,1.8671875
-1.2197982718739948,0.07234980292067865,0.7629146429943326,1.2503222156411846,-0.02320629923734782,0.007921540721184167,0.037054098568026037,-1.3948794462601195,-0.0035420331246844455,0.009835865028520834,-0.009389463500939329,-0.0008861834079188065,0.5702140728758672,-0.05589381000157293,1.875
-1.010464481135659,-0.010150265624245852,0.676917668377452,0.9566143632674152,-0.021141544802060267,-0.0011580393093249817,0.029328390222636225,-0.4060345433451283,0.00941462133875294,0.00328452802950926,0.0041556161543064305,-0.011231874114379687,-0.17732922507108492,-0.04190512982219081,1.8828125
-0.5815631839626992,-0.14515430790577794,0.48139792641792656,0.3950788938807824,-0.016098324308773802,-0.01605207642899674,0.014157432882000954,1.254582493065177,0.02996977855107582,-0.007808784726042897,0.02607499573132672,-0.027231724689565348,-1.393327605810238,-0.015492644130339794,1.890625
0.28660977818278877,-0.0809355701977579,-0.13558445691660598,-0.363242765618675,0.0030800993722918356,-0.009532981377402596,-0.010266846817858274,1.012415687888189,0.011958018898259601,-0.0073017564890423626,0.01258845056672368,-0.008282712086238049,-0.727921770283076,0.016467889209543753,1.8984375
1.213286589211999,0.05977600659021656,-0.8415866016287099,-1.0923454067544571,0.025521259909195966,0.0052608474081043185,-0.03501600347439353,-0.015975811614271026,-0.020021842090603637,-0.0018535786570308625,-0.014175817766151434,0.022895840155160673,0.650682643747342,0.04594844203051793,1.90625
1.6070016044345514,0.07480645810975999,-1.1125559997509817,-1.452957431932751,0.033924361290364205,0.006677584909613777,-0.04638982173071244,0.02558249632830159,-0.02570865180283484,-0.0025890095331150558,-0.017873099470032294,0.029307748611568298,0.8214794516329575,0.061284606823262276,1.9140625
1.4097061758115883,0.04876803653599683,-0.9667119795392428,-1.2945941931241236,0.02929411669613258,0.003946324402569229,-0.04105572494443672,0.20364437781262756,-0.019598110390883206,-0.0034941297265898763,-0.01284807319397184,0.023253658437361477,0.5640597878828781,0.05480210117188034,1.921875
0.9863943550699148,0.06647657774270214,-0.6997242604358234,-0.8705178217842074,0.02120177971875873,0.006095529111947695,-0.028202738008212925,-0.2015207550727351,-0.019472270091453615,-0.00041252820716338465,-0.014680961885422759,0.021503792611179812,0.69402656746277,0.03621704216146137,1.9296875
0.5424491308160128,-0.007530332952505753,-0.35518593316236863,-0.5280198122103864,0.010236580697555665,-0.0017005615133823067,-0.01647506270076098,0.36069504709317646,-0.0029773005404996407,-0.003461926254265678,-0.0007276386790860871,0.00557921867229881,-0.027293311803027607,0.022459411348787612,1.9375
-0.004919480104940311,-0.16243149291235048,0.11290066863534615,-0.17668842199661414,-0.00492014134161897,-0.01823201503407448,-0.0032511590714512004,1.7333187497570748,0.0286028952183346,-0.011547790093667331,0.027393612079133173,-0.023776768518968462,-1.5067216442491091,0.009416084422331671,1.9453125
-0.6944509727616167,-0.12505352013165805,0.545001892766426,0.5249460873574258,-0.017805547545355335,-0.013807034859028832,0.01776904204718234,0.981691960581893,0.0272958202703434,-0.005935256282707411,0.02295404004457611,-0.025386924130420627,-1.2163872350568008,-0.021601062370443756,1.953125
-1.2535679317102433,0.1359501107812422,0.7399613328520689,1.3518903896800496,-0.022153648883054555,0.014841683156557555,0.03917838149909217,-2.089793843442636,-0.014528785614581922,0.014297114142538384,-0.020200859281438853,0.008431356654597861,1.1565709943156641,-0.06119745404580781,1.9609375
-1.2832340807998281,0.25862319030769293,0.6776359160497838,1.5185886342587025,-0.019544220107914304,0.028187543577644553,0.04239943280801692,-3.4147140473284137,-0.035977528012825465,0.02277278312878456,-0.041150139262373625,0.026808940328594426,2.2909710332691473,-0.07010416476312781,1.96875
-0.7873580704953901,0.060921499078374255,0.4823822889133353,0.8239555164631935,-0.014832179402521517,0.006450791164464687,0.024076086325111684,-1.0517349712263695,-0.00485087662012044,0.007130644658161795,-0.008667850249706892,0.0019643493495999516,0.4994690371228315,-0.03709346503888313,1.9765625
-0.22862697210353147,-0.15959809457208046,0.26003539892921773,0.04188129214106954,-0.009403102082042364,-0.017805600147324595,0.0034336921231613604,1.5876756673425394,0.02982821934800134,-0.010347022335429308,0.02755019867149666,-0.025725560487190356,-1.4987097140142682,-6.483780794594228e-05,1.984375
0.15136870495549173,-0.1006795639907192,-0.03143688783054426,-0.2571318773565506,-0.0001330846559823559,-0.011613563812831235,-0.006686477659785807,1.1537484996194012,0.016500504721812383,-0.00803575311815681,0.016368209084675275,-0.01278335375593833,-0.9223653912066098,0.011973746029394378,1.9921875
0.543891973757302,0.1149421421202488,-0.4353886404744507,-0.3912147234163567,0.013524457978618837,0.011601752301974001,-0.014216952508698961,-0.9467186955729875,-0.024622924491874792,0.0048731840518473225,-0.021720262210284978,0.02417818066034897,1.107240288625387,0.014683816812994509,2.0
0.8445522951198772,0.1727551095728821,-0.6729522361509472,-0.6132618717058812,0.02110902860190173,0.017727915143414395,-0.021998897992822255,-1.4100438989944801,-0.037159422793095684,0.007462546049381728,-0.03249417346742905,0.03619093458498265,1.6675687275568065,0.023549553696883888,2.0078125
0.6034180061282152,0.00024915545801985553,-0.3989320531369775,-0.5762164931006838,0.011652470873070898,-0.0008827048921969392,-0.01811110723638569,0.3084884394137673,-0.004826475504058935,-0.0031954092614216896,-0.0022331087578189453,0.007416132894987197,0.04991050678599487,0.024480022708453873,2.015625
-0.045338226459579564,-0.198564216668899,0.16246558646739698,-0.17937465416505505,-0.00670696563113272,-0.022140349791902162,-0.002669716188353129,2.099438278561737,0.03529636671668194,-0.013825238023498321,0.03370574177154329,-0.029710596234042222,-1.8448497815290068,0.010119884299890311,2.0234375
-0.41487578094536093,-0.2290815715981983,0.4279228026665712,0.1405292873011183,-0.01495635272779794,-0.025260846594992673,0.007674296243094064,2.235730916049404,0.04353144729592783,-0.014253405077996781,0.039993680737660804,-0.0382782794202382,-2.1577018557971255,-0.0033620443521477543,2.03125
-0.33448329288366196,-0.09896854673164492,0.2884155154824785,0.2111790553502772,-0.009859985413896566,-0.011164285041576443,0.007697043761679715,0.8871321407109475,0.01991419055778488,-0.005766656886378755,0.01745190535264574,-0.01760286525026548,-0.9454939108360833,-0.008314970902081133,2.0390625
-0.1941553933403969,0.04484349559809326,0.09853261550506373,0.23825422625301268,-0.003187805131434488,0.0043869961262085816,0.006184885706138036,-0.5758493935113089,-0.006586429298369908,0.00337942571266347,-0.007611685188568551,0.0058066775132746785,0.398606857195765,-0.011528181688355075,2.046875
-0.09533507590756815,0.08943142040911246,0.0019006960439207155,0.19182300312191336,-2.160115972366203e-06,0.009173857140358054,0.00408666512600004,-1.0001789665646508,-0.01522511149355319,0.0059667055708631,-0.015537073088934322,0.013628673880247761,0.8196318427006782,-0.010131762251937185,2.0546875
0.11770347936077839,0.05537772539331683,-0.1161235641699672,-0.05148601219578493,0.0033663968630048735,0.0053556369238625294,-0.0027991628542615617,-0.5278243317477874,-0.010835255029163,0.0027079702214792903,-0.010297309112985428,0.010645497947895982,0.5209473554085815,0.0008909515910359942,2.0625
0.40830528341108463,0.05445788669342478,-0.3061381332881541,-0.3300084554257433,0.009160392314230482,0.00510251089715889,-0.011351723548925488,-0.3706718622689145,-0.01289392813364277,0.001361419332389736,-0.010962494356814144,0.013545587460643287,0.5357645514156422,0.01294236291394222,2.0703125
0.7106894721898473,0.13975969570672717,-0.5618850949881952,-0.522710936705934,0.017501029555938602,0.014214085592431501,-0.018669141388054065,-1.1271706128067194,-0.03028206106243607,0.005821253345204024,-0.02645202844029622,0.029732006318637972,1.3508074683228388,0.02003315752252117,2.078125
0.8614377720791739,0.19929090518007256,-0.7010290401236469,-0.599917892460233,0.02213635402061264,0.020602929292853914,-0.022012805229799277,-1.6849035481133343,-0.041957767368434935,0.009198950091994918,-0.037092289561654314,0.04039388407179912,1.9147934222758012,0.022494113026116386,2.0859375
0.35914891342482197,0.08696040407922416,-0.2938112957273613,-0.24523800418229572,0.009052527957927381,0.008663555584464225,-0.00930348195098534,-0.7421452449410798,-0.01825582760104872,0.003794913720462272,-0.01640057941113619,0.017988499353275674,0.8332835283250515,0.008739410632911768,2.09375
-0.7708693250704373,-0.13791475947314993,0.6032980261217602,0.5837579913926145,-0.019697153463761673,-0.015168281496578631,0.019825919817837268,1.0803213651200596,0.030151523500697386,-0.006470665077579219,0.025377634903512542,-0.02815903482939239,-1.3418405493834964,-0.023900528818433915,2.1015625
-1.3866010105138176,-0.2646182137801937,1.0942882951537716,1.0304129153769164,-0.03549504468438729,-0.028604691499793125,0.035621268771825046,2.117874232937257,0.05726517823555621,-0.012350008851701517,0.04885492931240632,-0.05391585118328313,-2.565531172385195,-0.04136523987402668,2.109375
-0.7751120511980122,-0.22684946902390413,0.6647589020803609,0.4878345845747543,-0.022186534111796757,-0.02482311127666826,0.018287087459711474,2.0273538520387753,0.0458968230559977,-0.012500166251171898,0.04063472836138375,-0.041700724606463305,-2.1659260966403333,-0.01836983707133498,2.1171875
0.09152921797336434,-0.13027783297176782,0.02861246977144806,-0.23186258594920034,-0.002152993783363101,-0.014790000615812668,-0.00547345999835768,1.4392218119019293,0.022180519368147432,-0.009781134205569964,0.021609211598998007,-0.017874829547211903,-1.201014750502562,0.011395619904451176,2.125
0.10996112624600413,-0.007536542318571227,-0.0650614944162955,-0.1115560420846142,0.0015032574410104988,-0.0014673277555028136,-0.003713395751936723,0.13842255856437383,0.00035097949916362684,-0.0015162175908248997,0.0005149929509203855,0.0009789056862310778,-0.06243174971471304,0.004359930120211465,2.1328125
-0.29026215764361635,0.17571325501145338,0.07507066626738775,0.4747713858610949,-0.0016710635274269174,0.018648578445245634,0.011543768303669523,-2.0212032531358846,-0.028958595292155716,0.01271166216910296,-0.02976543770516767,0.02465385591366489,1.6029863039523684,-0.023717541314496125,2.140625
-0.12185321303120436,0.30612672140488495,-0.12551543339418647,0.4581067310290463,0.005176119624465413,0.032726184059226476,0.009045199265442562,-3.32646737827242,-0.053297014001675996,0.020819218795519973,-0.05261019801440055,0.04630708863295639,2.825061020441867,-0.024854709989629492,2.1484375
0.6772374259978894,0.23317990291120852,-0.6041579585254154,-0.38644832907422877,0.019309372925721813,0.02438217127704036,-0.015885904570354378,-2.140612146864861,-0.046542200778334764,0.012311428816102211,-0.04238083062226233,0.043641743085499354,2.2139546828028056,0.012839830565530784,2.15625
1.3360236930171072,0.04423144279813363,-0.9110542291978573,-1.2253327262122116,0.027572494279939394,0.0035088432573981256,-0.038895000168105535,0.211171114729039,-0.018215238101424686,-0.003452971014193026,-0.011857603664531558,0.021805326770493266,0.5164647337433074,0.05192703960180084,2.1640625
0.9515313689571094,-0.07321046999803113,-0.578052168218058,-0.9889356078867985,0.016753882985413894,-0.009049560858451457,-0.029801659021591365,1.268473904142451,0.005485520719463792,-0.009727850225013624,0.00937678486617058,-0.0001519723597965773,-0.6030044892779938,0.043339091768150435,2.171875
-0.6051450528445046,-0.13209154783219662,0.48898720826623426,0.43178236404746195,-0.016168675439895232,-0.014624327283777392,0.015019778856116828,1.103081759941493,0.027845428657343036,-0.006817038967146121,0.02390591282371187,-0.025522889701748944,-1.2744840797893577,-0.017393540704279283,2.1796875
-1.7505659236738724,-0.20926785901452077,1.2970576407134706,1.4398174211974961,-0.04135112625068617,-0.022398271911560318,0.04740552788190813,1.3420711946422315,0.050283597970726915,-0.006973486641784094,0.0403983067479955,-0.049317119434187234,-2.081960235241051,-0.05990938739915346,2.1875
-0.5999293776237697,-0.1928615367132202,0.5250993648191927,0.3581612068555224,-0.017741436074936574,-0.021223741379301476,0.013752396189213019,1.754434950767092,0.03854426988976392,-0.010974432237062258,0.034304269944588246,-0.034668858231605856,-1.8367524380636102,-0.013223334974687346,2.1953125
1.7567449389230043,-0.0013947435732989495,-1.1618375221848587,-1.681904731757932,0.034907208684020266,-0.0016785281498766375,-0.0522689855408179,0.9153374356472567,-0.013397396010331415,-0.008441164841556641,-0.0052391713383549135,0.01931138293793641,0.1276860208957983,0.07236800669433383,2.203125
1.860081970981887,0.1516480555734632,-1.332101779405463,-1.6103824166613363,0.04109728917458036,0.014887788358261137,-0.052470759705500435,-0.6646486117480954,-0.04123226634646365,0.0015041390750084086,-0.03177038364337991,0.043666961469683636,1.5538133190833223,0.06695290670476348,2.2109375
-0.9094048870140012,0.06705317923721613,0.5585717425010122,0.9448905841329319,-0.01704340460459904,0.007172917963275967,0.027759561848397528,-1.177638364414776,-0.004996821861255804,0.008082180373096777,-0.00936937460631092,0.0015739812798176752,0.5461054942778786,-0.042579735916391574,2.21875
-2.7803758305839468,-0.07280189636399183,1.8913383130354073,2.5799699243518153,-0.0585712077792426,-0.007017402463160922,0.08043857946889693,-0.6423844781289969,0.0340972562276541,0.00690684620077753,0.019941633425604562,-0.039422968720023266,-0.9006881207520959,-0.11132721885095026,2.2265625
-1.1173177191192252,-0.006196645813850925,0.7447257911909321,1.0629884953850948,-0.023270566213598954,-0.0006652631910717621,0.03257055490519804,-0.5030106049439969,0.009547912108526246,0.0040314542608293445,0.0037773274157479097,-0.011718448272605564,-0.14893159538127534,-0.04648447186867468,2.234375
1.63034035644857,0.14242916005407472,-1.1756152926140127,-1.402018778276651,0.03616018033745357,0.014010135955771353,-0.04582485178466541,-0.683403130919302,-0.037830079241044756,0.0018986104433320436,-0.029538315456445304,0.03987189256668205,1.4500426720783495,0.05814249077863056,2.2421875
1.8735858090084843,0.0868546685873507,-1.298914586878626,-1.696869127558651,0.039630725863274666,0.007837234241507028,-0.054039039975589766,0.03399382781353429,-0.029879158078485357,-0.002962234203259853,-0.02069739564665564,0.03393319158322616,0.9543823372047632,0.07165117526618106,2.25
0.0026030572806481486,-0.09966117696544925,0.06757973160544072,-0.11133220306436943,-0.003095997378954785,-0.011422964471423892,-0.0022228132545993023,1.0660884929795542,0.017453776589068465,-0.007304437903816274,0.016620340003814568,-0.014208999013874802,-0.9250335016033117,0.005667199824564379,2.2578125
-1.0939620233080924,-0.10533934762388382,0.7986591563089468,0.9341434988352197,-0.02541167228087665,-0.011446154035796905,0.03006784099153055,0.5649952072096042,0.02687848969883155,-0.002805082079419536,0.020716860208945365,-0.026600865779109254,-1.065874242763022,-0.03946336212865268,2.265625
-0.5555493205494502,0.07585772128182379,0.31878230297283816,0.6189425112635903,-0.009732535219340284,0.00795137851339497,0.017516392945920174,-1.0921174050974014,-0.009277832252576154,0.007107929857465362,-0.011891377102067743,0.0066974773318736825,0.6567585542847179,-0.028412702084109002,2.2734375
0.08109419647448031,0.13621568836327047,-0.14501512041110215,0.07366938096181702,0.004742352359489827,0.014161255824495183,-0.00016950847957221185,-1.409478121518139,-0.024828706860613302,0.008369875974029009,-0.024054570166917876,0.022580411700506554,1.2671732647613851,-0.005751708696887618,2.28125
-0.14084997423514722,-0.026465122673547836,0.11174974459397405,0.1050023310814188,-0.004053196278587701,-0.0033960810147039646,0.0033668406793234827,0.21207719646226295,0.005628174839870276,-0.0016968767147373686,0.004475329172031936,-0.004562630385529509,-0.2584323806851476,-0.004821560164810938,2.2890625
-0.49716860421955145,-0.15816077050934205,0.43657555915939783,0.3015163191255035,-0.014742088565391878,-0.017507851678013477,0.01139372146605366,1.4340329820905344,0.031629740078341816,-0.00905952884508471,0.028069014350449173,-0.02835127561702065,-1.507304689994672,-0.011374063095397234,2.296875
-0.17414518054950723,-0.07392564904770829,0.16420694423148793,0.085940088878527,-0.005956645801236992,-0.00852641407091669,0.0033347459836662358,0.7015621753172391,0.014248087288251039,-0.004780255136310754,0.012696704856265157,-0.012065284552207138,-0.7002799866687577,-0.003155391533891853,2.3046875
0.5692073704745874,0.07704795130918633,-0.43108681554505157,-0.4595859832295619,0.013082206451430163,0.007473963122223598,-0.015809193811146482,-0.5272082208690638,-0.01814540599836803,0.0021637067559375756,-0.015310753780452898,0.018769561991056657,0.7587388104524783,0.018305758852718085,2.3125
1.0543745780543912,0.0882858773670234,-0.7584668703454494,-0.9118328288525316,0.02314533153709714,0.00843205863189681,-0.029813538794886536,-0.39897882617728697,-0.023846379896593335,0.0007734581362761958,-0.01861305213900723,0.025548887822815825,0.9017689088022065,0.037674431283845365,2.3203125
1.1439151780536205,0.006826833244932699,-0.7604163898929132,-1.0865963309971227,0.022732698865169897,-0.00046255507258343716,-0.03389115690658135,0.514561901022973,-0.010126535753642047,-0.005148436367558412,-0.004894446545989529,0.014055269675708517,0.15408204291127744,0.046401915344907924,2.328125
1.0237079240576261,0.0016940139725173866,-0.6765335487462367,-0.976111391911441,0.020152197576621195,-0.0009507726898083038,-0.03047510358065412,0.5073681975110572,-0.008295666302353519,-0.004956558338348187,-0.003673556064819579,0.01202164216867635,0.09703433814526882,0.04172802132363749,2.3359375
0.4337002720819039,0.06013323279982335,-0.32545257177188486,-0.34637577888529963,0.009826471377879026,0.005713911805310697,-0.012030025674917259,-0.41739379946881583,-0.014095898466064107,0.0016390474120987878,-0.012015668756320562,0.014719842530124162,0.5910202148763166,0.013604922549448333,2.34375
-0.9220312404783425,0.016908209432441073,0.6010286447519014,0.9023009946502991,-0.018647047332405412,0.0017372623811527529,0.027184606177866565,-0.649300140129008,0.003955933970423301,0.004731539918993684,-0.0007380232700424985,-0.006169030358998331,0.08073770722817673,-0.03993291981063269,2.3515625
-2.209931367299678,-0.14033072967375618,1.5581382591265323,1.9580246844698013,-0.048798403763993546,-0.014663163255597652,0.062274365642611955,0.36993207665437805,0.04163606375471236,-0.00022962447467011395,0.029896323089331052,-0.0437075744077687,-1.480612072625221,-0.08343839409835878,2.359375
-2.0329121488662913,-0.2035914281836117,1.4812052767556194,1.716356284174218,-0.046911902302048385,-0.021631848047858206,0.05584586920334161,1.135977299540499,0.051453319034374737,-0.005324940999228026,0.040235765968315206,-0.05145932031649166,-2.0524712387689443,-0.07201123498607147,2.3671875
-0.5086682401418551,-0.055589660736556024,0.3725741712233554,0.42321573623422626,-0.012248450528026977,-0.006363045444149405,0.013637277331251176,0.3360746625290197,0.013593427811362163,-0.002048167193708436,0.010510530559624467,-0.012831057056565528,-0.5576960834017307,-0.018093675071301243,2.375
0.6780673769724049,0.12958181526693668,-0.5345042680703816,-0.5031840108121661,0.016592278147342748,0.013124415315327785,-0.017862995858275096,-1.034307829505102,-0.028235339218967988,0.005268320223709611,-0.02461939683574893,0.02786452493894284,1.2540202524018227,0.019307889143244786,2.3828125
0.723010206281022,0.13644409313313963,-0.5669096554564055,-0.5367532346802278,0.01768884204472821,0.013845483263020314,-0.0190448846635013,-1.085557529643023,-0.029790956305559106,0.005542648498204087,-0.025918454383689095,0.029352390342147757,1.321028514721503,0.020616274070061728,2.390625
0.5120314235987795,0.018888194109340867,-0.3500452158404392,-0.46662952486347264,0.010330605168057946,0.0011847284641648055,-0.015077354898820049,0.06148442548361678,-0.007408631361998645,-0.001514329978602252,-0.005160899969898986,0.009228196399324873,0.21466405743139141,0.019366546631272265,2.3984375
0.6699607342740976,-0.015833057547592528,-0.43355511018364706,-0.6573389223185713,0.012582991478728971,-0.0026692144870681554,-0.020434065027365476,0.5134203678670624,-0.002496469369108736,-0.004584336994041039,0.0003365740980186188,0.005643532217553006,-0.09402069409688077,0.028267679405943755,2.40625
0.693610026616877,0.0647689448871899,-0.502443481735372,-0.5895661520017036,0.015170166230141726,0.006080505614219561,-0.019619140578121606,-0.3351099686728323,-0.016917531559531827,0.0007922265690828847,-0.013553811025157906,0.018192357011162116,0.6549891582136633,0.024161519964866807,2.4140625
0.2892984369578398,0.09947237989773183,-0.2558127127782483,-0.16361874927227363,0.00794922265510644,0.010067276307089047,-0.00704180001582835,-0.9127638569947215,-0.01993769022655838,0.004955783460515699,-0.018348428426854652,0.01919760087392349,0.9437533464289594,0.005067949782776687,2.421875
-0.19966431705652146,0.009101251042813755,0.12830574320554414,0.20230212695093613,-0.004256334986663878,0.0005037235117925,0.005677010908970777,-0.19752867335156832,-0.00021640616967193586,0.000984359824985519,-0.0014562914987504567,0.00025004030654934443,0.06657304585161092,-0.009557983650078082,2.4296875
-0.6185718183994379,-0.09422298724015424,0.47251540129117703,0.48640776689874343,-0.015429608209536533,-0.010503786164042793,0.016135820282615128,0.6924753205890436,0.021252914815388355,-0.0041843572243533645,0.017451916817620466,-0.019902400983379826,-0.924712145908044,-0.020306796499610022,2.4375
-0.7103166345788873,-0.10303621606721079,0.5380362952910144,0.5642713702433994,-0.017566653340189413,-0.011410244723983162,0.018753290089145926,0.7400363979704415,0.0235174425763896,-0.004376380619184222,0.019220446158558193,-0.02218583530605357,-1.013523388742837,-0.023448036507041466,2.4453125
0.2061466638300239,-0.05456107522089163,-0.0999063515479423,-0.2576108642153647,0.002157004593179468,-0.006626930011846085,-0.007359786099117227,0.6904914460500969,0.007917354321257014,-0.00515258891304505,0.008296055411897284,-0.0051274036732526125,-0.4900912841090377,0.011488512941962592,2.453125
1.7145591256703707,-0.001928974892989372,-1.1325538444591912,-1.641935097171351,0.034009627135617795,-0.0017134344306027037,-0.050947763881500144,0.8996082988649658,-0.012970843088333758,-0.008284199914966239,-0.005024745306990894,0.018772331240692157,0.11936124851953683,0.07064639825211798,2.4609375
1.8944882050999345,0.07727989309872128,-1.3052545865676632,-1.726626862349336,0.03980990818791212,0.006789410346125916,-0.05483438464148727,0.14687160270719057,-0.028351585026363965,-0.003705299703169842,-0.019116621159467464,0.03270262137593603,0.8675251270143319,0.07307307532410097,2.46875
0.09753095870704828,0.13336365432814906,-0.1540141211436826,0.05487000296821976,0.005061376929474937,0.01383713911695024,-0.0007366466950364259,-1.3700584027007665,-0.024453219754153457,0.008100463631105677,-0.02361142091001351,0.02229336879835466,1.2418484400020882,-0.00497897523521739,2.4765625
-1.6570888764595375,0.02470721064790096,1.0808430601773638,1.6135710070733271,-0.03328180273543097,0.0029737105301405986,0.04906789163232161,-1.1083755106272355,0.00823231805615689,0.008527803236309514,1.8694519153124398e-05,-0.012725727393960804,0.09349077645675051,-0.07088300226351552,2.484375
-1.737593905290739,-0.19584266892794722,1.2827247209796209,1.4454890645959582,-0.04081758360840178,-0.02093649710117179,0.04731745596074725,1.2032410931257578,0.04782454318877712,-0.006098741586843934,0.03806338153523112,-0.04713345442082236,-1.9562900202681353,-0.06030424520053834,2.4921875
-1.2591429535637417,-0.24244170307186816,0.9973784410178074,0.9349189585105055,-0.03239246030850478,-0.02625428021898671,0.03226771767908121,1.9451417842921441,0.05238425010440087,-0.011393238732068963,0.04469127298096531,-0.049194805249676836,-2.3494552922917435,-0.037521346856729414,2.5
-1.5154745214743868,-0.03100496555642603,1.0259388317787264,1.415280973653179,-0.03191091504259305,-0.0031529077799727833,0.04377035788281263,-0.44227423250665626,0.016995122571080115,0.0041199592202279004,0.009172749795006442,-0.01974044273895977,-0.41142189116110084,-0.06153123745955625,2.5078125
-1.3276124672845522,0.1709929060999384,0.7671191921997867,1.462262488314417,-0.022745664615511838,0.018689715758713754,0.04205768828742575,-2.5024808168679953,-0.02014620238530184,0.017014087324283327,-0.02599550210037331,0.012981200744403981,1.475230474803568,-0.06653843114984204,2.515625
0.6436195290266898,0.19597099310516491,-0.5558831263608562,-0.3944730695485522,0.01768878961245605,0.020354331952481073,-0.015631534455170352,-1.7611204882398515,-0.03972184673420269,0.009931462025626402,-0.03590236082426606,0.03760212730807933,1.8662203015550496,0.013691425413203732,2.5234375
2.7854264089972283,0.17179493495270437,-1.961176656892895,-2.472176311570544,0.060284674556134676,0.016584910567197835,-0.07936221656735605,-0.40654995050287296,-0.051919811019331234,-0.0012573249389343374,-0.03787049277126032,0.056544326871838003,1.815566319521051,0.10420098471919773,2.53125
2.502789884567118,0.1359448111280342,-1.7512258756279373,-2.2440315181108574,0.053645907740118695,0.012837171769193127,-0.07172892267987914,-0.16757816653967061,-0.043406227290933234,-0.0024384247687537553,-0.030917913433666507,0.04809367436536208,1.4604113448728115,0.0947763930105697,2.5390625
0.31392080546724344,-0.0443489339068229,-0.17763893577167886,-0.34979934564841914,0.004656377505769795,-0.00558063754115551,-0.01041352787589294,0.635941283134096,0.005291229501950073,-0.0049361379691930055,0.006243549866745733,-0.002482502015151484,-0.3872703507347513,0.015174637382398699,2.546875
-0.8182830346218849,-0.2649533281174988,0.723460202451829,0.4904713416982899,-0.024094960034924267,-0.028935241590882916,0.018974578887938534,2.4097342396912094,0.05298122343761693,-0.014878939880790787,0.04729983862993536,-0.04801559683320248,-2.5226468694769237,-0.018043328533756953,2.5546875
0.0016256080763827696,-0.24217134912652827,0.16415466049419805,-0.26845221343395315,-0.006936796250733561,-0.026894478018996498,-0.004830405102389376,2.58676350891251,0.04264538111739415,-0.016986195525742636,0.04104983611097817,-0.03586106244518819,-2.244896399467323,0.01461587126114982,2.5625
0.5518794954763604,-0.01968963748794852,-0.35274742869372666,-0.5498561521639007,0.01011835030031867,-0.0030241508549385307,-0.017009521278847757,0.49588020896513485,-0.0009064210835124943,-0.0043262904179619055,0.0013296012583283068,0.003833482345250267,-0.13899143825670718,0.02362317428834588,2.5703125
-0.5384699119327193,0.09734967779763343,0.29020060132623254,0.6219665599289729,-0.008772419095336112,0.01026578469982909,0.017345127645311754,-1.3105517441684607,-0.013204959987066717,0.008482346708936354,-0.015624087512958549,0.010124675123727736,0.8569086501809058,-0.028918480814954052,2.578125
-1.520143765232532,0.04834936656149515,0.9751313973100604,1.5076198477956073,-0.02992287681816822,0.005467624559163905,0.045457167169971974,-1.291179905769919,0.0030063321567218256,0.00953161896492215,-0.004417367773284724,-0.0077119904702785584,0.3233382614890844,-0.06663664828455884,2.5859375
-0.5959816747236997,-0.0027562424306740727,0.3985156583327355,0.5681898175429879,-0.012645670569952477,-0.0005710917738504929,0.01722036726036846,-0.2740071101129696,0.004932753305306656,0.0019483692764749457,0.0017077465242343244,-0.005726777590498878,-0.07522749393428102,-0.02515023363102131,2.59375
0.9932966809209378,-0.011556581310467372,-0.648592328387179,-0.9615511591209135,0.01922985752855906,-0.0023724105998909908,-0.029920565883939806,0.633183079396089,-0.005737792082920838,-0.0057289189448897805,-0.001320605033259084,0.009719017182766238,-0.028037578143346127,0.04131821395128076,2.6015625
0.9803712971185117,0.002498571296157583,-0.6502395551165547,-0.9338226156328636,0.019387730121488415,-0.0008428451575878492,-0.02928905398768999,0.4772245095792368,-0.008129139618762719,-0.004721405394820757,-0.003693915870460193,0.01171184849409841,0.1010146353380198,0.039892147825740125,2.609375
-0.36632154545548073,0.08400244312420499,0.1861453158943061,0.4446419686930564,-0.005619737295511464,0.008723570525006899,0.012058977785973821,-1.0810666116558307,-0.012176069472165318,0.006810025350577141,-0.01382586075612139,0.009895174777831015,0.7470341983299591,-0.02108723430627151,2.6171875
-0.9198455173481722,0.1617551593642129,0.4998611770570271,1.0601100401822665,-0.014760715202988106,0.01746473801897167,0.029906635189539114,-2.1939386988360607,-0.02165021095903528,0.014557936319838368,-0.025579588824283194,0.01589937170108048,1.4226985942699226,-0.04889792083926519,2.625
-0.10944577721543722,0.08406849530940064,0.016025398667340787,0.19859513619170427,-0.0005062700548719193,0.008599163092057896,0.004496883396782652,-0.9508346375968592,-0.014143721141427392,0.00567490290526023,-0.014572425565825822,0.01263773925100849,0.7686774695068809,-0.010396131813079926,2.6328125
0.518279398143137,-0.0693265996751648,-0.2947430771879828,-0.5715855355202668,0.008088930409433015,-0.008394314414671561,-0.01696637922807656,1.0066035030375626,0.008138298932571932,-0.007537217615172039,0.009940091664697828,-0.004099845520740673,-0.6017251832310747,0.025208173391588012,2.640625
0.03169742341388211,-0.10129776031865857,0.04945986272514374,-0.14146092174487965,-0.002542033246819516,-0.011611228672740144,-0.003209090909152763,1.0989833274667906,0.017522631338980972,-0.007544020925525839,0.016812540766659164,-0.014123569380465127,-0.9375087256897425,0.006979815664582822,2.6484375
-0.6296350819342211,-0.06234431967488156,0.45908736947126505,0.5332171262902455,-0.014829690599872197,-0.007034148351211056,0.017085706057853943,0.34576611144889513,0.015714122427518993,-0.001963661625941156,0.012018759649122286,-0.015171134996762849,-0.630289626567314,-0.02282777323732397,2.65625
-0.5532729174619665,-0.08627896042728887,0.42276903842945146,0.4326178165983405,-0.01395579463808265,-0.009674730474631292,0.01442378703540595,0.6404895901310118,0.01935351237654245,-0.003937524801874929,0.015900645277499115,-0.017978669740861576,-0.8457414311079156,-0.01804253336369888,2.6640625
-0.20632928364943795,-0.06667630976514811,0.18139263883625598,0.12365322837419497,-0.006488101524015082,-0.007722322653425974,0.004562427386375045,0.6080183053390578,0.013231494838222155,-0.004140269338620942,0.01154916878114166,-0.011314040635881418,-0.6357399154869998,-0.004903170523963959,2.671875
-0.1609820427010853,0.07794507084959425,0.0571567266342799,0.24269614806087966,-0.0017362154577335606,0.007967132909890312,0.00592479567237702,-0.9127928062816554,-0.012662213438856089,0.005501006620587708,-0.013371823198498426,0.011156050120501757,0.7078730132438616,-0.012246833957158847,2.6796875
-0.06716126565987196,0.12291692252914586,-0.03519977144877393,0.20249426987778468,0.0014066107416500287,0.012795436244833895,0.003972531171989352,-1.3443137242332335,-0.021335246254763546,0.008137625041132869,-0.021345404508974066,0.018953876971903504,1.1317517357123357,-0.011225556664117554,2.6875
0.33710083134582697,-0.061134216231598176,-0.18234760971169725,-0.39067528169532995,0.004714983110233991,-0.007420158195361678,-0.011442556325044687,0.8275245314097631,0.008062781090878886,-0.006186252043298698,0.009056644608496143,-0.004794434526342832,-0.5410092150704378,0.01724466883560662,2.6953125
0.6995519597432179,-0.18705214432925446,-0.339477777337453,-0.8776906722257501,0.008653788784473879,-0.021288040176902754,-0.024517444291008675,2.3567742672003384,0.02751955897353111,-0.016362899376511277,0.02960706114619489,-0.020098646085350634,-1.678051502536655,0.040329725414567634,2.703125
1.0203585632672165,-0.024010389520654648,-0.6593796510143818,-1.0016597100836073,0.01940565539047853,-0.003740051058584868,-0.030924848299625975,0.7799178333236744,-0.0037459475487867855,-0.006697415959359496,0.0007378824005140612,0.00811625875409042,-0.14122272825673313,0.04334459358154009,2.7109375
1.463167303835707,0.179125010214394,-1.0862844394061766,-1.1982408315412425,0.033741191808679176,0.018091154295121516,-0.04018563222081349,-1.1622779672691732,-0.04303297344670366,0.005148986861719023,-0.03534762224718076,0.04367474876475454,1.776496080866962,0.04878813516108022,2.71875
1.264842542264314,0.11401878856476598,-0.9114514879137446,-1.0814805112116885,0.02806477376664854,0.01111951804467216,-0.03556256353498413,-0.5684707809321479,-0.030006499435318475,0.0016017694262269366,-0.023617640043807855,0.03164849295245826,1.1569960612093726,0.044591995265420487,2.7265625
-0.15553977486443504,-0.08220238172846235,0.15849350946878893,0.058174416951436485,-0.005779731014033743,-0.00944033760845083,0.002695877692373194,0.8003533330041305,0.015575586502543095,-0.005424813735792513,0.014068845511079132,-0.013177658417819123,-0.7757153396687319,-0.0019108154535087316,2.734375
-1.5741679036163652,-0.10028521575721246,1.1088249871327298,1.3950965372474426,-0.03491595590208417,-0.010645360976423263,0.044280236083442996,0.2684034447713264,0.029674524255724578,-0.0003435231125773165,0.021207635099487195,-0.030854866223462184,-1.057617202057337,-0.05953292181411691,2.7421875
-1.6504945935573512,0.04248084514813205,1.06433587269719,1.6269875537946357,-0.03270494406469624,0.004905782094764384,0.04925114180903191,-1.2945168290166154,0.005041810827196764,0.009704908705061159,-0.00305163065586223,-0.009921088563277544,0.2590224952668767,-0.07167884842467206,2.75
-1.0808203316899685,0.12026482609497163,0.6359173676583973,1.167936796260629,-0.019143664750901443,0.01304937833265965,0.033880061148397624,-1.833547825025904,-0.013073702787916015,0.012461607309831708,-0.018007062292190967,0.007903202025768954,1.0255270370525236,-0.05299339794260641,2.7578125
-0.7638725913985741,0.1033780264544274,0.437588785876989,0.845308599983138,-0.013163967140762128,0.01104195628326389,0.024158954967972702,-1.4910581686161384,-0.012522908424742301,0.009904304195495588,-0.016012349569858243,0.008644003688557167,0.8944451951641088,-0.03882537613968503,2.765625
0.11107558536049107,0.11178727377170614,-0.14758711841931332,0.01792863551686353,0.004736845551669216,0.011486772000803433,-0.0015434156000818926,-1.1332981446461994,-0.020737248646299323,0.00657970979313483,-0.019949090583118154,0.01913619562690089,1.0430025001580983,-0.0030704196613910526,2.7734375
1.6110545983745492,0.10605039443649004,-1.1374776112622056,-1.4227781878571186,0.034842750747883705,0.010064773773976571,-0.04593611553614503,-0.30538817408643115,-0.03126049895768737,-0.0004894302121465517,-0.023243879769124495,0.03409697508250004,1.1111800454399545,0.05954226542382655,2.78125
1.5548203557581175,-0.04486932496320569,-0.9997762455403647,-1.5371533545619864,0.029674032732426192,-0.006297424913145997,-0.04710573447018131,1.2759654265304954,-0.0041646074904590135,-0.010498264862620241,0.0027915194488659888,0.01055717295997762,-0.291584916745515,0.0667556263749862,2.7890625
-0.7713795403399873,-0.2597435361177597,0.685008947103859,0.4486143672682125,-0.022993160940916364,-0.028397842267987024,0.01754985921291184,2.3789461217056713,0.05168848489143145,-0.014745242596159605,0.046267653086080565,-0.04668836137805164,-2.470585389362336,-0.016226858698587355,2.796875
-2.4714666930017,-0.31275540902795024,1.8484222120749616,2.017271348006718,-0.058717612986560454,-0.0332488756917025,0.06678357597670197,2.0743994102710133,0.07412778449541806,-0.010773508158181096,0.06020870766647055,-0.0727204711199102,-3.099350469912254,-0.08350442388566238,2.8046875
-1.3110965497396252,-0.17234736755732705,0.9874319215633094,1.0660873189538058,-0.03157487276693939,-0.01861125592952411,0.03518726917677288,1.1687721120200012,0.04039168041484575,-0.006392086067327322,0.03282685745264707,-0.03911236978758181,-1.7044956913774285,-0.044257153300794286,2.8125
0.9436001686974355,-0.011953195786936347,-0.6147810361459463,-0.9118111390059556,0.018200193831970652,-0.0023866711861541463,-0.028396464471899925,0.6110049266124169,-0.005293054762984162,-0.005534474606566835,-0.0011091025831803465,0.009130339772739271,-0.035707005104522696,0.039270384711456746,2.8203125
1.7388188815689525,0.08101128762354619,-1.2070238192154237,-1.5721981552853541,0.036751369500136265,0.00728461295936051,-0.05017487887327559,0.027786370264833552,-0.027834145430772776,-0.0027683044956325637,-0.01932234182550222,0.03170647584669963,0.8901054802822579,0.06654332326668841,2.828125
1.1963522244623321,0.15634764458859976,-0.8994109746968091,-0.9727484254191643,0.027825253470824818,0.01575022821496535,-0.032733500610429886,-1.0522135030677842,-0.03696534786311267,0.004763297038851424,-0.03069090792074438,0.03743393996363907,1.5439724979529357,0.039312614710522074,2.8359375
0.5714989903946266,0.1996935031768928,-0.5126737295158281,-0.3263924084911554,0.016343797889003326,0.020790484777552024,-0.013414079810415503,-1.8351635490518357,-0.0398117767870308,0.010500197661022129,-0.036334901865522046,0.03740393184937132,1.8947730741066513,0.010566967714508681,2.84375
0.07795424472100507,0.13072423682220566,-0.13724013026156057,0.07201274323073469,0.004514728589299706,0.013567817998233055,-0.00012153828618741334,-1.3532614235152902,-0.023831915791919622,0.008020212133960777,-0.023100190442842894,0.021693957658312585,1.2159676096501366,-0.005633166590776673,2.8515625
-0.2927810718172345,-0.001941155048765053,0.19769401640092268,0.28068066743221654,-0.006488754144894628,-0.000641380206244001,0.008280917304358352,-0.12754738879800975,0.0024537713929443407,0.0006544374506481298,0.0007006467944292106,-0.0024005609632088993,-0.04294564139758964,-0.012651913696208486,2.859375
-0.027253778514009026,-0.03880508980871479,0.045358832567757267,-0.015465209099368328,-0.002068432932657764,-0.004791777489488934,-0.0002994298298207684,0.4026297848846798,0.006923057531729327,-0.0030406249626037636,0.0062623752881188965,-0.005220625757831319,-0.363114308571612,0.0007182968851694051,2.8671875
0.7660963032354482,0.04753376555169724,-0.539627664059114,-0.6801496586126792,0.016259926405900654,0.004156459047858091,-0.022088296689192512,-0.1121817937359739,-0.014430395914565141,-0.0007107705833091528,-0.010802167938827698,0.016274164960983096,0.5006849026408108,0.028225937561446625,2.875
0.9183253819864046,0.09211095680734704,-0.6710247782761899,-0.7766663496070574,0.020491001759286417,0.008916561060969773,-0.02570296097044281,-0.5104212503405859,-0.023472107056151555,0.0016418351737425088,-0.018878453248709202,0.024672609543616546,0.9259306321626628,0.031748264579843845,2.8828125
-0.3797724651417383,-0.012606442472671028,0.2604050231412864,0.34955494214709687,-0.008530619578453458,-0.0017596992943183134,0.010666177819635957,-0.05790015713454203,0.005017480484001054,0.000310584460312323,0.0027772583895325186,-0.004940178060163958,-0.1490431505982147,-0.015559841061648573,2.890625
-2.2530538477606954,-0.14083887558491576,1.5895118161584942,2.0000759148817355,-0.049750165342281764,-0.014684082098257065,0.06353584361105147,0.3519030460883879,0.042079306045113896,-5.835989848150625e-05,0.030105253096722184,-0.044216145841635184,-1.488420468402521,-0.08529202614728212,2.8984375
-2.617430080899125,-0.12549343659681614,1.8207055872874165,2.3657528232716873,-0.05666240544811507,-0.012824633267738058,0.07455725436205346,0.0023061472771421713,0.042162207648317,0.002604978932192765,0.02851334459605415,-0.045736071333707086,-1.375775691164676,-0.10139053714094128,2.90625
-0.5159607260735984,-0.01885449141083957,0.3545838408883754,0.47292297974230213,-0.011389850873690375,-0.0023682620126033323,0.014525770600737436,-0.06008158957696255,0.007154010907930752,0.0004870967501645143,0.0042359627844395405,-0.007340388265570823,-0.21802549824060677,-0.02082095979925184,2.9140625
2.0042219749349477,0.01048030574197755,-1.3363547847943058,-1.905952140212584,0.040235133174990466,-0.0005275366547811002,-0.059305487605187945,0.9156831103112486,-0.017406647419604005,-0.008744941415688481,-0.007981559974674287,0.023722768343469276,0.2575084525129183,0.08197561035371433,2.921875
1.8686739798842873,-0.04099209620959184,-1.2107126100202918,-1.8325216776248878,0.03609403981832192,-0.0060404698424483955,-0.05626644692167975,1.394610030000978,-0.007264712515892218,-0.011633372888955567,0.0012303324358508758,0.014474198324075418,-0.23017562041946238,0.07955201638278392,2.9296875
-0.7182420497969477,-0.050036873304689,0.5114321940867769,0.6334161330363705,-0.01636061850696696,-0.005638437888221328,0.01992918685058054,0.1675752331192463,0.014225020641997052,-0.0007210256576018058,0.010159895123095786,-0.014192177226932246,-0.5230335754319178,-0.02730997629846507,2.9375
-2.168714842580688,-0.007170886657341607,1.4437635234698905,2.068339986219552,-0.04446045230673737,-0.0002121617598846365,0.06356435226983657,-1.030887925048057,0.017799695055737096,0.008649589224638552,0.006948365731162522,-0.022987569032335925,-0.24328498403851148,-0.09021273695880933,2.9453125
-0.6322354012828633,0.015422643876776344,0.408923500097829,0.6223475938617066,-0.012827799766173341,0.0014160812525119632,0.018650771814518873,-0.4850740627553174,0.0019914491757208317,0.003335322986698716,-0.0013071981348176092,-0.003355315520356374,0.09012571480460577,-0.027803389856429293,2.953125
1.4810430884665233,0.03530224465570519,-1.005536074937765,-1.3774079162312918,0.03032699632735846,0.0024487423292678637,-0.04335244863541787,0.3837711408088412,-0.017767360998281943,-0.004726125325538625,-0.010744331321874597,0.021973384900851378,0.4452987782757152,0.05871663149819952,2.9609375
1.5139108566268302,0.08051445902343136,-1.0566259354349319,-1.357563227252916,0.03215321059961628,0.007348558187512252,-0.04347736721208192,-0.08248477941063673,-0.02600353384517575,-0.0017926414344242672,-0.01859108434818984,0.029221038301863008,0.8671114158050571,0.057228817859597825,2.96875
0.3037775117502412,0.082319132622523,-0.2543676140118605,-0.19724885852813528,0.007777323753302804,0.008192664942602882,-0.007728337365567943,-0.7210719904261659,-0.017013773841004883,0.003725536747964865,-0.015447292746494442,0.016724523720808935,0.7860029710890304,0.006816141992737505,2.9765625
0.007747716800524676,0.023823285331572606,-0.01885845579779112,0.020289137381033814,0.0002866384454444379,0.001992177679875859,-0.00010987356092389599,-0.24807267380291326,-0.004402014951755419,0.001065775894797849,-0.004570925996392985,0.004670581667543226,0.2198306090068187,-0.0018389047572468721,2.984375
0.5955993611262821,-0.0016944040011343093,-0.39306707010365344,-0.5716333416230657,0.011502534772667454,-0.0010980752634625834,-0.017976676595385502,0.3253701058454988,-0.00441811766143888,-0.003295080040066063,-0.0018735833397238552,0.006980484044234937,0.03076321614432659,0.024215711387522543,2.9921875
0.6841748681312387,0.006616422653974786,-0.4590432902446673,-0.6478253597484799,0.013501859933533263,-0.00024204246244417154,-0.02045057140414163,0.2822655402245838,-0.00657410829628261,-0.0031305396167177098,-0.0035556565234929538,0.009210616060370394,0.1150632246179738,0.027461858703490695,3.0
0.1082554206254056,-0.049047996744178125,-0.03974485682114675,-0.15860296560407772,0.0003743097953443143,-0.005977631454867935,-0.004476570132045847,0.5814896145467012,0.007686592201107352,-0.0043476950434818695,0.007628740085673249,-0.005307274168826168,-0.44704278753563387,0.007070654663261611,3.0078125
-0.3714249596466695,-0.12553364164346512,0.33115919118362436,0.21587961551140095,-0.011341353298799133,-0.014028897590510035,0.008269395372785846,1.1518284080792975,0.02489255534173209,-0.007404892546986857,0.02211349961061709,-0.02202217700999231,-1.1945379025632286,-0.008116809515000373,3.015625
-0.6170444992943249,-0.07641972072837978,0.46208530660714753,0.5060113845311702,-0.014974478522593445,-0.00856535745221383,0.01644544296179669,0.5018354021645884,0.018110342493224105,-0.002969177155912441,0.014396927670237557,-0.01717774121723854,-0.7595723623974387,-0.021484482358971425,3.0234375
-0.7306100178645872,0.07605448365677779,0.4348733082994974,0.7845344095651077,-0.013210330867493963,0.008056652888964018,0.02265887294351447,-1.1831823630552816,-0.007952806972615538,0.007901160337361884,-0.0114217727620666,0.004819720181985493,0.6439244717239272,-0.035786427923983476,3.03125
-0.3143640009101669,0.16611154401166983,0.09793527582110548,0.4867347318215144,-0.0024393081075145037,0.01762013264893941,0.012065596160314279,-1.9311722237841795,-0.027067620453306913,0.012168287518605445,-0.028053106056686636,0.02294991413307586,1.5122217868986965,-0.02411756809151031,3.0390625
0.4529893868132834,0.12320834719945355,-0.3822951453777981,-0.29505950807491066,0.011884068000774515,0.012553130643567315,-0.011388886224637167,-1.0811387210008627,-0.025390194401469116,0.0058342252421324505,-0.02288722273226184,0.024541148239606937,1.1768847918316359,0.010463506668068683,3.046875
0.2740739285777634,0.0013676084636600348,-0.18188007007298673,-0.25952474852134344,0.005032407114710239,-0.000588458237093196,-0.00837944379014864,0.1269104410701923,-0.002482803278455751,-0.0016493091928748227,-0.0014828467451499104,0.004083821235848078,0.03328651881427672,0.01067509638520883,3.0546875
-1.188699104428415,-0.11392245798077764,0.8657808336799719,1.0123246232260625,-0.027546300512198394,-0.012334375132834157,0.0326724797271706,0.6083569399450584,0.02914020529596869,-0.002967349063103596,0.022461697365677148,-0.028941117242521013,-1.1534607681298543,-0.04283939901275419,3.0625
-2.0596463518216654,-0.13228652811234035,1.4560361938956181,1.8265937146095699,-0.04560575684176209,-0.013862329129737505,0.05805083574684102,0.3587114112454405,0.03907574562947884,-0.00033554814277626777,0.02809378204327185,-0.040921909515468195,-1.3938840788649158,-0.07784209825275173,3.0703125
-0.8394573657957921,-0.045920582201736754,0.588302655518268,0.7552395409940765,-0.018668473887081916,-0.005128140122127109,0.0236013715638887,0.06220696084110801,0.014418824235697023,9.307583572976615e-05,0.009798235375780487,-0.014849444307638491,-0.49460617362496784,-0.03255041296624812,3.078125
1.1171930819261724,0.019493824218110155,-0.7550727393459645,-1.047212994838245,0.022589329163800763,0.0009306206000477894,-0.033002986983585426,0.36697417303006064,-0.012190936032344836,-0.004187150370624725,-0.00700412348664528,0.01578728158900184,0.2698073678708867,0.044670922249510955,3.0859375
1.5846404892806945,-0.004646578285601357,-1.0502122075591667,-1.5250838090252272,0.031398897731095325,-0.0019484230499274802,-0.04726743773737766,0.865237222504799,-0.01151248709075215,-0.007914694583475674,-0.00419661448026857,0.017027286253303714,0.08366931319671822,0.06565506528374855,3.09375
0.594314727034263,-0.02364597459311776,-0.3794826093933215,-0.5986787472869662,0.010882864293296799,-0.0034849745112592524,-0.018333196589612435,0.5610272160392693,-0.0005306800709901083,-0.00478723084627209,0.0018912285592707853,0.003653570986860398,-0.1726383341225737,0.025689780272362253,3.1015625
-0.2668357549107127,0.0010369215929957635,0.1780137509136321,0.2566290780250656,-0.005891119086183316,-0.00033702410916825723,0.007611525504165619,-0.14495248291070084,0.0017338162361785225,0.0007391048575417696,0.00011828049290258447,-0.0016830615687894153,-0.013456398025907286,-0.011736080411628196,3.109375
-0.2905715279490608,-0.02491583748364733,0.2130352974266152,0.253731502488008,-0.007083874742689939,-0.0031379172421479745,0.007836945634447126,0.11805830487890302,0.006502954696954478,-0.00091314456830642,0.004635450436470058,-0.005879200685172716,-0.255699060882874,-0.011190896281455457,3.1171875
0.3649198128963219,-0.07555453009589871,-0.188273310411862,-0.43024631147695375,0.004830167460697366,-0.008991502522849826,-0.012499679278638903,0.9937481802220735,0.010409184736555695,-0.007279450688816114,0.011448026395067763,-0.006679249384150085,-0.6720179249430861,0.019192693668852786,3.125
1.5117731857261878,-0.0011170777226655122,-1.0004110998385298,-1.4471327192132182,0.030003249238215367,-0.0015239398560494219,-0.04500570156010642,0.787202708480831,-0.011566131416734588,-0.0073363571188023715,-0.004585332209564341,0.016740743903512927,0.11015470459047334,0.062172782045656905,3.1328125
