AF3,AF4,F3,F4,F7,F8,FC5,FC6,O1,O2,P7,P8,T7,T8,time
-2.3428982439356,0.05948318131730773,1.5144491901030166,2.3105383617934114,-0.046205026449224015,0.007118866851998611,0.0699937170814458,-1.8317322775501572,0.007360306688433863,0.013954734785498944,-0.0039822011561686564,-0.014703293427766011,0.3600559258230641,-0.10164376809873878,0.0
0.6050739205576839,0.13486677208837378,-0.48692041772541256,-0.4233148617870207,0.015232778578311715,0.013742069693495701,-0.015603974146452924,-1.1301304938921373,-0.02861339462391124,0.005963113525938618,-0.02531215053306935,0.02787340630152271,1.297025662866593,0.015858844350137853,0.0078125
2.496051708905682,0.04140268977250389,-1.6776369554794126,-2.3374543671066204,0.05089570038145106,0.0025822390722571803,-0.07321054444400835,0.8343602738535898,-0.026633704937449154,-0.008810670146104947,-0.014680805007743712,0.033610796810263154,0.5840326863198199,0.1002448937613546,0.015625
1.5494383376333845,-0.15258838863442942,-0.9230964061782887,-1.6512154440219322,0.026677071721139308,-0.01799280484457607,-0.0489306274608974,2.4218730662885206,0.014916432650324607,-0.01779231069742399,0.021279031458306057,-0.00590751280840105,-1.2900908867480962,0.07328133766005254,0.0234375
0.30103737121382496,-0.17352908743483028,-0.08308078382927837,-0.48140427030647526,0.0009635668178991179,-0.01960663655646313,-0.012482035300636496,2.0076503943568813,0.028209527477776122,-0.013661432895848102,0.028430300569510944,-0.02227909587934892,-1.5852351405862404,0.022828406301624467,0.03125
1.1775122169001324,-0.014437435864555283,-0.769731355071675,-1.1411832982801997,0.022893062830422865,-0.0027886620685095734,-0.03540959128619985,0.758019080909787,-0.006644408329110373,-0.006748746926170381,-0.0013491752730302928,0.011197842173212505,-0.040133711114945514,0.049143732622246084,0.0390625
2.0642684488810175,0.052347835166497755,-1.4023082440367707,-1.9146003956917041,0.04258083420588829,0.003997298598192402,-0.06037430140738036,0.4996232974012901,-0.025271354785866423,-0.006162650072631011,-0.015335662324643194,0.030759823704714664,0.6507563189204314,0.08175887702267322,0.046875
0.3625245351392393,-0.03567206083535777,-0.21748355031870673,-0.3867045889027312,0.0059171526336465625,-0.004660052074285135,-0.011757604503915414,0.5704269674784527,0.003358021292189807,-0.004577788046267572,0.004605888338288222,-0.0005741647190910179,-0.3022871230312442,0.016788606656474088,0.0546875
-1.8335171601650033,-0.039303163460273065,1.2392707246611685,1.7079360114349675,-0.03851033631958547,-0.0038902117016127256,0.05309232973323617,-0.5132145609710741,0.020889366660697895,0.004953020891546929,0.011496494728731545,-0.024324270841033228,-0.5138413957292172,-0.07405583246332345,0.0625
-1.415485524514013,0.10791024354466781,0.8649055774929206,1.4720113477205363,-0.02620551274604277,0.011877024164516426,0.0435680676899177,-1.8716460179208434,-0.008320236815308286,0.013108239528085527,-0.014929460723065781,0.0024587433714032964,0.8836172550639305,-0.06604103665552831,0.0703125
0.157398513865428,0.14758737283983867,-0.20178469179232877,0.013241972568873342,0.006550140000638286,0.015353568117185539,-0.0021305107198261947,-1.4923740966505736,-0.027410422281747428,0.008813077447863981,-0.026216411488253967,0.02508577410010412,1.3784725496502093,-0.0033768697190527217,0.078125
-0.12281494827174373,-0.028958061372919553,0.10351271448282218,0.08625445662014006,-0.0038064597792922972,-0.0036696735062221025,0.002797503336966391,0.2475667709521811,0.0059410567202310745,-0.0019339911955660088,0.004850971437005464,-0.004736814424549886,-0.27971420848453094,-0.003943228289105233,0.0859375
-1.3606523548070708,-0.1428765027026052,0.999356285468227,1.14364607048026,-0.03178428023713714,-0.015384955662036386,0.03715809089691963,0.8304982203439579,0.03557767592767864,-0.004169930126075676,0.027911634626599062,-0.035134514025960815,-1.435264838098624,-0.04810212326016364,0.09375
-1.0170656630514467,0.004445811606507641,0.6704583217242359,0.9780413723464378,-0.020888425061798003,0.00043096666236228776,0.02971470492294841,-0.5652594078101353,0.006889257609025989,0.004301754166840837,0.0016695474697851008,-0.009074394260435884,-0.042614991105540075,-0.043027182212336736,0.1015625
0.3305994661628475,0.16637532520150586,-0.33246817357591135,-0.13097387741276617,0.010623381251102182,0.017301764380790452,-0.007064585432120396,-1.603984719305684,-0.032093290477464585,0.009301043715479546,-0.029940740658670587,0.029811886986632875,1.5666873749277985,0.0027489430908426457,0.109375
0.6439927309117094,0.056279203263121434,-0.4642213697603001,-0.5516161539850346,0.0139834405167914,0.005180204586164089,-0.01834040823305416,-0.2697935784067628,-0.015040664824310079,0.0004320264034862444,-0.01195600435926838,0.01635827207999983,0.5720858443559873,0.022596137202256245,0.1171875
0.1900848921783572,-0.15859153336028833,-0.01608768492743748,-0.3549034743335979,-0.000916929091539593,-0.017914734501319477,-0.008912090538186698,1.790027798806431,0.02643236906783665,-0.012137609016606564,0.02618523876138041,-0.021168698187801226,-1.455448437264699,0.01713390368610774,0.125
0.2732508872273195,-0.1364990656911475,-0.08596388115258959,-0.4105390522346759,0.001375343497505452,-0.015562683120434854,-0.010944458000724298,1.5972377650022187,0.021891495332672102,-0.01100838019740791,0.022161992343084285,-0.016949288711086793,-1.2441928950941805,0.019164270925357836,0.1328125
0.5736286925639388,0.06484568980737485,-0.4234122693883046,-0.47610715831658856,0.012829689855405701,0.006142089639464257,-0.016051816697855676,-0.3960802138831134,-0.016010258510407795,0.0013228733319504051,-0.01322190087905043,0.016890866027098238,0.6455458562270684,0.019099480949038072,0.140625
0.29629047888290716,0.10513201967922092,-0.2691129923172334,-0.16709249887868846,0.008296327264427526,0.01066556303162211,-0.007094618664332173,-0.9667754326412276,-0.021009113333788673,0.005286255496869157,-0.019344702458941147,0.020142404006450277,0.9965900280158714,0.0051965791602045005,0.1484375
-0.06235226436881323,-0.05704216154658763,0.07867787645131386,-0.0033029767138696244,-0.003292384340621156,-0.006753557328514525,0.00048398349358253417,0.579736396405054,0.010408748157214834,-0.004131900037986049,0.00948389844762114,-0.008310233711665097,-0.5347528421443486,0.00048277423597288923,0.15625
0.1273625191541738,-0.12464668167765587,0.0015676245849982984,-0.25833872270503233,-0.0012750937820488386,-0.014194250480041337,-0.006375644078803272,1.3968370578146878,0.020909036476086898,-0.009557607137845456,0.020540617311993376,-0.01663078978465113,-1.1458554937256584,0.01244863401751087,0.1640625
0.3775176743425815,0.017053362380183904,-0.25805025961192907,-0.3400124125535054,0.007562590344899541,0.0010611707213371087,-0.011121585669764764,0.012407780236118986,-0.006046972313844197,-0.0010360002235033593,-0.004462006507284637,0.007533240557542677,0.18693037175582272,0.013843843467129751,0.171875
0.17150442037465533,0.14034196059939616,-0.20628711070407157,-0.007543641540440827,0.006698507895504247,0.014557151589672863,-0.002749386924271599,-1.4074693156076277,-0.026252902825461513,0.00825310496366093,-0.025013868695651666,0.024120339433617195,1.3124136453412598,-0.0023420271671851308,0.1796875
-0.009537795740806819,0.07753751115387261,-0.046420635408411876,0.09428460102441767,0.0013533328955013535,0.007830790796513904,0.001411504083395606,-0.8289440213801296,-0.013767428787832292,0.004782754717779367,-0.013734722141124716,0.012682377951499499,0.7160678142277678,-0.005747163777422662,0.1875
0.3198031906744564,-0.048295209421841706,-0.17932791925778685,-0.3603041529785591,0.004617555888337094,-0.006008579869843286,-0.010662194578664103,0.6816213576219422,0.005939326026315825,-0.005232177420425442,0.006899760419347827,-0.0029804318825619267,-0.4229743864221365,0.015824593073840584,0.1953125
0.5362800653435689,-0.06364779987796156,-0.3098307932294826,-0.5828347599700042,0.008578302615108254,-0.007788553344010065,-0.017344827255687822,0.954824386367781,0.006992967353506152,-0.007229428383693502,0.008919671351422489,-0.003058351683059135,-0.5478191040557093,0.02562851182422475,0.203125
-0.22102030619133423,0.022620608917321247,0.13406050922853402,0.23823951371019794,-0.004361849790931043,0.0019836027572079583,0.006595851646583595,-0.3530871850556361,-0.0024322230819848116,0.0020056782068259816,-0.0037099246259737827,0.0020604708043676285,0.19005126955553708,-0.011280402985221946,0.2109375
-1.4355586762206385,0.08229487687585159,0.8955265963592105,1.4654825686610256,-0.027242668100040647,0.009109466992716763,0.04354175394319102,-1.6096401925381265,-0.0036485679379566756,0.011456734865047136,-0.010483955797945508,-0.0016487422496028693,0.644803880178629,-0.0653222469908382,0.21875
-1.5902834670816224,0.03091990432890458,1.030128125902507,1.5551799678690097,-0.03174177374918674,0.0036116499875521,0.04715310972397226,-1.139692550771007,0.006614034683188746,0.00864446745821023,-0.001241190685094769,-0.011058690372707467,0.15653493724693113,-0.06839292957724628,0.2265625
-0.47066277383103716,-0.07786398095462926,0.3618476413832038,0.36303884938187253,-0.012068577373439682,-0.008798725904883398,0.012060422027258611,0.5932117976951157,0.01722860538710631,-0.0037321630131057957,0.014216847462578043,-0.015786310978061394,-0.7607235085608358,-0.015095829774550748,0.234375
0.2932671421358752,-0.09968015482043006,-0.12829619312397197,-0.3914255465888486,0.002778149824577829,-0.011574750926962942,-0.010932273546423756,1.216062007327855,0.015211054463152757,-0.00861087335647465,0.015782190925432146,-0.011062671542312434,-0.901179252688269,0.017899871435392598,0.2421875
-0.09644794874077971,-0.0008415690288941723,0.06451511798687197,0.09190524140968995,-0.002430093991319535,-0.0006331515015688569,0.0024413829804805238,-0.037942647064380504,0.0007466155561887702,-0.00015535177281792532,-4.924719331521179e-05,-0.00016415188063599384,-0.01712577847460245,-0.004567905898728008,0.25
-0.15095939077633982,0.06297068136850038,0.05950538194841435,0.21579231641103255,-0.0018492344511884958,0.006325569851276391,0.00535174081878599,-0.7470711413182803,-0.010099465431510676,0.004428502834930193,-0.010830882017914887,0.008940430805303896,0.569538831553039,-0.010935685835150585,0.2578125
1.1073777959560276,-0.005583086456555177,-0.7262936290279983,-1.0633270564862396,0.021667943193701574,-0.0017894313670309891,-0.033003632424856065,0.6269939817723539,-0.007652128142617631,-0.005827266788040193,-0.0026631552211056377,0.011776846809903074,0.036143807012911935,0.04552886611925301,0.265625
1.972102425377788,-0.07536124540581828,-1.2526494969324389,-1.9681268222856454,0.03723312619999324,-0.009825739303875107,-0.05988581261704785,1.8134139986092777,-0.0019721231916429386,-0.014417901648991446,0.006832698919859866,0.01030641652353647,-0.5402491326727785,0.08585136818019355,0.2734375
0.8887134427251503,-0.03521948770823199,-0.5636488116797348,-0.888049631784591,0.016449435141269578,-0.004888038281161944,-0.027221946915274773,0.8317043554556137,-0.000741105259798679,-0.006868767972725173,0.0030374262627141553,0.005001401430782158,-0.25587613367682716,0.038477240092239906,0.28125
-0.6345846999284652,0.012396656269644141,0.4131888386797775,0.6217757805082894,-0.013005046602495908,0.0010912833528998326,0.018655384727654677,-0.4549918022872487,0.0025541754718934667,0.0031479666082790915,-0.0007803274229036518,-0.00384705799407558,0.061877841894898845,-0.0277155124561019,0.2890625
-0.5717075522367814,-0.0033384897473108586,0.3830274759539643,0.5451308120223278,-0.012143680442612662,-0.0006535312556215659,0.016529424657559123,-0.2553863603011343,0.004846727674815936,0.0017979302602801834,0.0017401187333866638,-0.00559557045384399,-0.07897062202300345,-0.024175676126686346,0.296875
0.2501162983190002,0.02771679881518161,-0.18278082284008967,-0.20615617663142163,0.005280183235916266,0.0022857826732307156,-0.007208967975484308,-0.1663084923011727,-0.006967901849848351,0.0002451583946126129,-0.005932936405305542,0.007839311035416869,0.27552221550632144,0.00800883465139561,0.3046875
0.049498020504337444,0.12048748847829611,-0.11438250129713007,0.08679656211029814,0.003715221921025078,0.012472242586945717,0.000395483003422742,-1.2570320810889068,-0.021822433599301364,0.007436113546452222,-0.02127303089123824,0.01989175806225856,1.1192093250137376,-0.006007854271479686,0.3125
-0.6840593269961774,0.10969357092875726,0.37744759141362055,0.7738366090702129,-0.011369188861800382,0.011686363123463153,0.02189270584916331,-1.5152847178098685,-0.014271052374517387,0.009964922776605916,-0.017329478526209315,0.010506495675611075,0.9598148685968241,-0.03568686537465407,0.3203125
-0.5742943700181611,-0.010287122296106078,0.3860135400308928,0.5355707688638992,-0.012353238345553443,-0.001408192580090386,0.016464553227850707,-0.17936932567646932,0.006090673249847371,0.0013256457330530465,0.0029336217970553848,-0.006629827985697577,-0.14322065115211918,-0.023646723339309672,0.328125
-0.02825208296029536,-0.03336414594433105,0.04152976010323914,-0.009600369827410107,-0.001962033481228387,-0.00420086114694415,-0.00011390151686794843,0.3440361667868595,0.005971109215906728,-0.0026657932898214417,0.005333790005975499,-0.004388508730490993,-0.3128550274885171,0.00035093527256265655,0.3359375
-0.07233917277635898,0.05271454905915858,0.014356850765441024,0.13033110814633123,-0.0005707685042892124,0.005178735298269209,0.002747410110839996,-0.5983986149450995,-0.008898826695331328,0.0033864209884122915,-0.009300945334046103,0.008253639631287637,0.48126056831590225,-0.006962900750169738,0.34375
-0.31297816093376074,0.011666385080351704,0.20146554095496427,0.31432201761414386,-0.006511820603510849,0.0008450630486405571,0.009086835426075515,-0.2832881614917183,0.00020715756124104932,0.0016661940072508702,-0.0015754598546050048,-0.0005522369024808855,0.08132926763954973,-0.014376812543089864,0.3515625
-0.07593341697484625,-0.1810532760102556,0.17247154599572662,-0.12812024410060577,-0.006840984241318056,-0.020222331286242057,-0.0014960559174358168,1.894941405243362,0.03243770379786291,-0.012494125635685397,0.030793582670534447,-0.02740547852471582,-1.6853546762103586,0.007623272956019675,0.359375
0.14261439909009588,-0.23134370294005716,0.0603116566448031,-0.39314395105124744,-0.0037745173054830336,-0.025801727356175076,-0.008884326381264067,2.5432653810189447,0.03964258504628306,-0.01688743238406411,0.038791903017850425,-0.03274084601562311,-2.1335994764916575,0.01989406297650112,0.3671875
-0.12497554479571465,-0.019366562711914264,0.09648746036413554,0.0996764616204672,-0.003563247175212534,-0.0026279898701364692,0.0030124282587503134,0.14395066680203825,0.004249686515154378,-0.0012816330496922639,0.0032096837905118162,-0.0032825733680386334,-0.19105286034445196,-0.004598447548536509,0.375
-0.3107538274503975,0.1722813771178581,0.09329095785647447,0.49105490099492854,-0.0022225905920729683,0.01828959238409358,0.01213036548508214,-1.996254458667653,-0.02817722383368601,0.012578738826765431,-0.029116581194061072,0.023907165489535954,1.5695031190582374,-0.024478724174816245,0.3828125
-0.013202056795178623,0.10142031674545691,-0.056593848852271963,0.12646273031358765,0.0019342837761793115,0.010428685309483106,0.001997119159066401,-1.0871567806366982,-0.017947518119224213,0.006432254594893324,-0.017814796010493128,0.01623903254850029,0.9368356464860929,-0.00767267145278747,0.390625
0.3233013673927647,-0.06658092463112883,-0.17038508975067432,-0.38431380381498137,0.0042982239591850945,-0.008003152207818526,-0.011168830803387274,0.8791081686795854,0.009133825998978077,-0.006500458545422013,0.010023742992026468,-0.005749636203509701,-0.5923976622696799,0.01703667130133647,0.3984375
0.4522842353893227,-0.05761918462478688,-0.26409697492629874,-0.4984874069413461,0.0071254338470257104,-0.007095301359393465,-0.014836447935835904,0.8501906379920672,0.006549218065583267,-0.006471994213517271,0.008113027981090665,-0.002970694687590768,-0.49858210085226246,0.021974665853869035,0.40625
0.630598318116507,0.07988299218409826,-0.4719312229803729,-0.5145498434964233,0.014319038716246832,0.007751810709809472,-0.017448438419950897,-0.5269235092964838,-0.019105645311601322,0.002093647734266752,-0.015966879193585994,0.019836668551576273,0.7899399692199232,0.020652628057465164,0.4140625
0.813094288185122,0.11783844214066866,-0.6141247793008887,-0.6447709163738669,0.018976209248876608,0.01177963812824836,-0.02205072176011907,-0.84035968174149,-0.02719722731661509,0.00387851161647683,-0.022984690145710942,0.027480671357032298,1.156110936546709,0.025650252336442903,0.421875
0.7252670557506649,0.051143725929575216,-0.5109212741269242,-0.6347647868504239,0.015464216602319702,0.004578305950422994,-0.020729972198660542,-0.17384268059002564,-0.014738756557301709,-0.00026461962264225385,-0.011296321324941854,0.0163717654756499,0.5308181980710812,0.026148974918623554,0.4296875
0.3989034451363136,0.03696890912386732,-0.2888665847119914,-0.3398976172295312,0.008555627191919218,0.0032085409525446223,-0.011433120098431324,-0.18800782294409543,-0.00974469169624445,0.00020827334910250084,-0.007943369820225506,0.010810332899447396,0.37318380009559315,0.013631429127048714,0.4375
-0.16111777673346722,0.043157765209897066,0.0756237526166008,0.20204369762443478,-0.00257997186500918,0.004180651622484759,0.005198270069362883,-0.5394003414643836,-0.00654543180721129,0.0031135958952340356,-0.007415030905953633,0.005899347090720261,0.3855604671219797,-0.009868920516764697,0.4453125
-1.0815352891659438,-0.07687939341341263,0.767948125213844,0.9505191202382345,-0.02439696435894367,-0.0083623252211829,0.030179044305269374,0.26986583973049694,0.02174838297878234,-0.0009368312501557748,0.015793358261310904,-0.02207996487225727,-0.8008745407201535,-0.04055240166339007,0.453125
-1.8737637954782538,-0.23052662555896436,1.3993339799513953,1.5392483457897728,-0.04450081937473455,-0.02462781034393893,0.050740586493016854,1.5026333481595955,0.05500222840782844,-0.007838398101338866,0.044404769262720495,-0.05387354996651797,-2.2887079218743986,-0.0639053738393046,0.4609375
-1.656904877482142,-0.19198206823734612,1.2300758062772925,1.3741502552532943,-0.039066728643136144,-0.020561596308689783,0.04503429537077335,1.202204489783452,0.046528163362533737,-0.006184788650880072,0.037181090896967924,-0.04575985516198799,-1.9143853696220081,-0.05738603240195672,0.46875
-0.5032357413708148,-0.009278402572769493,0.34006220468118264,0.4711849815521831,-0.01087188518398737,-0.0013375218786802676,0.014320259964232203,-0.15571304568823066,0.0053690608160039685,0.0010821370221122761,0.0025602377587673505,-0.005772290223184566,-0.12841645708909233,-0.020906346336626316,0.4765625
0.580928915988383,0.07981577637989672,-0.44044186697279236,-0.46855988930804504,0.013385047915547996,0.007761294301307023,-0.016059402517585326,-0.5508754772481528,-0.018714163502038632,0.002300069927221698,-0.015814015021671957,0.01926397153088138,0.7849022030919292,0.01858949569425049,0.484375
1.0371743425367737,0.0701623920407325,-0.7353141671714963,-0.9148770688172182,0.022294449407900974,0.006474985280155885,-0.029688086506691972,-0.21555480842690017,-0.02051337132569074,-0.00038209874587758077,-0.015459950705617292,0.02262810240925823,0.7325071648437813,0.038103970182708495,0.4921875
1.0521510685821749,0.13558400621822625,-0.7866523434012148,-0.8546413311415154,0.024306885286707502,0.013577969923201939,-0.02887526447879531,-0.9076763976738509,-0.032180082957744084,0.004010831746233075,-0.026713624119038323,0.0327242260700796,1.3397712738015164,0.03449111944668762,0.5
0.8566580830056881,0.2296369849683946,-0.7193083459252317,-0.562592422357374,0.022882898855468806,0.02389701826459924,-0.02133488425730193,-2.011424644992492,-0.047290044013460125,0.011278350439861742,-0.042278074560284776,0.04494257103289715,2.1951968421090795,0.020392315516463543,0.5078125
0.6098949831940104,0.1446123013588406,-0.49966743317684675,-0.42180450223910804,0.01567403379670616,0.01478888229265913,-0.015628162401698686,-1.2292028633403238,-0.030370604506537224,0.006591132974640562,-0.026998564151852162,0.0293894338346706,1.3874759778895196,0.01552551426015477,0.515625
0.3926951535265544,-0.08281048249547758,-0.2044301166719763,-0.46760719183100674,0.005238039241632422,-0.009799171394214863,-0.013459765687676333,1.087265266285417,0.01147777734681664,-0.007906926718698498,0.012608792025712712,-0.007486016569710404,-0.7369781335046851,0.02089693537927356,0.5234375
-0.08124041826650698,-0.19520182115731796,0.18375017054803094,-0.14008763582814676,-0.007339321557982682,-0.021752961664231494,-0.0016002197794878817,2.0444433170029614,0.03497496868464366,-0.013437666401678537,0.0332274317060183,-0.02955212870151314,-1.8164301814631993,0.008400047795900313,0.53125
-0.843688702844042,-0.12284427006484856,0.6395174308495138,0.668808314729843,-0.020800705103719657,-0.013487554067548833,0.022227923116207717,0.8828152549966518,0.0280497942974623,-0.005123773528312492,0.022996374843511098,-0.02657697135939549,-1.2077223011979659,-0.027734097757334798,0.5390625
-0.9503631674789315,-0.05037599051836013,0.6628317291227209,0.8524927010764589,-0.02101283461880214,-0.005560567523023711,0.026774101114105622,0.054692011371978225,0.016066709861906277,0.00028026334240721385,0.010879697258411225,-0.016708229795747345,-0.5451255590275822,-0.0368006977358605,0.546875
0.10946943291214595,-0.07133280282416443,-0.02188203271002444,-0.18123738035588874,-0.00020064924787096796,-0.008398799907680552,-0.004819107591499616,0.8185541310736656,0.011623687896246186,-0.005855193371317561,0.011455262795796511,-0.008750267435506252,-0.653682634332155,0.008324038285855179,0.5546875
0.945852134351488,-0.058996501022042916,-0.5822271902137025,-0.965396976816496,0.016969197814550804,-0.007498840773439282,-0.029259894523954142,1.1132128338261609,0.0030134611066099715,-0.008734708437700762,0.006955533768534329,0.0019604618082923646,-0.47160196707699725,0.042188347244375424,0.5625
0.2176123894568864,0.0594193129444325,-0.18102592053123603,-0.138823782843903,0.005423174544719368,0.00575227138379983,-0.005598400556408952,-0.5217461520094419,-0.012314105132352864,0.0025517962972912006,-0.011275046692210392,0.012334082347394306,0.566819699567064,0.004635305013207198,0.5703125
-0.9481717513289679,0.13543951684396535,0.5369765186501319,1.057593337894446,-0.016040666442769882,0.014624858041316852,0.03021200506385747,-1.9268851189355005,-0.016786158313227686,0.012899056764144172,-0.02098801572969613,0.011614838042029755,1.176825518422655,-0.04838575590793743,0.578125
-0.7746925418544229,0.045658807033424544,0.4812624851250754,0.7908237866307174,-0.014905020308392917,0.0047757333116011345,0.023422494782722934,-0.8796531493910313,-0.002255386090216778,0.006021447873522172,-0.006088211929364172,-0.00023820046760817298,0.358840654745114,-0.035527756776959143,0.5859375
0.129963745599092,-0.06976541474857124,-0.0390845137620408,-0.20148349722061606,0.00026419342328987935,-0.008241222680486018,-0.005466744187754444,0.8132697728755877,0.011187082197027418,-0.005845194047374393,0.011124086899899183,-0.008270723546556677,-0.6374309129751625,0.009204559609180318,0.59375
0.08523136482946332,-0.018386765259107134,-0.04244091693529086,-0.10040612054624086,0.0007136356749155054,-0.002631547644974453,-0.003240573462455366,0.24122392179342023,0.002454644559551773,-0.002149111049954246,0.0024418516605938948,-0.0009123129114312753,-0.16487008703738246,0.004070737727558992,0.6015625
-0.5445338022898142,0.1151835737768573,0.28477356734706216,0.6499297804976596,-0.008422353211614194,0.012211895556771867,0.017833742737480694,-1.5055887272892756,-0.016305490027155752,0.00972892653191047,-0.018664833226339425,0.012775954389491358,1.0217407691574514,-0.03045817139831158,0.609375
-0.2511582224120697,0.10421271193001798,0.09607476065128107,0.3555377633729699,-0.0027682038027811062,0.010857962757758955,0.008993239099505704,-1.2376243578144082,-0.01662534232540189,0.007668791837292808,-0.0176200291733211,0.014189828375350128,0.9436129736490575,-0.017544958531658376,0.6171875
0.6755435330135957,-0.039326774233078975,-0.4223875028045836,-0.6911269944856765,0.012103139113490332,-0.005229576293142806,-0.02103669047013456,0.7679466408879035,0.0016127131346091433,-0.006213917782777509,0.00434873017746106,0.0021155906348924447,-0.311431319010403,0.02998644381263248,0.625
0.726081605011188,-0.1017581934847092,-0.4122438635209811,-0.8073938252042491,0.011422404187197886,-0.012032251620261697,-0.023695511889428287,1.4590049897661195,0.012263544807551268,-0.010671271871285394,0.014909923176877005,-0.006851424649293312,-0.8856032100262142,0.03596502581308479,0.6328125
-0.04562223818445145,-0.03228331157256312,0.05524908564756074,0.010238951655255237,-0.00231990242310582,-0.004068753489431312,0.0004071716561978161,0.322000619038899,0.005931442627500847,-0.0025012999125578026,0.005201435087413263,-0.004433288493920007,-0.30421440580301495,-0.0005638254971560519,0.640625
-0.20306802401396076,0.020749471037801753,0.12411115703029876,0.2198313570071446,-0.004056434912202757,0.0017725898468067057,0.006068038027395352,-0.3241361368651381,-0.00222966158786594,0.001801674813165093,-0.0034411257146287596,0.001959091018757877,0.17425070316279864,-0.01048457302542807,0.6484375
0.4828018264069112,-0.00033439169518644304,-0.3196423165598163,-0.46214595935869607,0.009262193274808272,-0.0008909290554343908,-0.014584277705158959,0.2532633409580447,-0.0037924624398299775,-0.0027020287796284625,-0.0017868468092253943,0.006005126957977045,0.034267332621170675,0.019441758553218873,0.65625
0.7436629345518612,-0.009625990608150841,-0.48917145578685595,-0.7237100348621179,0.014273780744711743,-0.0020401092229801743,-0.022471107784700815,0.48696905021065423,-0.00416727484902816,-0.004506742566993289,-0.0009447837421130975,0.007394474968361658,-0.030505413118043966,0.03100885236045995,0.6640625
0.0904816621537513,0.017206570370011554,-0.07317668634891156,-0.0679612852555864,0.001766490962155563,0.0012295700180906962,-0.002668829812549712,-0.13421860466767915,-0.0038799617564899314,0.00023201616064548754,-0.0036834342389125622,0.0046125242441867305,0.16553919906981054,0.0021770542680972635,0.671875
-0.47220270318215496,0.01143189356416165,0.3066149727503565,0.4657156298656254,-0.009755826556751127,0.0009056466976844418,0.013849381033434085,-0.3618192442995512,0.0014778417541159875,0.002357852088726612,-0.0010825758382570349,-0.002231866688560362,0.06643355362559654,-0.02096916683445466,0.6796875
-0.29384339177458496,-0.04325543954877377,0.2256535735713027,0.23442444496696563,-0.007579901899561155,-0.005134767162799133,0.007540176619934767,0.3128867372759029,0.00976649448448828,-0.0021525824230052143,0.007789737251089509,-0.008714971531416375,-0.426150082108191,-0.01016544223894012,0.6875
0.019785811072899364,-0.07862754381258763,0.03974304877400646,-0.1055820052867665,-0.002170745910310164,-0.009148546857984748,-0.0023981103718084848,0.8515019583778907,0.013593265929275764,-0.0059611757875667765,0.012958865014625275,-0.010796448735937735,-0.7286105815991744,0.005186878454575527,0.6953125
0.05132603808272403,-0.021755636008071774,-0.019639728686425502,-0.07192760223408631,-5.2761666962872936e-05,-0.002983538847369857,-0.002233596537235152,0.2605736215719371,0.0032992061978213386,-0.002235566052515111,0.0031158864788868802,-0.001787530813401638,-0.1989175286213929,0.0029817292897618528,0.703125
0.20156964026155794,0.11845539431542204,-0.21115363676322663,-0.05852984661255224,0.006668374062888386,0.012173366942678588,-0.004001879621032123,-1.159573620048796,-0.022623624832223313,0.006635300147373108,-0.021351427172400378,0.021149003201392447,1.1124934674413642,0.00032138050405236876,0.7109375
0.3013529888529421,0.19308763902990994,-0.3259601838157709,-0.07135914322862448,0.010679934486318435,0.020226121301541177,-0.005559628225160137,-1.9046607069736539,-0.03657427872025638,0.011267096018990883,-0.034430204905599,0.03354839583760504,1.8119470067561687,-0.0003155752883603948,0.71875
-0.4169007754659259,0.04735672900161931,0.24660693450438245,0.45164397099882087,-0.007644288348540459,0.00477150850642308,0.012876479832249599,-0.7156723246877086,-0.005300690957257357,0.004552389428718768,-0.007395248892241742,0.0037662297065191924,0.4034065620373438,-0.02093627677271712,0.7265625
-1.3415941388735673,-0.19734944075234176,1.0220172225282387,1.0627934880866374,-0.03280553548471029,-0.021320482255200758,0.0355869712982646,1.423083460532512,0.04505440336204526,-0.007967632220185537,0.03719772556460634,-0.04324650182724275,-1.9386830709067904,-0.043854650417989874,0.734375
-0.9066081784358994,-0.22740820565487163,0.7542060097710265,0.6142471395363561,-0.02487103184310798,-0.024812226652108894,0.022193432365010462,1.9653408810660984,0.04702672806963714,-0.011941406785091412,0.041110471119363404,-0.04321441938172176,-2.181794320370656,-0.023888773618436363,0.7421875
0.36565118303457933,-0.01469659452833828,-0.23085759438485823,-0.36445269242947725,0.006429746698990478,-0.0023769287200511714,-0.011419046885702697,0.3451441744592,-0.00034801292392816886,-0.003142069800557849,0.001009494649014388,0.0026210914518604847,-0.10782922127024325,0.015531224406725858,0.75
0.2895538344691037,0.12725544914968137,-0.27665198659646595,-0.13365994627490274,0.008700624567710117,0.013083619221948015,-0.006579098701489156,-1.2083892618885064,-0.02485764218177061,0.006839927011832422,-0.023114999525318047,0.023442358021696835,1.2012470305511938,0.0034601964380997544,0.7578125
-0.9071117396022108,0.06747384217926657,0.5546327201435379,0.9431773473263052,-0.01697597371633282,0.007220824883122423,0.02761607910527177,-1.181442636337421,-0.005096197864495101,0.008093236441890101,-0.00945364075781318,0.001701063266461031,0.5503612274027113,-0.042439913766578935,0.765625
-0.6330323582723839,0.008507095395605613,0.41253960087501307,0.6149415315280313,-0.012988597398494454,0.0006646791937360444,0.018470186121279177,-0.41152290481891984,0.003219726905734836,0.0028604413893328195,-0.00012397270312741266,-0.004403089510487723,0.02603114476163609,-0.027401752391285724,0.7734375
1.3043843907845118,0.03089208681057448,-0.884522241133709,-1.2123852655117613,0.026669207929334054,0.0020659174663457823,-0.03825418623221393,0.3397472728628636,-0.01563012516278311,-0.004239248843342909,-0.009485645624669642,0.019448578533829728,0.390165110596378,0.05153665190169068,0.78125
2.1763348151736923,-0.00647050332979836,-1.4364163856841294,-2.0879186503450287,0.043228972525875986,-0.0024548210918202387,-0.06467326112673927,1.183588028447858,-0.01572831155812614,-0.010656251190258441,-0.005565307798928706,0.022968849440582816,0.11453559248068158,0.09006268265718795,0.7890625
1.1478069492669571,-0.07004467269806762,-0.7136368103610425,-1.1767568555158285,0.020790031314631974,-0.008816590580300218,-0.035503205419335174,1.3365194386381272,0.0034225998430109476,-0.010399978073613881,0.00826900366564262,0.002422732694151283,-0.5578538656275629,0.05141859484738463,0.796875
0.22840868165067882,0.0059306168138283395,-0.1565780477926047,-0.21379031205963955,0.004293023320215984,-7.8629002523106e-05,-0.0069613676470827975,0.056629122866321685,-0.002930617148006226,-0.0011447457058863975,-0.0021340489059670583,0.004260675199750952,0.0715565963278416,0.008524061981185826,0.8046875
0.17339424774748047,0.12364349175346905,-0.19750583041642888,-0.027735016174991113,0.006303142426399161,0.012741675134450575,-0.0031499642809771104,-1.2281151753844104,-0.0233175746565028,0.007107424148892142,-0.02215851978582169,0.021601450412579846,1.1579020545257328,-0.0011714956956033313,0.8125
-0.16505336098144152,0.09406965103442325,0.04929841543262312,0.26623608411719546,-0.0013738484776594675,0.009719541841649085,0.006310000016680267,-1.0872237056718992,-0.01549868080464459,0.006614073672353787,-0.01612282772171764,0.013559831658354907,0.8568659526208946,-0.013389802608789518,0.8203125
-0.7475310470856289,0.03252925360753884,0.47658689163804646,0.7544611668954992,-0.014791918278900218,0.003347623909130731,0.022390771568564116,-0.7285592072990836,-0.0001441176257885271,0.005024812110586411,-0.003912000835892786,-0.0019344157108605465,0.23969119384000306,-0.03368200803787317,0.828125
-0.7246148514075811,0.06510739185968215,0.43693771272167053,0.7657367263573885,-0.013422735342495155,0.006867471127263714,0.022329193409249607,-1.0628050546684216,-0.006073108054724909,0.007127690051534142,-0.009565039449043569,0.0032578057479498755,0.5432173430453274,-0.034719632718066974,0.8359375
-0.7823254308116598,-0.019373008993490603,0.5305168801223558,0.7258149375554579,-0.01679885181160043,-0.0022825938202170742,0.022439390507781133,-0.1898104222318684,0.009296463433638066,0.0016376009918312646,0.005083617876359438,-0.010219781001236586,-0.2442668939366562,-0.03176810096407768,0.84375
-1.4166471525308177,-0.2937159434513768,1.1365430642567307,1.0290350653415012,-0.03691087039345264,-0.031740661165442094,0.03603533036093464,2.412600316623601,0.06264866691650489,-0.014180341237626938,0.053930572787050206,-0.05866343122642694,-2.837218493036488,-0.040884768738937594,0.8515625
-1.0828185212156085,-0.3637140591795635,0.9641433664645855,0.6331493170182307,-0.0320451849622509,-0.039517676255318136,0.024862427422586708,3.329581349347436,0.0724533722055619,-0.02042064836035488,0.06498007421101616,-0.06578842114255695,-3.4585961977352255,-0.02270291676013105,0.859375
0.6166713622375513,-0.053491749452742744,-0.3706539113481278,-0.6481909200200526,0.010534167776017858,-0.006728781080619463,-0.019551462396449757,0.8886862260074254,0.0045711105692719765,-0.0069060380156421965,0.00694421591621034,-0.0006481457142210838,-0.44705012531659516,0.028298673049345545,0.8671875
1.1856835465390951,0.18973928018935346,-0.9125560173426663,-0.9232076639489232,0.02850119585847004,0.01938310974074774,-0.03183226867432762,-1.4156848875334636,-0.0427848417908784,0.00708831830579369,-0.03638051824043356,0.04236468743862319,1.8522247756683952,0.03666273837786315,0.875
-0.3516890433168873,0.09069773817239962,0.1722225099404546,0.43735366307085405,-0.005199207364891422,0.009444546292427672,0.011726158015792116,-1.1459684774102763,-0.013462234151097093,0.007205102746542556,-0.015013521221526306,0.011072172127041346,0.8101744522406089,-0.02087213318203761,0.8828125
-1.3226647391531658,0.026409615613938956,0.8596778029865713,1.2961695908193098,-0.026539831575139387,0.002984153783785908,0.039221860971858945,-0.9574747185596897,0.005369328605744083,0.007166035674359924,-0.0012215288406276649,-0.008950446374023334,0.1361829538649382,-0.05715143164879591,0.890625
-0.10975642147651554,0.22463976326417878,-0.07663234340019902,0.35745604232805056,0.003237977481810041,0.023871778942501712,0.007101650616141821,-2.4522695552651457,-0.038979444405857426,0.015240508234196514,-0.03866844103794754,0.034009025949316075,2.0709893282955916,-0.019333863665311625,0.8984375
1.4496508934476708,0.2961541248205752,-1.158993643072324,-1.0559793346244888,0.03666516190451711,0.030802684098700888,-0.037646238916676955,-2.4166908524003894,-0.06360845326520932,0.013150080046772405,-0.05537779686795167,0.061329825688293226,2.8595248236637363,0.040892632631693286,0.90625
1.918698251117621,0.030988237708255168,-1.2933664378649417,-1.8022459837027411,0.039093945255261164,0.0017423083824676293,-0.05646605402379497,0.653802205445787,-0.020367230116092736,-0.006972063221554181,-0.011252966644154315,0.02592064892427155,0.4404798276759967,0.07710847430283807,0.9140625
1.806747540200106,-0.18784064645187531,-1.0725254206721995,-1.9392004122119046,0.030985525140573025,-0.021967201645669465,-0.05722168149036043,2.9315922888114265,0.01915407020323809,-0.021350052410054544,0.02658381000073323,-0.008545479286528327,-1.5959721291791276,0.08627240404530064,0.921875
0.8413489600042969,-0.15061122968036664,-0.45642378240539405,-0.972004126029167,0.012461179682621166,-0.017400967546284347,-0.027985742321067892,2.039695255228647,0.019996633750995398,-0.014514088564739763,0.022953394001911515,-0.01304687046462723,-1.3288397901709643,0.04383320899104223,0.9296875
-1.3394686946617005,-0.13612295111206588,0.9802214599599702,1.132112761016327,-0.031168743260050067,-0.01466030149170722,0.036686433414947095,0.7693943140218148,0.03420731938151985,-0.0038121246107981396,0.02668972001332792,-0.0338534559292694,-1.370821027823725,-0.04763931732047179,0.9375
-2.4689104947158285,-0.19658402748590714,1.769134109916226,2.1442449336795177,-0.05555241487242481,-0.020629446318850192,0.06890320036033507,0.8376076551346733,0.05357855169076386,-0.002893733399451595,0.04027826123603435,-0.05498800575554548,-2.02246394914237,-0.0907213101427031,0.9453125
-0.7351600799776299,-0.03545965538290903,0.5116517568915175,0.6635427549398072,-0.01627460104128464,-0.004055652801255592,0.0207408904896375,0.005278508019906767,0.01177927703577102,0.00033571452916011333,0.007709006991797767,-0.012180755387796423,-0.38958871644439913,-0.028887942600348222,0.953125
1.1832495659410944,0.23794436303020763,-0.942457986717692,-0.866274597274206,0.02967516386154961,0.024624662936929026,-0.030762444388193408,-1.9322162624229422,-0.05128003067229916,0.010383567905911491,-0.04463797448855798,0.049684049282589314,2.298774049305384,0.03352988012160592,0.9609375
0.20894611041137862,0.16389249775780246,-0.24583550068362445,-0.014429683747178351,0.007996447107439382,0.01710911587040773,-0.003371351834890148,-1.6416668910216599,-0.030700749184857438,0.009699553819227468,-0.0291622286789648,0.028151310124872864,1.5341713851032015,-0.0022640509221153286,0.96875
-1.6439073890687677,-0.16381160038333414,1.2020397818872532,1.3931159362336274,-0.03810267171752391,-0.017499380643501726,0.0451825679341248,0.9081242266655619,0.04145375390068303,-0.0043236075368142425,0.03230894050614008,-0.04127919256643178,-1.6518248642135016,-0.058549026157104916,0.9765625
-0.9141162827420176,-0.1576912631783345,0.7126002115837298,0.6990819108147167,-0.023141867312262594,-0.017233759290496527,0.02370523753902675,1.2181867366988135,0.03475978412955621,-0.007169677809651459,0.029177778457691886,-0.03267242683119722,-1.5363789449170009,-0.028614074429872977,0.984375
1.2646900994234378,0.24478082952266492,-1.0033103131640162,-0.9391220444452966,0.03158671313227541,0.025314625505456708,-0.03312846791074904,-1.9607828546828576,-0.0531153744128566,0.010472776812318636,-0.04604419877224234,0.051564495338436774,2.3685536021644897,0.03654558625096809,0.9921875
1.7158214444228832,0.4482055333096563,-1.4388721733191348,-1.1434201604183372,0.04608304604564131,0.04717308115720084,-0.04262972891366441,-3.901361857950427,-0.09253420469536294,0.02229075994255164,-0.08221094808496021,0.08730552616295498,4.289886432314572,0.042488887706610884,1.0
0.6217420779033208,0.127692232250077,-0.4970108029856127,-0.45177050468575725,0.015431022945611002,0.012946485229579646,-0.016276172200954363,-1.0422960043709122,-0.027486408246118456,0.005384116406279465,-0.024135139807955282,0.026987153246449264,1.2319157758809798,0.01718844870049973,1.0078125
-0.024583979236266932,-0.35507643716492837,0.25655512440632944,-0.3705222475283056,-0.010459676852000522,-0.03914994393152614,-0.006205668216357485,3.7779863009796575,0.0627928946272568,-0.024549043286302995,0.06048573093073114,-0.05333860239972809,-3.2934554215362306,0.020658723762131872,1.015625
-0.3028263447405599,-0.49568286229761077,0.5347277440955539,-0.2616560209677363,-0.01978488347041414,-0.05427902386245239,-0.0006589424540183874,5.136427585368179,0.08977895897706058,-0.032870424942354905,0.08538788833644846,-0.0776990407672944,-4.618903978109153,0.017945926302815454,1.0234375
-1.009968561511174,-0.20765926855481132,0.8089339487038473,0.735646393811721,-0.026384278817873273,-0.022613963750874412,0.025560275518295397,1.701544564153406,0.044317917211688235,-0.01014696906350593,0.03801683585881822,-0.04129734804627226,-2.007343115220042,-0.029476021000495525,1.03125
-1.1979625106071026,0.14896278761184645,0.694019521188204,1.313976943500395,-0.02071550855326475,0.0162315612448847,0.03776642184246318,-2.2006761055190993,-0.01725860543835586,0.014931935795908017,-0.022596706611199894,0.011049337842039278,1.281994381115798,-0.05968006329143396,1.0390625
-0.12714976880749504,0.17229693969455923,-0.03115013257525299,0.31601171126854316,0.0014978669776694593,0.018198689389598992,0.006576265776342207,-1.9026704902239282,-0.02961808178846503,0.011752615190492005,-0.029651165911380038,0.025916368318872045,1.584883704614689,-0.016689734140128597,1.046875
0.7295737305737473,-0.08364875646583517,-0.42769114049038415,-0.7903948553900293,0.011990200076043392,-0.010065357143785522,-0.023521968143595313,1.2670316223581377,0.009025604307536534,-0.009458876709533584,0.011793271772677978,-0.004033753689017685,-0.7175018089581693,0.03499740514332165,1.0546875
0.09581057411074788,-0.16239774695212372,0.044946030282215714,-0.2736325878501711,-0.002879943660174761,-0.018288110449833556,-0.006246962458027084,1.7842665842526835,0.027824291520652307,-0.011990410060101191,0.027106220993039998,-0.02274828674198714,-1.4986439025945284,0.01365045586250474,1.0625
-0.8130688382628757,0.10884976728855347,0.46660702083353184,0.8987895981031551,-0.014018272104888882,0.011661399130255249,0.025759145862134184,-1.574680575329807,-0.013109893893940017,0.010494873015690324,-0.016808935489279198,0.008939962177708594,0.9410931132664746,-0.04120258295593792,1.0703125
-0.3590552408583934,0.35747635659710547,0.0007682397800837199,0.7436858881399095,0.0017263029237587068,0.03843222156146592,0.01707124541632636,-3.9962220602271397,-0.06053442214859362,0.025376804961710117,-0.060733798547655496,0.05159269374016919,3.281636039330685,-0.038068541115712194,1.078125
0.9244339971187634,0.29470650148731875,-0.8074503752477575,-0.5539153681354119,0.02594257362794861,0.03093128305093447,-0.022020215615209077,-2.6703184788555387,-0.05931538932292761,0.015398606504110034,-0.053631141486752736,0.0555916958007651,2.8039120086194953,0.019175243204677183,1.0859375
1.484899123230651,0.10976232972828291,-1.0564791502381117,-1.2984585351727933,0.032357223911007114,0.01053802783639004,-0.04207699949153013,-0.40918381397016157,-0.030946383425127816,0.0003298785403999857,-0.023518325316823883,0.03334722656000418,1.135528836884793,0.054153120405601315,1.09375
1.1239772792247387,0.010674424982010308,-0.752501645668752,-1.064834746250459,0.0224801003902506,-3.646735836698603e-05,-0.03329354754583437,0.46471801961424564,-0.010664806145468466,-0.0048051901929967574,-0.0055027909137127925,0.014458096468043491,0.18823827219467582,0.04542824990094752,1.1015625
0.7151554041713524,-0.08491144913104201,-0.41732691136704797,-0.7784405027591883,0.011701646643100447,-0.010197691365956331,-0.02302874859954816,1.2752650253131697,0.009363668394191092,-0.009486076761686928,0.01204571707058886,-0.0043809598533346055,-0.7302104415582173,0.034413613304357216,1.109375
0.49470409919341923,-0.20951178464434428,-0.18625521187293737,-0.7042736061355168,0.0039166088637369225,-0.023609708747829895,-0.01888709006553589,2.4907632370760093,0.03307375335259908,-0.016971527448841804,0.03403643940895868,-0.025657304286855302,-1.9023278012321876,0.03305431023739973,1.1171875
-0.0061414910853174595,-0.21910007475136836,0.15251902674601023,-0.23643159953324053,-0.006460259549887169,-0.024386452448868338,-0.004290708862351618,2.3365270081328426,0.03862032035794428,-0.015391427537417396,0.03711437974898107,-0.03241992346531619,-2.031885566950437,0.012904461953315434,1.125
-0.8090679433478909,-0.1142064936873852,0.6128904632634372,0.6464772957541894,-0.019858313015243725,-0.012571139431191954,0.021408447003153,0.8074299997838873,0.026256254193752975,-0.00469032097268677,0.02142477166241526,-0.024950565871815076,-1.1252941239212204,-0.026936679786240123,1.1328125
-1.3485151581995927,-0.042020851156407725,0.9208143090308311,1.2424167362344842,-0.028817367722734563,-0.004443488204998947,0.03870998346113255,-0.2383672617366123,0.017643901210786222,0.0026158414550632694,0.010585832936073281,-0.019649774488680778,-0.5001331748832766,-0.0538270176824766,1.140625
-1.3108910659327624,-0.00040222293073916525,0.8690800117489597,1.2539582380646144,-0.026978831879103167,6.34601726311601e-05,0.038364260242857974,-0.664131583778627,0.010006579714956195,0.0052836684654874785,0.0033403322778594994,-0.012901178070293295,-0.11125644862154878,-0.05493587869312447,1.1484375
-0.9016798263692591,0.07483514964750256,0.5495037087986739,0.9470930792272497,-0.016741285082524898,0.008022089288913766,0.027663742122063708,-1.2584218279587887,-0.006419379954446913,0.008584105727407776,-0.010726141253448633,0.0028587002646144038,0.6190308812739995,-0.04277526041354936,1.15625
-0.4653413226760059,0.0763699622907025,0.2591831343770493,0.5308890207117006,-0.00786844488831671,0.00795260281741582,0.014791660613194564,-1.050923804899165,-0.010042924071575674,0.0067438193955189,-0.012233407505124751,0.0076746513208922834,0.668434477641093,-0.024772724003275137,1.1640625
-0.31008550019798664,-0.07418548629524496,0.25478282771752253,0.21410594513040082,-0.008701208522391878,-0.00848934352055762,0.007385258078910566,0.6360927526403358,0.01534935042315209,-0.004190904211305121,0.013134256380508946,-0.013592657339009388,-0.7139840184075466,-0.008763102685719906,1.171875
-0.543690326135678,-0.19546277995157027,0.4898447041209404,0.3034683575921165,-0.016657638736570956,-0.02153668925520143,0.01204502461166988,1.8101565655994192,0.03856141460168295,-0.011396441249822815,0.03459204538134451,-0.03448359942341959,-1.8564166009450922,-0.010772396558314036,1.1796875
-0.6379950677757915,-0.10913302605386603,0.4971080278149759,0.4921590864794896,-0.016327432399820815,-0.012101669427644296,0.016518554383417462,0.8386593631931896,0.024042859645739094,-0.005096450130093252,0.020063353831946903,-0.02233673105229079,-1.0641006950425005,-0.02022565339970713,1.1875
0.21747626179341284,0.07623486532320317,-0.19088891706805522,-0.11865912384216416,0.0058416687015475305,0.007580527795565634,-0.005228749686978792,-0.7027671963761541,-0.015267380612740787,0.0037056755162322708,-0.014152626341012015,0.014864906359504387,0.7224449077669459,0.0034574499983090973,1.1953125
1.7868231104807504,0.17441579597000723,-1.2974876823847066,-1.5129282982681769,0.04017786544749696,0.017402193078760137,-0.049779301766541446,-0.9460377031305274,-0.04467806341180345,0.003384784913918543,-0.03546183038933451,0.04633994003008138,1.7588423615511868,0.06242275407874027,1.203125
2.6324675790298304,0.20285587319325168,-1.8806793768065908,-2.2939789801464707,0.05806415926631093,0.020032398295262425,-0.07429185361818427,-0.8146239555271253,-0.056220289170791,0.0015348008412021106,-0.04275503423637579,0.0596075489013424,2.090656387016369,0.09589826263637988,1.2109375
2.011326174170853,0.2517134659273541,-1.5032847372286233,-1.6461538673795602,0.046816080683739845,0.025671352857637202,-0.05503333452631357,-1.6536349332657376,-0.060088125491009156,0.007615918171241729,-0.0493636768937582,0.060522227541689,2.493194870118618,0.06714168878413028,1.21875
0.9082799622160449,0.2646876648353664,-0.7790030740948578,-0.5740968307017708,0.024841269578305666,0.027676881221412576,-0.02217322228867784,-2.3578907521129335,-0.05389513809983244,0.013419943921377344,-0.04844153508141889,0.050873311778155426,2.524409417059978,0.020485839785793353,1.2265625
0.26096078000286943,0.15437891876599305,-0.2747952988001711,-0.07654233364687851,0.008838314382186043,0.01604329307963456,-0.005138221544417604,-1.511900515654484,-0.029420249267647147,0.008810677622122391,-0.027682301853258,0.02725169926197724,1.4501874231114091,0.0005056002102505041,1.234375
-0.5431557875956057,-0.000263116357635505,0.36009122129118243,0.5187350830437856,-0.011446063010464446,-0.0003316337681172992,0.015658822101732375,-0.2710413245841389,0.004084930522341693,0.0018718894510617622,0.0011232563531958376,-0.004777801053944787,-0.0476696658314092,-0.023082288871119412,1.2421875
-2.0433662502973844,-0.08265655236966658,1.4078274602814556,1.861185319724825,-0.04389127906107031,-0.008486775493637992,0.058425400978547,-0.15839622999508354,0.03017214043360748,0.002944876154607997,0.019528074830659933,-0.033153127872440666,-0.932512754008948,-0.08009205885805043,1.25
-2.9112020720526055,-0.1664570383805208,2.0399022931280433,2.6000143227961843,-0.06368418612936547,-0.017122986113483434,0.0825374467384733,0.29021718555578985,0.0516496760236333,0.0011196464318637685,0.036372547763793894,-0.05505846620160653,-1.779089960063805,-0.11084534995717339,1.2578125
-1.675210521126959,-0.3718697183485074,1.360208748746025,1.1904510628859921,-0.04424660710800323,-0.040089189382731184,0.042198771186238083,3.1127561304370204,0.0784456000531611,-0.01833750134824057,0.06806775217204196,-0.07327332748378339,-3.5822010185552853,-0.046676274417542164,1.265625
0.6200245238935836,-0.565284481616159,-0.0305537724661007,-1.2218108637854634,-0.0030447033453369476,-0.06232540020000891,-0.029238337120468343,6.350982712650368,0.09498081527657613,-0.04170549329331131,0.09468547619776492,-0.07851198369601618,-5.188749493448564,0.060691623467143484,1.2734375
1.5358605399488217,-0.488437690817882,-0.6890565817812928,-2.0134316426723586,0.017531326609288918,-0.05447318657877369,-0.054857226763275084,5.999990886951466,0.07436354400455797,-0.04056528019912679,0.07890050609086005,-0.057188138403052376,-4.4030369520439665,0.09380069646736704,1.28125
0.5954344803207551,-0.15145337830507552,-0.2916977321758711,-0.7367843325247078,0.00752173727049272,-0.017365872234963314,-0.02076821983643816,1.9223464637089225,0.02204241531102138,-0.013472443354512375,0.023804696971906212,-0.015821243408044056,-1.3569076405649396,0.0335405261827187,1.2890625
-0.470426907530074,0.1968075029203011,0.18130383554393717,0.6729008365757573,-0.004765159811214162,0.0210410042519476,0.017234573507023624,-2.3399721630411285,-0.03130777309077366,0.014949378777234512,-0.03287064698200679,0.025983686382577864,1.78398582471559,-0.03256988243109821,1.296875
-0.590905110638417,0.42417654299102575,0.10895775796744547,1.0406774439752713,-0.0011924733387363707,0.045807225656426434,0.025088436479031376,-4.827549052262377,-0.07054936583208846,0.030943780834436333,-0.07151184189215234,0.05934376063823095,3.8810848982530737,-0.05184129030175748,1.3046875
-0.47072877866750157,0.5343427828240552,-0.04426823879526641,1.0458091719722928,0.004153592799103679,0.0577040118474086,0.0236639548941711,-5.940794001443748,-0.09092190540317674,0.037898230992579975,-0.09073813754149017,0.0773449661891461,4.911210962167096,-0.05380477309192064,1.3125
-0.6608580133207371,0.4657130299405547,0.1274735767665425,1.1503148454785508,-0.0014779348103906745,0.050343873048880626,0.02798493319424161,-5.3054465103528985,-0.07733131774321801,0.03407896443880994,-0.07842462346741999,0.06484984111645208,4.2595979491805736,-0.057390682213597964,1.3203125
-0.4747738694549202,0.21813054019704714,0.16945963897158436,0.6981245888711617,-0.004273401398163027,0.02335273928530532,0.01776199704577551,-2.5687974243138183,-0.03503239285952555,0.016419013835897618,-0.03650842532464057,0.02913766752856024,1.9808493614262788,-0.034045438272503135,1.328125
0.5202952809544092,0.001365854347216864,-0.3449632649241474,-0.4938933958896502,0.010040010036981638,-0.0007178635843340496,-0.015739887340539792,0.25289236705734364,-0.004394101939479479,-0.0027479185847643214,-0.0021860320406421755,0.0066854098670483956,0.053333169601872295,0.02094871584635021,1.3359375
1.514996269181029,-0.06333773752192627,-0.9609843188993714,-1.518842638725392,0.028370932139168085,-0.008276147225962097,-0.046294248589802856,1.4526476844965628,-0.000603493485290018,-0.011577135382209431,0.006069259632109085,0.007351968454041936,-0.4655930864707823,0.06633216228757946,1.34375
1.7309292458427072,-0.14097240255613533,-1.0528908118478482,-1.8145382763714968,0.030670500497149113,-0.016830419276839908,-0.054089508465684055,2.392697081577487,0.01146443170390168,-0.017818962815363475,0.01876557387675025,-0.0022026506446741517,-1.1676373305695313,0.08019285335967878,1.3515625
1.447569220344084,-0.31111267392258585,-0.7518068284092713,-1.733658801813112,0.02045860396751517,-0.03516516009084412,-0.04892795038660127,4.063935828398989,0.04370880052197605,-0.0281240655269515,0.048745080121897974,-0.031109325400332767,-2.7670873017639757,0.07912716511310512,1.359375
1.0891943653493092,-0.3595970713712145,-0.4813496527636411,-1.4428663083147564,0.011948345512463479,-0.040238169901021664,-0.03927359877602542,4.397641875480419,0.05502975647069325,-0.029822497192464815,0.05807730750241068,-0.04226552481068591,-3.24513555521519,0.0672510012452418,1.3671875
0.3788414892342958,-0.1927283950543339,-0.12155522489931357,-0.575658466763119,0.002037440774968241,-0.021728726337011093,-0.01514735339876174,2.253373115085745,0.031005205891981115,-0.015316512448843293,0.031489726551834636,-0.024338919394124147,-1.756250422892929,0.02722531320601382,1.375
-0.8387036796531159,-0.029885283269036507,0.5760915639539902,0.7701767183584485,-0.018208971241427337,-0.0033904735051792,0.02389114249301296,-0.10671053660364828,0.011588310340054316,0.001170898113479514,0.007042163382278385,-0.01238764736386892,-0.34591330152527183,-0.033530221453027274,1.3828125
-1.8287097341428311,0.01977331276855219,1.198350265383547,1.7718503495223537,-0.036868843651384424,0.0025293867468820395,0.054069990035226535,-1.1431093464921074,0.010418046670111187,0.008955233760311493,0.0013558001312901154,-0.015284932611535297,0.033895243403665516,-0.07769527298787447,1.390625
-1.818330172456598,0.09370669332904441,1.1424373560228775,1.8450801832691706,-0.03471822707286394,0.01055622535398391,0.055159686378743314,-1.9280374140558265,-0.002727619254554043,0.01394348199544863,-0.011345440943572338,-0.003934242689045394,0.7195817909470237,-0.08192632603027176,1.3984375
-1.1050756933675632,0.17509257374311776,0.6167818350344385,1.2545491200456733,-0.01819461023107901,0.019020265769322378,0.03563770203527526,-2.4327829566107293,-0.022583092786475963,0.016308821087714975,-0.027332595763359873,0.01597600114806307,1.5313831985415884,-0.0575135058229428,1.40625
-0.6859151475469963,0.08577736864886137,0.3998305816966631,0.7534816091524781,-0.012109539091301625,0.009094546026911095,0.02157881745581624,-1.264872299049754,-0.010011398815346713,0.00837049164344704,-0.013215867093085656,0.006795259350664112,0.7378180676276715,-0.03454785890857212,1.4140625
-0.9866604168659828,-0.06991720439986235,0.7026369154333426,0.8661135633224262,-0.02228057579560527,-0.007662284316480351,0.027501035085562564,0.24382528867633513,0.01981308742759388,-0.0008823166107082589,0.014335456380571229,-0.020090951004148386,-0.7291579643038522,-0.03720494054192728,1.421875
-1.2988170962184094,-0.012769816134818682,0.8694633757158369,1.228112105256497,-0.027037619781917915,-0.0012899406584136262,0.03775065509015396,-0.525616663220039,0.012101915372046546,0.004386538831968105,0.005426876380966301,-0.01468133338124615,-0.22500639188844765,-0.053673937597899006,1.4296875
-0.6032672081944798,0.16624084185925458,0.28828254716239826,0.7636904661137992,-0.008264760919299865,0.017789174000268866,0.02056527359295786,-2.0813369489809586,-0.02488781582152505,0.01346139044444945,-0.02724950506469736,0.019927691597598746,1.4899254959610302,-0.03603688958321394,1.4375
1.1292513382293183,0.13438002333466964,-0.8366048128556386,-0.9279998927087462,0.025819731039199965,0.013409153772084242,-0.03117211296644508,-0.8562549648082892,-0.03257060895499018,0.003588824225196543,-0.02672654022249898,0.033359125249505774,1.3349389714103836,0.03779401093596267,1.4453125
2.7108678435895914,-0.07259199809235395,-1.7445623810137152,-2.6727110237620897,0.05225184796244911,-0.009919957989207955,-0.08175912584290024,2.16194613480136,-0.008141227752815634,-0.01752248915141847,0.004251383546998186,0.01851145840032231,-0.4549303440856793,0.11635798646136006,1.453125
2.9170417493996506,-0.12684080128282074,-1.8462940542601751,-2.9327089307711267,0.05502668177468375,-0.01593134957152674,-0.08888601222731757,2.8482400698102834,-0.00013712879305701706,-0.022137815403561262,0.012964139640521868,0.012407157398533125,-0.941091416964281,0.12834754311862698,1.4609375
1.767679880028875,0.0017150851934022247,-1.1735072362363819,-1.6905046962262473,0.03527281793060967,-0.0013578027379240966,-0.052523419347916045,0.8896736192891571,-0.014031600267200555,-0.008289237711382213,-0.005802835173650622,0.01986589798551822,0.1570807372098708,0.07268066550805152,1.46875
0.4619269901668322,0.055503607601808225,-0.3446582606949659,-0.3793660512826478,0.010306413859948543,0.005186756159036331,-0.0129056457604372,-0.35307338780833536,-0.013510573454821675,0.001185177287377603,-0.011303570975305457,0.014311565899372757,0.5501023141024272,0.015175495335675563,1.4765625
-0.059119652420003894,-0.01955489305298852,0.05299303027725372,0.03733881051935727,-0.0022602087701754365,-0.002680941290803482,0.0010956409838958562,0.1800479347028876,0.0037621263068519577,-0.0015879608386960712,0.0030516985528114024,-0.0025930946912442487,-0.1872351712698706,-0.0017741678883416113,1.484375
-0.30783551892431704,-0.05592518649394357,0.24346700797386675,0.23393138848343334,-0.008242638380597229,-0.00649795337031398,0.007722947345759947,0.4413301191492727,0.012113524359313378,-0.002951715689551678,0.009997348881957142,-0.010757588673127781,-0.544291577758092,-0.009875564686672673,1.4921875
-1.331322193355126,-0.024803773719518467,0.8996308469365152,1.2456164923246724,-0.02802111582741891,-0.0025766863812437465,0.03849798130136165,-0.41278585206458035,0.014486160573955126,0.0037142283453968413,0.007579968401040835,-0.016828454351282107,-0.3388309221669532,-0.05429782409167929,1.5
-2.602233014773081,-0.03152651217518557,1.7444027817416279,2.4534369461184986,-0.05382395083123389,-0.0026325914361950806,0.07592138822446028,-0.9908050650655132,0.02543473166198357,0.008911659494540992,0.01235672162451493,-0.03126068207272416,-0.5039987270300509,-0.10655043452407595,1.5078125
-2.3587036828012797,-0.06014240661551475,1.60197119350442,2.189921751359036,-0.04969932338545235,-0.005867871337511088,0.06822859855371015,-0.5621379240857733,0.028609330567821327,0.0058855225791715465,0.016568406426810196,-0.03303588363685463,-0.7493880779206336,-0.09460474315504346,1.515625
-0.5785001623706946,-0.01704314518587775,0.3949559430863325,0.5360636913104985,-0.012668836032557907,-0.0021301840813576704,0.01646682167790513,-0.11248813964956533,0.007311982675334743,0.0008963253305863143,0.004102150153494722,-0.007685235929091404,-0.2059486559015179,-0.023468812846305954,1.5234375
0.629144599628142,0.0696961346277278,-0.4621154571177723,-0.522904458947217,0.014010320868724,0.006648077961732992,-0.017603811915087874,-0.41998138253615136,-0.017286380461700057,0.0014189699007707065,-0.014212508377681884,0.018246740434568597,0.6953823879515898,0.02112731982103475,1.53125
0.46873422084467115,0.10317660701507128,-0.37855873341503304,-0.3332800295776676,0.011713951122880376,0.01036406449057601,-0.012276219232261675,-0.858455966825846,-0.021966354397726255,0.004403498255727775,-0.019493569564897017,0.021621409094110373,0.9923422279881824,0.012324211764392703,1.5390625
0.3981560743543498,0.07788791238759409,-0.31559953738165586,-0.294234336732655,0.009656734705464017,0.007649690217972622,-0.010672044420214495,-0.6249282341696658,-0.01696560971782603,0.0029904396006760745,-0.014955488336731182,0.017008206292434262,0.7520236262424009,0.0109744047780681,1.546875
0.7894066868408002,0.045998091250419273,-0.5528914269348205,-0.7029080675014826,0.01667466177018054,0.00398067036564706,-0.022789389979445168,-0.08573789568378828,-0.01434397793388441,-0.000918116246483709,-0.010604085619876634,0.01629135150901744,0.4882393142588457,0.029208297471276474,1.5546875
0.32304777497903886,0.0055755361934642774,-0.2156928925019599,-0.30105311048752753,0.0061264110806846335,-0.00015480355139908163,-0.009745082799056632,0.10657261882395515,-0.0036065532221199745,-0.0015806644146277914,-0.002344278169489507,0.0052399592996601315,0.07629970930706911,0.01240804954522603,1.5625
-0.582299405629371,-0.0704556865869302,0.4345904272800193,0.4789398005840762,-0.014165544502949592,-0.007932755998577429,0.015544068433358812,0.45594821411585246,0.016798458865873854,-0.0027167033164260924,0.013273707809496988,-0.0158851783797336,-0.7013114863695928,-0.020338666758767037,1.5703125
0.012189838753118031,-0.1443100829551504,0.08881115242936646,-0.17351254521276957,-0.004070558433643462,-0.01628039034166565,-0.00342790062685731,1.5492188552051998,0.025275986240079325,-0.010391160618495326,0.024242541304143023,-0.02088139966266737,-1.3378046014837266,0.00898451580816935,1.578125
1.5456304092352886,-0.1392143836184237,-0.9300349528742702,-1.6331090690049468,0.02702608781242814,-0.016544542023464483,-0.04858575665335027,2.278416910759745,0.012580172181970046,-0.01687181506389275,0.018997180101822674,-0.00394101982614201,-1.1666734609907958,0.07223608825022816,1.5859375
1.6230127288365581,-0.046229654949565276,-1.0415975675699376,-1.600532260697519,0.030993522117443696,-0.006475208799727777,-0.04906742999035168,1.3242382664436192,-0.004445623013170104,-0.01088524473617948,0.002833248489151621,0.011053751368944265,-0.29853224962926583,0.06956717278734974,1.59375
0.41386614036113,0.05448295168213893,-0.30779393451453474,-0.3318127695602886,0.009219996060824522,0.005114125414361318,-0.011470907704707217,-0.3689610844319837,-0.012944102523983337,0.0013477921662906338,-0.0109875630988478,0.013654733171241842,0.537065138483513,0.013133363333850918,1.6015625
-0.10709191131338194,0.09096193640999825,0.01101659661207549,0.2043971252783794,-0.00029335395432120056,0.00934727563068535,0.004552113176962557,-1.023633259120749,-0.01538632350391368,0.006139440504527373,-0.015755878974506934,0.01370105694278907,0.8326655817240143,-0.010701064844034557,1.609375
-0.1356888570141459,0.06837884477951105,0.04397140032177463,0.2056876089947083,-0.0014238647591790074,0.006903479319760373,0.004956439571736525,-0.796907537285571,-0.01117849916291968,0.004727073650639089,-0.011801791373937998,0.009941355771070352,0.6208373000113664,-0.010493003427051052,1.6171875
-0.9289669255179624,0.02839788440629372,0.5963780483916821,0.9211016931561488,-0.01848590407437655,0.002986737007115369,0.02763372832384832,-0.7758573865387464,0.0019806215937373307,0.00554117792798829,-0.002688850814169143,-0.004491940092915491,0.18648249100331493,-0.04092790839241596,1.625
-1.6002166105270699,0.0033458838108030827,1.0569820176907805,1.5346991907766214,-0.03268736302467513,0.00062591888733873,0.04695267012743981,-0.8504912152600197,0.011559014538947279,0.006819123198020346,0.0035136056932056304,-0.01534095020447707,-0.09953764312511482,-0.06713490077056089,1.6328125
-0.9067269704153188,0.01990373904943831,0.5848802301474836,0.8876520998309197,-0.018218700493907294,0.0020501478145761353,0.026748189099259988,-0.6711130940784504,0.003294747648400456,0.004845683482099539,-0.001304537975758424,-0.005496437482539106,0.10989227575475337,-0.03932028345669232,1.640625
0.04619548215448076,0.0728188240731694,-0.08161887218984037,0.0352277483932133,0.0024198604545130776,0.007287598643237361,-0.00038034828949317913,-0.7492296176791063,-0.013377142253051737,0.004202868849377572,-0.013088633325922087,0.01257720608419883,0.6769098550317213,-0.0031423288188792767,1.6484375
-0.028051727087467268,0.09533689366102119,-0.045150698763049536,0.13400869874307375,0.001465474003650333,0.009779718123061732,0.0022839816101699073,-1.0298217990947687,-0.01677221832495864,0.006081132720309216,-0.016731898732468,0.015197417412089128,0.8795098338427251,-0.007742707886898369,1.65625
-0.29244756612671413,0.04153817024350756,0.1683902306258759,0.3287554696341384,-0.0053480047781330415,0.0040833224363359955,0.009116150473864455,-0.5921343266511752,-0.005220332555883512,0.003613655229514077,-0.0067531240890031765,0.0042184625995188175,0.35986449573301943,-0.015418654271548832,1.6640625
0.1416331435748795,-0.033593694669053396,-0.06792803162210719,-0.1705603257920067,0.001425809343374916,-0.004311950303950304,-0.0050914447008225516,0.4322206593118797,0.004726502118038752,-0.0034272348384934786,0.004889865241124235,-0.0026497179047906996,-0.30116994608983966,0.00724691325974913,1.671875
0.4279683835809515,-0.06760877959249509,-0.23551000742201963,-0.4834827487118531,0.006340040707902802,-0.008167085821291725,-0.014186167654637762,0.9425238623889634,0.008534822411861116,-0.007021785233697752,0.009906102118977645,-0.004831535939284547,-0.5934421333006944,0.0212571404955663,1.6796875
-0.15255600782017387,-0.08745102045428804,0.16057844156876744,0.04877294633459144,-0.005889460478979732,-0.010016075816494276,0.002539477213943176,0.8574385262552195,0.01649166329847023,-0.005791933993621616,0.014963899067546348,-0.013976906526000235,-0.8243797240537147,-0.0014672040101353088,1.6875
-0.6326861396494081,-0.11368212898771043,0.49516440331570877,0.4785524574988057,-0.01630087788681265,-0.01260584555082398,0.01618097757144501,0.8911823792122283,0.024805548991711984,-0.005437602149746997,0.02082937708892729,-0.023006534798763658,-1.1061192732849547,-0.01961182989625108,1.6953125
0.2256915943857796,-0.09237563657716989,-0.08655315344849078,-0.3179195496408925,0.0015607233185400667,-0.010744136257581766,-0.008749787966156407,1.1021711592122543,0.014445332022925913,-0.007804820275655487,0.014728579306419612,-0.010693128576046585,-0.8391254430768539,0.014621021284383525,1.703125
1.9324009674487135,-0.02701777801371333,-1.2593308118961222,-1.8768851820872698,0.03775065301493866,-0.00455482737373171,-0.057882289865442006,1.2778261484909534,-0.010210311117978542,-0.010956294663500909,-0.001342573924665116,0.01724158372367856,-0.09557327903691164,0.08118272559546076,1.7109375
2.358511963798768,-0.01269011488087226,-1.5522465669415286,-2.269502425666656,0.04677412610708331,-0.003231464503867759,-0.0702059160610115,1.3441804269025726,-0.0160170306087724,-0.011886082305892163,-0.0050145289751654856,0.023901439625380338,0.07149092742759959,0.09796212447770586,1.71875
0.34272893330720083,-0.04253279906633391,-0.1997125481214706,-0.3758322673972435,0.0053227179310028315,-0.005401737869523034,-0.011269821722326396,0.6326724700949041,0.004735290334946135,-0.004950962414753656,0.005846881282920276,-0.0018845466168618157,-0.36801425001689586,0.016358887894161345,1.7265625
-1.9614460711782784,0.007306040990315055,1.29276937836745,1.884871031460298,-0.03989008370993406,0.0012463284769125044,0.05772169353746057,-1.0784319764007861,0.01362798701176743,0.008696052748400327,0.0038695003906286706,-0.018565010829826756,-0.09233085317511487,-0.0822956613609079,1.734375
-1.4242481631927641,0.12119082420481975,0.863270321177736,1.500158221377858,-0.026076149568713822,0.013339609150370281,0.0440240735742242,-2.020631430887536,-0.010619806257887322,0.014057513298691184,-0.017187286250040592,0.004448520008050651,1.006493314743177,-0.06726208181590651,1.7421875
1.064404182469667,0.13163625370608598,-0.7902597441177285,-0.8690557843101194,0.024427094183348732,0.013147355802448467,-0.029285595350419674,-0.8593908751642063,-0.031581178864195286,0.003693053696847542,-0.026071514119118473,0.032262643947618935,1.3044166562782362,0.0352237702227018,1.75
1.4348668716561561,0.034227662129048,-0.9717575225790562,-1.3347345149443437,0.02937282469624193,0.002359616611024751,-0.04208714991168789,0.3713116543028764,-0.017209571314618376,-0.004586359259073204,-0.010425944779693913,0.02131374181004134,0.43158718803684787,0.056732122723992466,1.7578125
-0.9702285735029458,0.021904781320768472,0.6270322865773661,0.9509276533384688,-0.019455653811840737,0.002297470019443144,0.028711682608462602,-0.726041238119749,0.0034513086121925186,0.005274511894602929,-0.0014574057073319852,-0.005929659432070895,0.12285487387539536,-0.042193563930233643,1.765625
-2.3129193187784556,0.1296844457256103,1.4438407759919643,2.357162276075526,-0.043721908872030896,0.014725035721925595,0.0704249660819792,-2.563787892631428,-0.005277910066235783,0.01858208058485278,-0.016109965376390797,-0.0036656809453073005,1.01306327513765,-0.10464242531665051,1.7734375
-0.9890894408540014,0.15146517860181646,0.5542573801514571,1.1167024444717073,-0.016481419603616515,0.016391540618026276,0.0317631641476468,-2.120507110430792,-0.01929868929978931,0.014178939181509167,-0.0236181197288813,0.013620914173636282,1.3220644359693685,-0.05112976949851711,1.78125
0.041356235820491555,-0.002768510115792852,-0.023673772196828223,-0.041832810506868115,0.0002185491422097897,-0.0009119640948404903,-0.0015802119163564573,0.052818858548046486,4.337063567783449e-05,-0.0008906409946253172,-0.00011055742546536332,0.0010010232037487238,-0.023656663821394523,0.0012683667130880402,1.7890625
-0.6114176123658035,-0.15209481584885898,0.5079465441491395,0.41467025914406486,-0.016862281499298352,-0.016789952200263105,0.014854410666973288,1.3138871392887834,0.03144702071517443,-0.008142864836499102,0.027353143946741255,-0.028627474953353094,-1.4601115480978166,-0.016433409360287348,1.796875
-0.22320122078591148,-0.14391723672142803,0.2441431805316926,0.05322189717098563,-0.008771286350556415,-0.01611106548363764,0.003529494141621759,1.424871056563774,0.027004000501011018,-0.009321107054384985,0.024843274267952162,-0.02329256063280053,-1.3530767214900667,-0.0008319270901146155,1.8046875
2.160346072408027,-0.0662202421576769,-1.386335175739969,-2.138130591005572,0.041363190831829016,-0.008938647308186115,-0.0653694643538865,1.812705331868381,-0.00505690055095544,-0.014646871091220245,0.00472606261000185,0.013677574208690157,-0.4405067724146989,0.09315992916492494,1.8125
3.0699477448437174,-0.05524387722444317,-1.9950866502287372,-2.995780345412043,0.05995673570021892,-0.008226944145480688,-0.09199748154657542,2.159902149957971,-0.013981060026866872,-0.017942934671708453,0.0002510728172917812,0.02495146073206138,-0.265149685269514,0.13020231803517304,1.8203125
0.5646054336411417,-0.08533491037381599,-0.3154347533647903,-0.6345985850118306,0.008593856157380335,-0.010159949576965388,-0.018606264213112452,1.2011931960955842,0.010606293980709808,-0.00883430082103013,0.01255321128448413,-0.006047866039189753,-0.7463884222718822,0.02818722768781623,1.828125
-2.185154441781291,-0.061154190634523556,1.4891497380673564,2.0219150505483103,-0.04621889772175544,-0.006070742043543499,0.06300378765556677,-0.4619259130196388,0.027469961829684326,0.005046843428939607,0.016248474751631617,-0.03138028767481946,-0.7447524593946623,-0.08739077775548651,1.8359375
-1.961433304381486,0.0041443931526180065,1.2975253737001025,1.882142506007284,-0.039962068033019035,0.0009021111255306326,0.05763024521543245,-1.0453053446272769,0.014202363014587657,0.00848881446441332,0.004417264303370411,-0.01909290423809156,-0.12182994458447209,-0.08224217374523034,1.84375
0.02449600748873866,0.015168860927044956,-0.024870634569564627,-0.004349598568107155,0.00037299060328015285,0.0010438159237243644,-0.0007730966312819099,-0.14844697313459024,-0.003016291975929056,0.00039870828968483906,-0.003136024230909111,0.003548777013150793,0.14094382097297822,-0.0005460550557061234,1.8515625
1.0788790651803024,-0.036855172744429995,-0.6895316094197728,-1.072660370933264,0.020252213510738575,-0.00516864172209121,-0.03289396786290722,0.9468917452827796,-0.001926477743643463,-0.007834323091067212,0.0027730915377569667,0.006781810808961416,-0.2556140311185465,0.04654648893206708,1.859375
0.8994861306612816,-0.024517327776534783,-0.5802419875273258,-0.8892389443692644,0.01698436077092281,-0.00373703893709707,-0.027382984603896,0.7249293959883388,-0.002721728223065062,-0.006200306540020152,0.001168658168327217,0.006758888484418422,-0.15587988491589272,0.03836361519850391,1.8671875
0.4737339474248647,0.1402849696305133,-0.4073854342632143,-0.297242019436167,0.012785303439591217,0.014389262724431152,-0.011663942350044134,-1.2519961515769253,-0.02856041146041249,0.006902929986850897,-0.025867573608506087,0.0273063749747529,1.3363366751224697,0.010217792668311052,1.875
-0.06392579209419844,0.31563979548800597,-0.1662202469343412,0.4150656246755992,0.006574737160546016,0.033728376630272484,0.007583423722485553,-3.3995595656699646,-0.05540645901183301,0.021224816171863413,-0.054396650780168525,0.04831092448728839,2.9176022647133513,-0.02325191359628342,1.8828125
-0.8122126098322454,0.24965507459961284,0.3733413519977091,1.0574000659671126,-0.010281199392988633,0.02696388587177563,0.02842667274507988,-3.077526964035175,-0.03800220555953655,0.020066941656467295,-0.04095564062870998,0.030417147822588943,2.2461324278922667,-0.050093484173023194,1.890625
-1.2009736225463064,-0.04886901787536654,0.8275712039483202,1.0940757292971155,-0.026018409243171208,-0.005259811303529246,0.03420829668735517,-0.088900959665997,0.017719241408166865,0.001490886541327733,0.011328964667078866,-0.0190836050239635,-0.5510407208560718,-0.04726626957398757,1.8984375
-0.7914000174313784,-0.24883394768657144,0.6885335801925488,0.4782753889818291,-0.023044652153408705,-0.027204576764252874,0.018317066659379135,2.254456803612163,0.04989851154367847,-0.013929982707771104,0.04444778543825139,-0.045214834997736236,-2.370932184074075,-0.01763149853430925,1.90625
0.13019800645179064,-0.15778442999409675,0.019492453522979767,-0.2997023500913251,-0.002069044264184747,-0.017802278684741307,-0.007140216315290073,1.751945110187653,0.026736039605054326,-0.01183019990033724,0.02621657055406949,-0.021670058298591068,-1.4530385558006076,0.014758010988702051,1.9140625
1.001316866231271,-0.0034978634619455824,-0.6573122360046759,-0.9582689086986976,0.019557777498845845,-0.0014996368571927648,-0.029919360931935243,0.5492873364447575,-0.007209522095910043,-0.00520515688529471,-0.002717149050164954,0.01099003131750263,0.047031870162981874,0.041048465233706415,1.921875
1.28888222883381,-0.023340781547313453,-0.8339504096308681,-1.2553688619728245,0.02484364298021527,-0.0038085519090609366,-0.038797636579332107,0.9088032566799573,-0.005910216468214106,-0.007834912591403486,-0.00013791330185873913,0.01100509448107785,-0.11342746781268168,0.05419776570737885,1.9296875
0.6597298839670279,-0.06869607423077516,-0.38991822206212123,-0.7068200837945984,0.01100242914495498,-0.008408518168676524,-0.02112056084783539,1.0732811541362148,0.00693417241924345,-0.008132539640793628,0.009427472282123832,-0.0025299356177274127,-0.5846272583562345,0.031047445639624957,1.9375
-0.513242328471787,0.0503582471690972,0.30348983726193984,0.5450537926325824,-0.009464048306057604,0.0051431359712188,0.01570642727506233,-0.7954679935785741,-0.005097624882707823,0.005167241055584507,-0.007644365419698373,0.0032403661916598097,0.423503711070863,-0.02495320105054426,1.9453125
-1.2098414277293887,0.15540464843528812,0.6936076479483375,1.3282797685768133,-0.020744926498825852,0.016928503712991066,0.038228805769244346,-2.27314153353344,-0.018314463303746458,0.01540778004351879,-0.02366979142330949,0.011910983917663098,1.3405617000475525,-0.060383089824460175,1.953125
-0.7957733184701719,0.03826771907163488,0.500710328940947,0.8041489569300414,-0.015544216447696317,0.0039911489092683775,0.02382134486954342,-0.8133161001764235,-0.0007974292940446469,0.005615149737447331,-0.004762519809303774,-0.0015547781419318124,0.28883514380924297,-0.03592476595540211,1.9609375
0.17815538726093497,-0.1257799499178555,-0.03080043068956754,-0.30805971051296704,-0.0002722284567239711,-0.01434491862467149,-0.007973899533305986,1.4340552084914207,0.020717341284803265,-0.00985749246246761,0.02059406803725424,-0.01629279875622255,-1.1524544798430885,0.014629049748478165,1.96875
0.46761857000006857,-0.11179289955051573,-0.23133648953670316,-0.5697980801135281,0.005952061416581893,-0.012983736887870263,-0.016225772039168095,1.4335002379267452,0.016031546388082917,-0.010194569483105985,0.017373115504713064,-0.011139675839931902,-0.999612578996731,0.02570222060984251,1.9765625
-0.3153821408275311,-0.031817238674885284,0.23129233493015777,0.2665879644437665,-0.007710562965301066,-0.003883481680028648,0.008412620804010035,0.1809387485437398,0.007914399107077913,-0.0012831503207152693,0.005889757469816964,-0.007210120444182167,-0.3219352788070765,-0.011710196227097833,1.984375
-0.7998216504039326,-0.030011702526977973,0.5494287701482814,0.7319121935560688,-0.017455987994147562,-0.0034275043022667195,0.022767938276481867,-0.08623537203813048,0.01130878729961409,0.0009904840340543826,0.006956973786968397,-0.012010181717470331,-0.34421770004625973,-0.03183077250612279,1.9921875
0.4030470957828311,-0.006957554849268368,-0.2614212957693748,-0.3915937449955406,0.00740186059918531,-0.0015585949313554077,-0.012311222779831436,0.2816161853206244,-0.002012465015195757,-0.002791147972078787,-0.00042596092955283317,0.0042001959782234505,-0.03320457048257973,0.016576585916342198,2.0
2.0589858130092917,0.06866106920468305,-1.4071942062572362,-1.8910746034620523,0.04283570012293263,0.005773797460118075,-0.05981156427583183,0.3212837520467604,-0.028096188621323813,-0.005016810939855074,-0.018110321172835623,0.033159476091305956,0.801271519461937,0.08042591591688397,2.0078125
1.5743079095691568,0.05340294683748067,-1.0766358900153,-1.4460159131374466,0.032694256724229126,0.004367918604213561,-0.04581645637568866,0.23756165590091843,-0.021671350156643017,-0.003901226199907874,-0.014110806094905233,0.025699527340564958,0.6204948424757241,0.06127956164010828,2.015625
-0.7316485830389136,0.0017362057632709844,0.4831750291606075,0.7009922201411595,-0.015187853029478574,-2.0993934810891876e-05,0.02130482085022593,-0.3892579136340426,0.005179487814152448,0.002843812269226657,0.001321742895703263,-0.006492086615019767,-0.04478902487491537,-0.031046055505614706,2.0234375
-1.7408016476123156,0.09486619748959386,1.0886622116577587,1.7706679882480982,-0.03311169986420027,0.010636480470535467,0.05288351148165029,-1.8995528569311404,-0.0035209034522733973,0.01366835355276596,-0.011769801431798637,-0.002943239172837473,0.7366297214667016,-0.07871221533005332,2.03125
-0.5775500422827542,0.17749557636675764,0.26489042231527804,0.751279427563551,-0.007498040345885099,0.018999322790051214,0.020122374189394197,-2.1875394665841204,-0.027055440977681845,0.01411749630767312,-0.029252294619346406,0.021912168028124814,1.596469021980296,-0.03569452567302481,2.0390625
0.34965782038424664,0.001180461536672951,-0.22898592602176746,-0.3318122709159128,0.0065208902263841975,-0.0006463976319558187,-0.010558661854388722,0.16769458505941198,-0.003020045911208019,-0.001988807604346239,-0.0016619524220562792,0.0048339512192456125,0.037767921938135884,0.01377412384708067,2.046875
-0.022870316475704117,-0.18416927718303847,0.14112380717772205,-0.18265623321513427,-0.005860640420725859,-0.020587361425895106,-0.0030899472899660625,1.9555854667521813,0.03258800746529973,-0.01293629904677438,0.031180134372850814,-0.02732695048222862,-1.7099136707085485,0.009955808621223831,2.0546875
-0.19163163882066755,-0.006791467158790238,0.13076139723395866,0.17609514321667696,-0.004488751134684834,-0.001232390697188266,0.005130355863299021,-0.022912232472298916,0.0025230012744265258,-0.000140136476306507,0.001242664305446484,-0.002081444116248546,-0.08010031304732794,-0.008121326405799342,2.0625
0.1445674678506058,0.26320820986470694,-0.27497758126291677,0.15603863442182547,0.009464280852698629,0.02792258555017452,0.00022120738498141278,-2.732055082404528,-0.047782914225931485,0.016711978896235043,-0.04601682265472122,0.04261843517318438,2.449090888636345,-0.0110485310950133,2.0703125
-0.21523415806746052,0.11033382981886221,0.06678042224413541,0.330517701950566,-0.0019152814560703963,0.011514527748954511,0.00800984319363203,-1.2849338056766089,-0.017997805295135613,0.007927398265758119,-0.018780829225661034,0.01557623592724199,1.0038987404036666,-0.016326775296617645,2.078125
-0.679033753968171,-0.3066684680621279,0.6555615785338635,0.30893782705329514,-0.0223740929757552,-0.033537097505169776,0.013926558193119701,2.9276045958942443,0.059265856887547076,-0.018348962206733127,0.05404495032359906,-0.05282764152286663,-2.897421613170142,-0.009404983476743125,2.0859375
0.15381739070329953,-0.4037098110521959,0.16982770771534184,-0.596725777553245,-0.008102909161303781,-0.044529365021698485,-0.01248481931673472,4.3889224582252355,0.07001642570415495,-0.028654114414946363,0.06831363320008478,-0.058868688580279147,-3.7296626464492686,0.03114176819547718,2.09375
1.1759009545400205,-0.1059486779361048,-0.7065642075688863,-1.2419735275173018,0.020458970364351844,-0.012732098935836662,-0.03707020428866307,1.7337549704609179,0.009543644199086156,-0.012963704457718286,0.01434646433439156,-0.002780494898085816,-0.8883608138345497,0.05473577270455604,2.1015625
0.6959828642878166,0.15253338724922627,-0.5613988602492577,-0.49362456943561306,0.017596567820981474,0.015605910146415302,-0.017992030934914967,-1.270420719005192,-0.03243880186096029,0.006748212467898979,-0.028604908849902168,0.03152500665087502,1.4679557884094256,0.018568061085034903,2.109375
-0.20528455226231282,0.1491421994259756,0.03767839844332869,0.36381608146976113,-0.0007312916309917979,0.015719858665229538,0.008596165034271661,-1.6949230386634235,-0.02490671672915447,0.01053143720637988,-0.025452791732495293,0.021522067847502883,1.363790166732307,-0.018524532664472255,2.1171875
-0.03287384345428078,0.03681407331619514,-0.002717554532219473,0.07094894913335194,-0.00022098199328936987,0.0034204448813962016,0.0013654260595808855,-0.4071110737575166,-0.006384994449911444,0.002122205308207745,-0.006682954738413321,0.006234326113113284,0.33676349375725695,-0.004211491466774615,2.125
0.19715817535454036,-0.022806967658970057,-0.1156464476719761,-0.21655382244916688,0.0028736945270875893,-0.003183616557150628,-0.006575475427463999,0.3475101787840226,0.00237729576082306,-0.002957117008725839,0.0028845306061140124,-0.0004328980641026181,-0.19723080249954217,0.009088006548811119,2.1328125
-0.4523486354919364,0.007893272968019043,0.2960611478196653,0.44110154387691425,-0.009434872447131178,0.0005019714053448532,0.013218438997748166,-0.31256648956651784,0.0019477179028233784,0.002030105831497341,-0.0005274021452937952,-0.0026103650771321847,0.034904416809032966,-0.019873355209969093,2.140625
-0.7548717972745842,0.10470589785958817,0.4336001244122222,0.8407897337996129,-0.013010707842016177,0.011188500457344527,0.02400904797502943,-1.501294542033267,-0.012827218455733806,0.009966152534751454,-0.01626490737114971,0.008955366931383959,0.9078042570738928,-0.03857700983332723,2.1484375
-0.18663945740407037,0.1537422075014447,0.02316584936619307,0.35203120299107427,-0.00023347349443523548,0.016214336136548126,0.008119492076601759,-1.734350671384301,-0.025861756781762654,0.010764479391030955,-0.02629478616183671,0.022430022499563995,1.4081648014250068,-0.018053013271930114,2.15625
-0.15132263555014724,0.049508314492566534,0.06668055780216449,0.20114849569729076,-0.002242552706103999,0.004868308033273918,0.005069500404363242,-0.6036866906116678,-0.007724886958839778,0.0035107028260665356,-0.008525868527711183,0.006935938046629667,0.4450740020235609,-0.00995794213336463,2.1640625
-0.8787829121449389,-0.10137799973761143,0.6488418050447724,0.7290276409239221,-0.020915376091523483,-0.011135984661317377,0.02371257564975014,0.6344424143594343,0.024522791716848055,-0.003508694205900062,0.019418652469302983,-0.02371117107532029,-1.0118463102954702,-0.03063214814595328,2.171875
-0.8108776008915,-0.09914682386584754,0.604153196585216,0.6677491618092365,-0.01950701943096481,-0.010925722151415905,0.02174750198513238,0.6446856239647564,0.02360735113547667,-0.0036518813613073565,0.01884319007885916,-0.02265359129112748,-0.9855661769813188,-0.028005643569252597,2.1796875
0.34782099773812625,0.026904186388751108,-0.24644430502360423,-0.29961642003767364,0.007225208854691037,0.0021514089993790023,-0.010144402458519138,-0.10831014402649299,-0.007573317608692752,-0.00023932915713816805,-0.006073204257305439,0.00875776175142067,0.2760870862977905,0.012087480872530235,2.1875
1.3196145347920192,0.06439021778916791,-0.9161231391470938,-1.1886729199748203,0.027869941594556972,0.005699802406330421,-0.03816713958783637,-0.010676410867767825,-0.021671221482692706,-0.0020249464498871923,-0.015272008297096391,0.024703192301481835,0.7017895037291049,0.050050533525842794,2.1953125
1.619916529555083,-0.03723208954557742,-1.048880119690051,-1.5917025692058733,0.03125323618253371,-0.00550758127604016,-0.04890673085157692,1.2286546968224008,-0.0060232955644646015,-0.010278994159112518,0.0012955878520229177,0.012388184050632493,-0.2157523627078298,0.06896274153704945,2.203125
1.5093283651410478,-0.11478953114408459,-0.9246263589942778,-1.5741777430679726,0.026936700689618086,-0.013875294127138853,-0.047045555006959144,2.000528291085638,0.008537860490934199,-0.015060394261212981,0.014908495358811976,-0.0005786360446846544,-0.9432769967416417,0.069326250811357,2.2109375
0.7809021112073117,-0.06386593273243553,-0.47533467351616604,-0.8201458185186454,0.01355197014074298,-0.007949489044656503,-0.0245843462724392,1.0844257179029047,0.00514798669017424,-0.00834826372736888,0.008253869916899354,-0.0004942221879262198,-0.5300755520232608,0.03591128638350967,2.21875
-0.3702009358915529,0.036992320989884586,0.22141483942587672,0.39529059073496,-0.007003381328605854,0.003625167153650439,0.01125698830610678,-0.5811107449739915,-0.0038201893042838875,0.003642183887552298,-0.005755498569101447,0.002713464506025687,0.3114941988067737,-0.018262912433792623,2.2265625
-1.0140764338742296,0.06385790788695368,0.6306333195802429,1.0421441704910752,-0.01926116336145607,0.006885062907875753,0.03076373396088054,-1.1974490459839422,-0.003620165171715274,0.008336975046655828,-0.008523378666244849,-1.0328039532639977e-05,0.5081927096617331,-0.0467286747877774,2.234375
-1.0970144965952027,0.0003405745913441587,0.7271409480497772,1.0504207627139286,-0.02261941766680267,2.6020512865566457e-05,0.032067522855069586,-0.562317465241389,0.008233879572169566,0.0043826306020955256,0.002603992244307968,-0.010558200658526425,-0.08720742180882224,-0.04614715518377783,2.2421875
-1.3308508068551796,-0.04874302386879075,0.9144073971558454,1.2197177506952703,-0.028681341409695412,-0.00517830885803335,0.03810967519770881,-0.15877372680486646,0.01870168213706719,0.0020851879985407007,0.011684722460819379,-0.020471676592361224,-0.5607748255726225,-0.052714655424334365,2.25
-1.478911911566431,0.00019584111186208284,0.9813367087431674,1.4172346590842204,-0.030410259206013715,0.0002242100930410198,0.043407676102188965,-0.7575765096541417,0.011198804313090225,0.006078868258337536,0.003715770133289675,-0.014563760221452768,-0.1190475311531963,-0.061981041631813706,2.2578125
-0.9643875921213697,0.0596129014168047,0.6024510774295133,0.991679158865321,-0.018435728410952083,0.006406187853525053,0.02928056629190907,-1.1285035439274267,-0.0032484890503008163,0.007833041635212644,-0.007936993003329328,-0.00010233072017662843,0.47310445410941937,-0.04446169787792983,2.265625
-0.30468813506195835,-0.0034933319472529975,0.20668671206762151,0.2889101557860676,-0.006741737309603989,-0.0008076007964248051,0.008575768149507822,-0.11659915966140709,0.002826700991051349,0.0005992480682101841,0.0010022677396805822,-0.00277253860910185,-0.058492419899291145,-0.013115721201543633,2.2734375
0.08620864172075213,-0.09966415538536903,0.009404501005138247,-0.1934107020841512,-0.0013770631911620593,-0.011469467232166948,-0.004751454642375532,1.1104270962985137,0.016802519522740998,-0.007689510921846104,0.016374688969867015,-0.013291920065187677,-0.9181132172362038,0.009258805530713054,2.28125
0.8659624757755603,-0.03646277063830577,-0.5503395625709062,-0.8683087502478283,0.016007212994669954,-0.00501727447166433,-0.026542407373833524,0.8342909838041432,-0.000366127262425121,-0.006865130813532294,0.0033132505892231,0.004572426897354217,-0.26937174192250984,0.037703161772492486,2.2890625
1.9549455592618545,0.102071105785808,-1.3628129902599933,-1.7546048965180077,0.04162367572310465,0.009457565112587493,-0.05608684735478826,-0.08787340864850199,-0.03321145998213273,-0.002288538988505261,-0.023544208158868464,0.03716147504907312,1.1024603661509773,0.07413064314043726,2.296875
2.0414364888288574,0.06944163601963707,-1.3968932132401402,-1.8742736604113661,0.042515704835757624,0.005866752854428146,-0.05928319935179357,0.3050024473570026,-0.028101069370537454,-0.004889643635950599,-0.01819478530017862,0.03309260022770533,0.8071119764146477,0.07970284601252692,2.3046875
0.9142136794741994,-0.06743140104388387,-0.5593784930193701,-0.9501303923119383,0.01618252638186174,-0.008408520655728226,-0.028603151664696118,1.1901564495810453,0.004754641234390671,-0.009181388359974584,0.008489117432052504,0.0003341882415908523,-0.5525102997027335,0.041535341634702586,2.3125
-0.15338909921898075,-0.028550742308931547,0.12020595226521673,0.11409978357081772,-0.004308899723834923,-0.003620470761374477,0.003627263669010393,0.2292543441677925,0.006088012377893994,-0.001789183699253447,0.0048678718567704065,-0.005020228632308562,-0.27880108134360815,-0.005159835912793818,2.3203125
-0.5521566874464523,0.14074094972995022,0.27087484666052386,0.685543474167827,-0.00789376280123485,0.014986933039326125,0.018578747918993093,-1.7821128858800255,-0.02076684046065235,0.011497738404937743,-0.02302292456940464,0.016572138125315727,1.2576988603417856,-0.032313132921453235,2.328125
-0.5493747359368149,0.1468474991235235,0.2661734734557107,0.6904824948566354,-0.007718518631979292,0.015655366680743448,0.018643542073376946,-1.846067036918669,-0.021866342107508995,0.011905576837643244,-0.02408044760916717,0.017562131164129264,1.3148428195573791,-0.032587777156436924,2.3359375
-0.19409855847483537,-0.007057722259778603,0.13466265845879027,0.17797337083491188,-0.004634760284228129,-0.001254117491379393,0.005299083596473827,-0.02124809663543716,0.0026070111321425055,-0.00013830579937783836,0.0012946310894764441,-0.0021281102769641173,-0.08243036175916571,-0.008213358836048186,2.34375
-0.019876256212658823,-0.06811362117390087,0.05975327733017551,-0.05790638221945614,-0.0027006589417984854,-0.007985359765570839,-0.0010046556030941403,0.7198829545168679,0.01206022581273906,-0.005068179023805781,0.011268316105498785,-0.009614811274898992,-0.6343390968434428,0.0028152719112804524,2.3515625
-0.9259318982714185,-0.023077305056024712,0.6294351593588658,0.8602548229636415,-0.019771066997726267,-0.0026089351166231458,0.02654581611531141,-0.22472048400229555,0.01105708492479614,0.0020263708072640186,0.006129890523405123,-0.012312682036103452,-0.29033323461953603,-0.0376021692800612,2.359375
-1.899407343731415,-0.06588516740090816,1.303481125008412,1.7463239892305051,-0.04058864703391891,-0.006731179294480923,0.05446426724031279,-0.2669414671874641,0.026092754108341817,0.0034551855903782324,0.01624253076756078,-0.02905836620066815,-0.7652977757224512,-0.07525585574536538,2.3671875
-0.8630693134745246,-0.1901916441231814,0.7005469567830274,0.6168809678435393,-0.023017766896361105,-0.020782071773793855,0.021542364125157417,1.5890291153261968,0.040092388529744824,-0.00960443552791698,0.034599332511770955,-0.0370291875673591,-1.8330299724897419,-0.024401713076122333,2.375
1.3074644588279483,-0.19368382184890323,-0.735931206502907,-1.4655404575531061,0.020708398326150217,-0.022324361410424962,-0.04260917884196547,2.7369637430568363,0.02403239482896053,-0.0195079929749633,0.02901100601523326,-0.014691283328657863,-1.6901516351327992,0.06588402071499609,2.3828125
1.586019205126466,-0.00034503693247592157,-1.051058494471261,-1.5181619613185255,0.03152039980497667,-0.0014789418183882102,-0.047204616053805215,0.8172369981373145,-0.012268582329320146,-0.007612016293939407,-0.004929837946838064,0.017640571452975828,0.12335467374822623,0.06525414031939447,2.390625
0.00010674106916378638,0.22605536804456774,-0.15149550142959778,0.25225588677402383,0.005543745976958576,0.023959525982622406,0.0039110076896465345,-2.4097105108572627,-0.04008119035705181,0.014837298340466983,-0.03922484374719733,0.03536693616710942,2.092778336213436,-0.01485006681758919,2.3984375
-0.5760860722549204,0.23599223374755265,0.22520104762629078,0.8160840638302388,-0.005865735956725994,0.0253509375290437,0.02116937536738438,-2.8111274442210994,-0.03740324952160702,0.018082115932142158,-0.03928646743025236,0.030818861588350666,2.1384716675371878,-0.03942850670066788,2.40625
0.30478622923067533,-0.017113915426685635,-0.18874448532385257,-0.30947463975066253,0.00515384537059624,-0.0026123400644961796,-0.009580312517356313,0.3403857653532653,0.0005493387603227153,-0.0030448018601926777,0.001597306369042786,0.0015975050665768234,-0.13533665714739485,0.013090577297345392,2.4140625
0.4082785234223379,-0.22198855854382754,-0.12198782114750324,-0.6394527057180358,0.0018237557162905258,-0.02492746806342707,-0.01652342742725029,2.5809576292620457,0.03594573543135145,-0.017438822599322217,0.03642856073857996,-0.028495331933758805,-2.0253202683052334,0.030391417142303194,2.421875
-0.6453652764996679,-0.08693804668278464,0.48458484072600394,0.517984314194461,-0.015822364755484077,-0.009698055783210396,0.017102382956685182,0.6018676339800343,0.020174832394505435,-0.0035703603281098235,0.016278062954967077,-0.01905489099258938,-0.8593123296534461,-0.02178175987525281,2.4296875
-1.1009661997532671,0.1628048212957091,0.6210810677308379,1.2346512627198196,-0.018401841938239242,0.017678314175890216,0.03528133278265812,-2.297338836253001,-0.020447007602655907,0.015443655297138856,-0.02524110126675259,0.01415340297373454,1.417887391135202,-0.05651101033440079,2.4375
-0.47896929211797906,0.12100198262251018,0.2397888734581941,0.5966414793365326,-0.00699373443839505,0.01281155104436816,0.016165787920182112,-1.535142266057344,-0.01783354983632831,0.009844705298379244,-0.01984520940145013,0.014344480396511658,1.0809816337275218,-0.028217547653721885,2.4453125
0.44257954770970953,-0.06831952845922319,-0.24375971307663225,-0.49526411279991056,0.0065877447943871,-0.008245858313288687,-0.014639070596288049,0.9559574839999204,0.008533787806351601,-0.00712723048755974,0.009988159397593148,-0.004764749811062912,-0.598685287255949,0.02191875280213705,2.453125
1.5250439165872909,0.01972129896914763,-1.0223407377897675,-1.4354014512558004,0.030813638652742253,0.0007355296169498251,-0.04503497368639578,0.5711116161163784,-0.015351098993587381,-0.0059723425722997825,-0.008195127749280938,0.020052788192601343,0.3043907495864328,0.06140335945110202,2.4609375
2.288501064669858,0.2362369043109041,-1.6750617511630062,-1.9267790686682182,0.051977850670953465,0.023846595905454005,-0.06355426509311943,-1.3483181357050287,-0.05947790551931256,0.005340096296380679,-0.04749752526523429,0.06107668434711149,2.372176876027874,0.07954598174543155,2.46875
1.312222186387759,0.08986085282575734,-0.9296512581776428,-1.1551696731459602,0.02835352212199059,0.008471085164895868,-0.03744905837137241,-0.28617139532159286,-0.026100402151138694,-0.0002585249132391297,-0.019617655004092127,0.028507886883010022,0.9372128899895017,0.04823720327467123,2.4765625
-1.1136028151432278,-0.3041019409361128,0.9426691833727496,0.7281861581980931,-0.031076606543367465,-0.0330276742749063,0.026810509652644744,2.677038521235662,0.06216544447542968,-0.016232489201555438,0.05484743161837604,-0.057055197629752946,-2.9089484587521532,-0.027674547182377347,2.484375
-2.329746997157215,-0.3615481243053755,1.7863578493328311,1.8270173614474454,-0.05710784821514922,-0.038623518501515124,0.06163778019662357,2.669253651056489,0.08166070327951701,-0.014727796753741562,0.06816459409358812,-0.07863791504336289,-3.5396111505534735,-0.0745154383250227,2.4921875
-1.11830821240745,-0.010102512052481676,0.7464400397952669,1.0575587892939988,-0.0232963706385102,-0.0010992049035814268,0.03247758784901496,-0.4602262234237032,0.010240494591550568,0.003757763595987139,0.004450986380250938,-0.012357406770549114,-0.18558900268434636,-0.04630464757856909,2.5
0.4657159048693409,0.25237577710779163,-0.47943649078083983,-0.1659329201949646,0.0156155260422462,0.026568579557349384,-0.009322912473301333,-2.4512653999481167,-0.04831787730189446,0.014545122799978312,-0.045070514718264926,0.04432342359173292,2.374423440823689,0.0029405930414433167,2.5078125
0.4453512911559848,0.18241444077712116,-0.41728199500302765,-0.22282087371494974,0.013303279193850886,0.01898680659768406,-0.010027925854050511,-1.716469031996136,-0.03579639237345534,0.00988870960628808,-0.033016324408083435,0.03347288171426997,1.7247526929846224,0.006453187453013468,2.515625
-0.4469989141522048,0.013525579769908697,0.28912763043681367,0.4441438824623907,-0.009186407577941213,0.0011219704978626987,0.013094070581705437,-0.37140488599496907,0.0009058368960962846,0.0023890288335823573,-0.0015132226833171711,-0.001649011065183166,0.08791529333843155,-0.0200309787489412,2.5234375
-0.6732854673176333,-0.05463315618108978,0.48455472323933785,0.5844631594607127,-0.015522008563218573,-0.0061644978592810965,0.018462790571211047,0.2406890544818907,0.014684627419747852,-0.001238971949001605,0.010819063067426105,-0.014425855042575767,-0.5620204658352403,-0.025157426109043934,2.53125
-0.2123863111950063,-0.07318221765173967,0.1898280452110144,0.12202768669458021,-0.006702515490802873,-0.008432266501561484,0.004561658090958948,0.6750658153837146,0.014417017438655802,-0.004558724418390798,0.012685382090635177,-0.012404053596293516,-0.696834769208311,-0.004805747885217897,2.5390625
0.2029456868813351,-0.10141243779445412,-0.06694936855772349,-0.3063690158462947,0.0008854593540609168,-0.011720955848499082,-0.008148419585610842,1.18829941465159,0.016216056932483278,-0.008326312654252958,0.01634173113923517,-0.012321883844551485,-0.9248375607738492,0.014251677910870108,2.546875
0.4358205668960734,-0.09911423141097904,-0.22081840576544254,-0.5249743517102003,0.005597813549988304,-0.011588560054398069,-0.01496241773733706,1.2815011058026218,0.014025612506796384,-0.00919705800100081,0.01528501482453746,-0.009506283212864373,-0.8845532281267235,0.02371255672217029,2.5546875
0.4723801240705198,-0.048782048164964203,-0.27668126093717166,-0.5030601698676466,0.007675401630670459,-0.0061366638288501965,-0.015135794090377196,0.7625031842591456,0.00485503863180821,-0.0059305540873856736,0.006553411840604717,-0.001463583593578933,-0.415214435211935,0.021961873303366533,2.5625
-0.02703125429535859,0.007101736637480255,0.016116221574414637,0.035652445437688106,-0.0008702643935483938,0.00019439918559381218,0.0006229071336003743,-0.08808019289630903,-0.0011800090531924267,8.721477429478428e-05,-0.0016029196176977534,0.001753246268927098,0.06199343035439848,-0.002279745093632752,2.5703125
-0.7736938600531816,0.05173483470893549,0.478182879184516,0.7976913929906797,-0.014714311611969032,0.005433657738155279,0.023486966339092735,-0.9445941963327175,-0.003330869385942102,0.0064335558608200755,-0.007129155077283512,0.0006661455632026334,0.41504491361995516,-0.035957679600864226,2.578125
-0.6936449846404621,0.12422587436732938,0.3750724189152117,0.8013585281597625,-0.011183651485006857,0.013267367740503013,0.02246262669032369,-1.6769391506344702,-0.01675974002022013,0.011000054916770325,-0.019791236876440334,0.012574045451971097,1.09337051584168,-0.03710079468093874,2.5859375
0.42380440041410794,0.22691566579512715,-0.43298227321951405,-0.1526711765129286,0.014060083670331165,0.023833564713604632,-0.008618543475878029,-2.2020462283132516,-0.04349257666068082,0.013011957532164246,-0.04058566388486195,0.0400181504949152,2.135428221630849,0.0027904783819367096,2.59375
1.401044756496458,0.24095604808845048,-1.0881779266075413,-1.071896810514078,0.03415031769763634,0.024838380142596057,-0.037202689083424854,-1.8523933926083704,-0.05347793657807001,0.009622202693498338,-0.04577577400731414,0.05244646328539523,2.3444512675221554,0.04237496119687295,2.6015625
1.521209359231728,0.051870328420033314,-1.0408412492910284,-1.3976291726737973,0.031587105067527155,0.004228774637429744,-0.04429031855941078,0.226971573396188,-0.020988944701644204,-0.0037677597723871394,-0.013694892602885927,0.024894042111707548,0.6019318607308605,0.059199144954146285,2.609375
1.3553713937619236,-0.21427547515208334,-0.7531920386204595,-1.5342977583817219,0.021192150282523088,-0.02459484812270343,-0.04439525928283489,2.981688986934324,0.027303947998035982,-0.021125812489028225,0.032409267307541983,-0.017372164841910405,-1.8774637224595387,0.06905713098160429,2.6171875
1.047416570460329,-0.2764934146095144,-0.5077539216985422,-1.3076022519606698,0.013302509216767084,-0.03118359071223389,-0.036472382398023,3.487303948440147,0.04065563053618954,-0.02398538303867818,0.043950988404257874,-0.030054348678970978,-2.478562633974731,0.06022784075869772,2.625
-0.2114697328132409,-0.10187493413010332,0.20874942731509472,0.09049447692957248,-0.00749279076719396,-0.011540842146965487,0.00399750626063062,0.9805162342739437,0.01948016909077277,-0.006510868637733257,0.017598670914150003,-0.016720759992291393,-0.9622387763467999,-0.002938655340288419,2.6328125
-2.114659626426844,0.0285187746390241,1.3810669233265291,2.0541231243289406,-0.042428936395293666,0.00363360913796089,0.06265851419778322,-1.3829020551937072,0.011079280973349004,0.010823676240675697,0.0006693484748937318,-0.016956175524356354,0.09189400126256418,-0.09007069148723447,2.640625
-2.8251935764369227,-0.026521058972447796,1.8880475686363551,2.671615031035247,-0.05820289893264929,-0.001971943693680516,0.08258472493362277,-1.158430064971942,0.026270409735451587,0.010243824258731877,0.012134033312327097,-0.03285885328148001,-0.4757702370738663,-0.11609367987113371,2.6484375
-1.668140725637783,-0.06855837426260165,1.1505543476431543,1.5192669051467023,-0.03596733941305855,-0.007154071399310086,0.04759603479348441,-0.11879611646484207,0.024798076197177173,0.002236408345518725,0.016042223267794847,-0.027058073727757717,-0.7717087308153386,-0.06547137779776895,2.65625
-0.15365296110578666,0.024934430605448674,0.08587769250948699,0.17622561030909045,-0.0029484980987654627,0.002199766727046814,0.004639486192292418,-0.34257680895989556,-0.0033710073462050022,0.0018517831439916843,-0.004307853597508136,0.003173946870754525,0.21722186608061783,-0.008530927052248758,2.6640625
0.48171964129768985,0.07274576199255658,-0.3668915517099093,-0.3781723784236171,0.011121658745588566,0.007056525056914493,-0.013179901951597633,-0.527898974633645,-0.016704370315462118,0.002274816614078678,-0.014316911123169561,0.017168018074229033,0.7116707409578316,0.014833106481409787,2.671875
0.5899055372431223,-0.01331502357259465,-0.38158460447957643,-0.578372479794724,0.011026432947761181,-0.002352901908368486,-0.0179719017412533,0.4457966433153053,-0.0023265396214196955,-0.0040555765626052375,0.00013379299193002616,0.00518762074125784,-0.07717857569479594,0.024750612247461574,2.6796875
0.493788831450498,-0.03269537997295941,-0.3048477945976407,-0.5081957464832134,0.008586944511970292,-0.004408578094345356,-0.015511236644535664,0.6033133924002069,0.0018399414794358264,-0.004941889397168062,0.00373397518477375,0.0011979718013731301,-0.2646702464535218,0.02197015047885162,2.6875
-0.05828386252002093,0.08256198976790666,-0.014523101839761646,0.14974285328175876,0.0004936070877085637,0.0084102893782434,0.0029760669311679967,-0.9091388591790774,-0.014275383938247196,0.005357242950650011,-0.014453422427415909,0.012921154061591835,0.7588050483151176,-0.00825247945526182,2.6953125
-0.44825199271913396,0.1175742601704817,0.22259646723419352,0.5635184843821471,-0.006475073791704159,0.012426287043738694,0.015207823537179189,-1.4824815167710272,-0.017455395432043993,0.009479152284837884,-0.01934527356473465,0.01414669819858234,1.0519346563038177,-0.026727159857089323,2.703125
0.41831814304044196,0.04388808599585032,-0.30229810506501603,-0.34827492095697854,0.00906829955223324,0.003956121177461578,-0.01176784359021031,-0.2529247492032223,-0.011096933570961495,0.0006075492727657366,-0.009181313204160838,0.012058275869537022,0.43908059251319576,0.01385068740829437,2.7109375
1.929480349911883,0.09664732988865005,-1.3419808119162535,-1.7385429030729915,0.041023302071884295,0.008871517100776551,-0.05549508166568853,-0.04218701127219186,-0.032048449255380126,-0.002549249401373839,-0.022535915185597933,0.036012700143442315,1.049622892402469,0.07334951279649528,2.71875
2.259522669141827,0.2108749773542903,-1.6398298507723792,-1.929297467318894,0.050742137240048134,0.021100051828537122,-0.06316051737084728,-1.091602016127096,-0.05477741313516646,0.003737001328746707,-0.04306426342897074,0.05688974632960611,2.1345304979417663,0.07997634105720033,2.7265625
1.1524015550396365,0.02523089617899673,-0.780851780264483,-1.0752813018011478,0.02342639594436384,0.0015309373806133358,-0.033912670397593624,0.3224651095192877,-0.013456238255207281,-0.003944857764363585,-0.008079367429932365,0.016969821121269064,0.32527035365496276,0.045681264909212434,2.734375
-0.0034817491069443086,-0.3784416853847605,0.2579249999344353,-0.416335371446102,-0.010650614724532634,-0.04169643095659307,-0.00731573842889282,4.037852885496596,0.06676570430569034,-0.026227684595871124,0.06442861779965574,-0.056669107311713526,-3.508082357491431,0.02299351128886748,2.7421875
-0.6634506922934335,-0.4515412476229417,0.7433516968086046,0.1332826673126557,-0.025867125261097343,-0.04928791838768818,0.010755949248476055,4.481153085454189,0.08474871619923749,-0.028264128167275727,0.07884199165285766,-0.07475765510345493,-4.238753121241871,0.0002153738634313566,2.75
-1.4043250497179827,-0.07104137031524213,0.9756675657476271,1.263320258769256,-0.030670163484381133,-0.007565347075852682,0.0397275749288401,0.04382290870316343,0.02319921420617373,0.0008843370850031968,0.015710963093749888,-0.024628135799279877,-0.7732185140648621,-0.054304729354715156,2.7578125
-2.0238694835271236,0.2596189027360426,1.1631532472506756,2.223687415075169,-0.03442618431735904,0.028686104652710043,0.06425998549994591,-3.8012493719030096,-0.030464371836648834,0.026116660406526986,-0.03921884323886804,0.019204006825488958,2.240541755018539,-0.10071272758249497,2.765625
-1.7154496460497215,0.24091661404084383,0.9736207748155963,1.9097134120417045,-0.02875121790643978,0.026497334145364957,0.05483452868992051,-3.4454911002734696,-0.029524477098230723,0.02348205936355211,-0.03688993297536983,0.019621093999456378,2.0923652098038175,-0.08681150902124428,2.7734375
-0.8264746600619772,0.10572523280807616,0.4777516638129236,0.9101359875965045,-0.014385887906085049,0.011340069160340584,0.026009359004900767,-1.5491787424183612,-0.012471548664902441,0.010342010606185613,-0.016241714493088553,0.008398656342345196,0.9115751452086736,-0.04154716722732046,2.78125
-0.23556277066328477,0.04029575142660722,0.13057391084653158,0.2716886232568009,-0.004158387160320529,0.003912380954508329,0.007315972337793677,-0.5485103604247595,-0.00545474939465733,0.003265203669911506,-0.006704310707141207,0.004633208745567464,0.3528351154890291,-0.012963207023923257,2.7890625
0.3806112927241053,-0.04753182242148539,-0.2187969961699931,-0.41598603213863866,0.005919077471088575,-0.005962366778522126,-0.012434601300322125,0.7036547524273987,0.0053363302701867794,-0.005444658889475067,0.006602155579878165,-0.002275369405591549,-0.4114029569014697,0.01813005095074483,2.796875
1.4926309262280573,-0.14465646944588012,-0.8892625762197307,-1.5874817130010468,0.025709840316383025,-0.017105746809077366,-0.04697913002748616,2.3077972288037305,0.0139623177067746,-0.016990880717357076,0.020087626074789994,-0.005348010467964103,-1.2214832622934035,0.07036676094422199,2.8046875
1.948588751463344,-0.10562799556232673,-1.2159509408492384,-1.97951979050183,0.035917208752677315,-0.013104272220127394,-0.05970167468397642,2.1241540391306537,0.003563825514922742,-0.016363587760728663,0.012095547726510014,0.005414529141999392,-0.8228183342418983,0.08680467164333297,2.8125
0.6507750349673601,0.009362581827364979,-0.4329453987476543,-0.6096916050613005,0.012815597845570006,8.333141758096807e-05,-0.01930431366671622,0.2341103719228931,-0.006785772379085552,-0.0027699623282845995,-0.00392277643828737,0.00925254183893087,0.1379415154000832,0.025718547329933037,2.8203125
-1.0582145698259313,0.028750922529493926,0.684570658139064,1.0462804483363355,-0.021098875189742322,0.0030994318186650053,0.03144582159590633,-0.8458792172861885,0.0029152187667556596,0.006149563377372758,-0.0023770890030687937,-0.005811379183774284,0.17944824349007676,-0.04637263276989281,2.828125
-1.093362656814275,-0.0060919970070683095,0.7283502111502425,1.039768411237741,-0.022692099607406178,-0.0006725149425889373,0.03180054154262402,-0.4914496241223062,0.009333344053420099,0.003924995203527141,0.003694054597009305,-0.011482533805535568,-0.1463793612876723,-0.04555966440666544,2.8359375
0.2270778457014525,0.033185975634068936,-0.17482967047205347,-0.18093968888876985,0.005005324294482205,0.002887126072591029,-0.006455598698879338,-0.23492666033492515,-0.007761799321125241,0.0007054098413488494,-0.006809415279497281,0.008440221898947105,0.32427898033333613,0.006836014600478091,2.84375
0.8854599282223408,0.09545187126838901,-0.6527859497439074,-0.7413696729134975,0.019929907237810313,0.009303630207443212,-0.02473538826142644,-0.5627004999618809,-0.023824479714450345,0.002005959009800374,-0.01936567443874675,0.02489044351214081,0.9546405882240536,0.030249419164967983,2.8515625
0.24243138917227205,0.0855829064537196,-0.21923867185645726,-0.13642154729557884,0.006688574731633064,0.008578377441863792,-0.005952272523773274,-0.7864216497127337,-0.017134991075927256,0.004203415382578291,-0.015840078281302357,0.016617134100748877,0.8113611367188542,0.004138117904863402,2.859375
-0.41906150882235044,0.05216102273579839,0.24177405384771175,0.45890248546920565,-0.007527498293726161,0.005296817912127904,0.012951733068441447,-0.7676354677472187,-0.006140871643394796,0.004878728029904181,-0.00822050168524126,0.004528072192118508,0.44803683466739064,-0.021248278267817854,2.8671875
-0.07921811084076905,0.03612833602270573,0.027657863309576095,0.1150268189222973,-0.001094207550641194,0.0033672165086709688,0.002661069930513446,-0.42222301491239594,-0.0059135402679517685,0.0022754891161912093,-0.006436789552123941,0.0056322383193744205,0.3266757785067434,-0.00614272939041005,2.875
0.6162172953664304,-0.03829956022644152,-0.3818740019351501,-0.6324341501431415,0.01091384640943597,-0.0050872189819579665,-0.019211107645229857,0.7267380272680426,0.0018986989393383145,-0.0058748128390749025,0.004343396245365246,0.0016247660398553715,-0.3067173145406741,0.02738117248231741,2.8828125
0.4167580485452958,-0.17018079824603147,-0.1597587961835594,-0.5863387857250699,0.003329366927704081,-0.019298307372134768,-0.015779583702062748,2.030020296996906,0.026735863949225117,-0.013941616291086516,0.02752412836467275,-0.02053521404187532,-1.5445727926873223,0.02735632953521248,2.890625
-0.5493946895537071,-0.20248554279019584,0.5024472996973304,0.30272370578293395,-0.017031923305748306,-0.02228928384170018,0.012127132404473584,1.8797484512058706,0.03986951544634399,-0.011830220815227636,0.035819335271587587,-0.035637499379051446,-1.9220082819678983,-0.010742207455572994,2.8984375
-0.6853619992245754,-0.06153652938240112,0.4977744906900118,0.5885531456916125,-0.015997020483024725,-0.006911784437189929,0.01878668610614845,0.30700650120682454,0.01601330956296136,-0.0016449510536640788,0.012044068585078178,-0.015646327433066903,-0.6273350081802551,-0.0252703393529177,2.90625
0.5782592509489067,0.10740117997338096,-0.4527858521342866,-0.4328081551815584,0.014015118555695961,0.010762120838723688,-0.0153508595299217,-0.8485402905622791,-0.02354797243447504,0.004208702859277824,-0.02052395047068212,0.023379975701676995,1.0400289633931445,0.01654285740682778,2.9140625
1.3575157235884707,0.14391434218672192,-0.9941412362067638,-1.1369992043274817,0.030706612059957054,0.014317998326023085,-0.03770264714276296,-0.8393558376406673,-0.03599773857611224,0.0032170237696110323,-0.02901223482646346,0.03719531611804996,1.4417268743851173,0.04664963098218667,2.921875
-0.004684063708231557,0.07214787667994792,-0.045151845052630465,0.08575759217508913,0.001300678325169017,0.007253108982740603,0.0011393357566942144,-0.769577666716563,-0.012856565283074103,0.004399466670722833,-0.012829227414214873,0.011954131312905042,0.6670243845891698,-0.005235619794885094,2.9296875
-2.04770630598807,0.010761802860778227,1.3482529295498213,1.9698800742948417,-0.041556054005330176,0.0016707786364926179,0.060313331107463564,-1.1584557035142535,0.01369473759476057,0.009320790494499447,0.003522357626433665,-0.018940184732355196,-0.06703726111106963,-0.08607461776090919,2.9375
-2.2520974778716254,-0.014501906171061103,1.5009259209461578,2.136832593942374,-0.046339937690370175,-0.0009694493814462135,0.06588764438270586,-0.9935735405272325,0.01973532057927999,0.00851410195199201,0.008441130317744072,-0.0249778780265558,-0.3179871695898723,-0.09302021495664957,2.9453125
-0.8392376481231743,-0.068863904675812,0.6024475525644553,0.7269563749444752,-0.019261210821446606,-0.007626520533256739,0.023144048687164274,0.30782864241120805,0.018476542765181726,-0.0014716044069007456,0.013732701818460603,-0.018357795793401303,-0.7074834922231834,-0.0310834424500174,2.953125
0.1573500008956097,-0.14772145321330785,-0.004431616556507341,-0.3121455572228308,-0.0012381415822821894,-0.016720135300617445,-0.007766221510299197,1.6582685366545693,0.02473952304300959,-0.011271282321983808,0.024407552090696304,-0.01982483934380888,-1.3573373110383846,0.015178834530790204,2.9609375
0.5033859806664509,-0.11678169999123848,-0.2545163515995441,-0.6090300179980078,0.0065717534354540275,-0.013544055729408287,-0.01739263165517776,1.5053657038849455,0.01660987160709152,-0.010710215271671219,0.018115766517346372,-0.01145805956744747,-1.0426542954810019,0.027602219095685263,2.96875
1.3701634651500894,0.1057538571935773,-0.9779793269728206,-1.191749153455381,0.029977854644177487,0.010164732781084426,-0.038812985572384884,-0.425795537921414,-0.029368285682737864,0.0005592690441755304,-0.022506771001054963,0.03153681616388686,1.0890935556126426,0.04958586569279952,2.9765625
2.2305216966034225,0.34324533152586956,-1.7069582331716238,-1.75081418143381,0.05364094410824282,0.035504064052908006,-0.05976999248936341,-2.5202741948481813,-0.07793874728143362,0.012875732711911685,-0.06567676955421149,0.0767465617987493,3.3589752226979903,0.07034276589436875,2.984375
1.464998129197729,0.3000950711222588,-1.1702199777862152,-1.066262920111539,0.037025722639591294,0.03122623813891604,-0.037944668147674616,-2.4513328259720164,-0.06442243487319974,0.013354878964119556,-0.05609611350290063,0.062104947623513526,2.897356601298491,0.04126053852785261,2.9921875
-0.400674601716081,-0.032974196024227784,0.28996685359620084,0.3477880919363776,-0.009485809710319745,-0.003960556884209327,0.010949853175102902,0.14906699790217098,0.008779438269983187,-0.0009756925555120109,0.006330250891771979,-0.008278678033980436,-0.33942702238186506,-0.015253146675025064,3.0
-1.0963467862216345,-0.3018411418343603,0.9307492583303764,0.7133581890662809,-0.03065519411874215,-0.032799691765919854,0.026443175428977034,2.6628176313992977,0.06163678521167438,-0.01615628161604519,0.05441351197411749,-0.05655779776760045,-2.8869062758224056,-0.02719472415880415,3.0078125
-0.11425731770200355,-0.24752693686459487,0.24131334313354774,-0.16719624449275355,-0.009371518294578501,-0.027426487473305745,-0.0016133621496703771,2.5860308274546773,0.04448225306967841,-0.016845317606190652,0.042299358296345915,-0.03792776525630386,-2.3043525638773312,0.010272614011258457,3.015625
0.8264430529210925,-0.03727059473415196,-0.5247528761136002,-0.8343147702001904,0.015192992593710514,-0.005087265276294486,-0.02550380084375127,0.8237221297236534,9.295970023282104e-05,-0.006747418083318294,0.0035644890245671765,0.004025182524049049,-0.28012035771817684,0.03620826225189222,3.0234375
0.6243482003903729,0.04193032591518731,-0.442309172311827,-0.5518478268510867,0.013186035720413969,0.003630024563720919,-0.018029050586981277,-0.1256037976415238,-0.012343095982544667,-0.0004569833754540697,-0.009438681676568363,0.013964268079524219,0.43754386035817117,0.022780983627835805,3.03125
-0.211336959706577,-0.013189256737005727,0.1517176686848409,0.1889372434112205,-0.005159773670721007,-0.0019062260654156037,0.005663327943015981,0.03386399715472626,0.003828018736404608,-0.000469848093328702,0.0023982312996008444,-0.003253832794495818,-0.14064604366396682,-0.008610885335710555,3.0390625
-1.0592900777117726,-0.04640213096740385,0.7361104422937359,0.9643192872448121,-0.0231301865646956,-0.0050631405397796115,0.030088667705833898,-0.04551598595068052,0.016210910575412272,0.0010494444898854433,0.010512322161638958,-0.017268693233555038,-0.517020532185279,-0.04175654532541904,3.046875
-1.6444131182360033,-0.029366482335047635,1.1090200222446847,1.5415641305009136,-0.03445357502679257,-0.0029065993356551436,0.04766840660831101,-0.5253144782786675,0.01768487201068819,0.004799916507243329,0.009256588143060629,-0.020835387423647315,-0.40657314631727925,-0.06696055865835689,3.0546875
-1.462792393678262,0.009630252099056873,0.9602560889847703,1.4099393909738072,-0.029753573028194973,0.0012306357896636907,0.04304401675336315,-0.8477218974687803,0.009389241179848417,0.006631793605707863,0.002047681642830679,-0.012953775897615033,-0.03048532910182566,-0.06175744893398926,3.0625
-0.47039871423533847,0.09671472180629867,0.2460234616488397,0.558402640763423,-0.007435391271546767,0.010165600080718951,0.015404378774957452,-1.269890321223867,-0.013623598385378625,0.008136245739046255,-0.01571422464933952,0.010784458242663914,0.8567872953100911,-0.026128137250705584,3.0703125
0.2897705462503944,0.16218370344105867,-0.2985797721367505,-0.09461775260682377,0.009641880342528232,0.01687549880507096,-0.005804734845247867,-1.5803837509066787,-0.031026045217582118,0.009210977156535242,-0.029103318275454187,0.02875075716353357,1.5248449770365944,0.0011452265278522368,3.078125
0.17795692702621785,0.06765222686205576,-0.16052697217234965,-0.09312719328785034,0.0048946157308385994,0.00666367230171236,-0.0043004271439422165,-0.6288467464103148,-0.0134579718754527,0.0032854904026195144,-0.012572279088171816,0.013148050281770978,0.6397225842378396,0.002409470530009029,3.0859375
0.07646553687779406,-0.09737080138668934,0.01579515596030894,-0.1806335396282229,-0.0015305631154825146,-0.011212867895357286,-0.004421847342210979,1.0803093972503077,0.016478837277771625,-0.007484074084115959,0.016012361147657833,-0.013059823882009172,-0.8976664114384821,0.00866418279103234,3.09375
0.7664450001235127,-0.08947526975136426,-0.4476252562698107,-0.8317596198490425,0.012577674542729678,-0.010722481872561805,-0.02464584033063931,1.348544081263999,0.009774795895532816,-0.010021254355338296,0.012689238558677018,-0.0045675993721018705,-0.7686639148524277,0.03688511508138179,3.1015625
1.4591892669597601,0.07285017743057456,-1.014446198951445,-1.3128008931496307,0.03083973164971448,0.006546695559349365,-0.042049552098293835,-0.030062215365605795,-0.024232890811058578,-0.002067146062599142,-0.017118859187159812,0.02746767376052036,0.7915319484981139,0.055405005326309736,3.109375
1.196028928245181,0.14992661961559325,-0.8902171254927215,-0.974933722611739,0.02758192507566465,0.015062594717780825,-0.032842403936437684,-0.9875131007126188,-0.03582363698228798,0.0043491952892063205,-0.02958162342192917,0.036418578462800014,1.484396689346162,0.03954524364050075,3.1171875
0.42788955832945913,0.09269495132649914,-0.343140715546824,-0.30483108880009757,0.01060045069030119,0.009250574329835554,-0.011243244850381738,-0.769001850402025,-0.019802191704870152,0.0038775299767710263,-0.017576380044236065,0.019580408650225485,0.8918040065749673,0.011222710846723213,3.125
0.06959975362003881,0.016717891223459257,-0.05701459290364993,-0.0482028341896177,0.001381310243469803,0.0011808223676065292,-0.0020733246917925864,-0.1400204986552818,-0.0036249229481883248,0.000300148469791688,-0.0035298389809771944,0.004230983770062728,0.15875813620045734,0.0012008139872173543,3.1328125
