AF3,AF4,F3,F4,F7,F8,FC5,FC6,O1,O2,P7,P8,T7,T8,time
-0.05531219815443628,-0.5585253802706714,0.5744926389947268,-2.2446598040592134,-0.1397237001055524,0.36312293944980806,1.7836600212490026,0.18750383121067518,0.2610376461883374,0.1335888841096334,-0.1886026187011653,-0.07111856450853098,-0.049604513415176126,0.0036234052334256353,0.0
-0.06810663970093214,-0.6866989601105394,0.7061003644862013,-2.758698721343157,-0.1716925659140571,0.4466753945936634,2.192598189999088,0.23059876510946875,0.3206946217531929,0.1642108736732528,-0.23182021137248182,-0.08695911805556744,-0.06100164612545974,0.00453504893101428,0.0078125
-0.016938912405457144,-0.17445262006939405,0.1802209493723653,-0.7025698471566157,-0.04395764223081086,0.11362321054071704,0.5591174152520118,0.05877410924319839,0.08184783955103331,0.042051508440356954,-0.059035655052329696,-0.02338424665113907,-0.015600028149489527,0.0008866720428919111,0.015625
0.04776585765498953,0.4733135916174132,-0.48492897747709757,1.8975393491954538,0.11755760879517096,-0.3076969634069094,-1.5069043791247672,-0.1585766080591978,-0.22009022809119025,-0.1124748794879485,0.1594505087952581,0.056948543377602204,0.04184218429764463,-0.0037262167282329775,0.0234375
0.055759601250444546,0.5534673275940382,-0.5673785357161506,2.2194188158292065,0.13754993740470162,-0.35978042861631787,-1.7630328833419384,-0.1854816170015533,-0.2574719630651528,-0.13162036312625897,0.18648392005019174,0.0668601064433894,0.04896594081264794,-0.004296730200041266,0.03125
0.014533139011375972,0.14099796555283794,-0.14378447179371892,0.5637649578343727,0.034784224435175634,-0.09150627025911923,-0.4483077506095251,-0.047105931090809516,-0.06525210865038517,-0.03329009703627945,0.047395583578910154,0.01568140335180678,0.012413655163089296,-0.0013587514540677427,0.0390625
-0.006092078129849956,-0.06543167489132026,0.06856683798253507,-0.2650223109664282,-0.01659516240083807,0.042467617136718164,0.20939676006377095,0.022084915497227707,0.030991454909557608,0.015874564683970544,-0.02214104849339295,-0.009942547201088859,-0.0058793821588237925,0.00011201081054521273,0.046875
0.011551198943226135,0.11089783748434227,-0.11226467140040466,0.4427226728379449,0.02731516966221239,-0.0725289673428761,-0.3529666591910242,-0.03716985604541496,-0.05116443280016124,-0.02617019938495476,0.03740480490185471,0.011905534639882694,0.009739651161978653,-0.0011438322461851617,0.0546875
0.016669168341231028,0.16187933646841493,-0.164751147715974,0.6473465130003372,0.039854702627751974,-0.10547270190532775,-0.5146830727456998,-0.05428374716454299,-0.07493968021948001,-0.03818693564985068,0.0545427988957731,0.018242116695362593,0.014225970841641544,-0.00150773552073117,0.0625
-0.004551119232233112,-0.0503787099064982,0.053289802021529865,-0.20505199074999028,-0.013130516532993224,0.03324621857051025,0.1635664957256068,0.017040330610508702,0.024044495748910204,0.012574087100343433,-0.017218405658816792,-0.008015686314070217,-0.004629864599728626,3.546129794392163e-06,0.0703125
-0.009863993477692871,-0.1032195482856123,0.10806046703124234,-0.4175756833902057,-0.026199988790570013,0.06804010174960848,0.33306336960562066,0.034893648788287907,0.048800905080289766,0.025180098147234372,-0.03516565315024349,-0.01448985421119366,-0.009346298738720423,0.00038031057617048347,0.078125
0.005016226873343063,0.04574746246027534,-0.04477133203074191,0.18058543434844457,0.011007231396727126,-0.029007344714148706,-0.14178814919100782,-0.015057374593359027,-0.020613631930967758,-0.010405101076122702,0.015091971781547664,0.00401041097617228,0.0038483193942599504,-0.0006804045796906952,0.0859375
0.0007800714091991662,0.0031176898792289608,-0.0014665431891535431,0.009678115930901272,0.0002914012054474581,-0.00165502012213009,-0.006064234759220319,-0.0008124837391781237,-0.0008382260581458045,-0.00024155999670820018,0.0007825005419361411,-0.00132690307083787,8.277136774299781e-05,-0.0003769843545012831,0.09375
-0.018128560510565987,-0.18607840633110084,0.1927422933797527,-0.7506348807655799,-0.04696842849445244,0.12123448564183932,0.5971590522663499,0.06261848085688156,0.08738603103389178,0.04489018350171209,-0.06301496959345353,-0.02487035224396689,-0.016676043572250946,0.0009710703135646623,0.1015625
-0.014908151955621559,-0.15350799356594716,0.15982565005613952,-0.6209601174356353,-0.03881521980874653,0.10003319565215511,0.4932358083691763,0.05170900331263333,0.07238134195599154,0.037069326840690676,-0.05204550685567767,-0.02087378692740941,-0.013788741234314826,0.0007403448255182801,0.109375
-0.0014685824822797207,-0.019093748952652864,0.021541620403356283,-0.08060375706485517,-0.005229831032256893,0.01244488607350666,0.06401510412983549,0.0066399557551037386,0.009706550176364364,0.004937104880223706,-0.006667798822870423,-0.004192969785880927,-0.0018427989021748436,-0.00021706880891074625,0.1171875
-0.009706684381671203,-0.10223312215868915,0.1054229377712635,-0.4118744928584907,-0.02591260093144991,0.06617705828691522,0.3276610462739564,0.03450410536756584,0.04812645190409602,0.024717094387175304,-0.03458981060732102,-0.014477966594833414,-0.009121031198568393,0.0003730614109777323,0.125
-0.018261735066457938,-0.1882661820779833,0.19272646335524352,-0.7556801769195144,-0.04728524702020535,0.12190455865019333,0.6001797092282207,0.06330345670017105,0.08791920863404744,0.045181305212027935,-0.0634793948974478,-0.025144745540517086,-0.01666103789392117,0.0009840537757843666,0.1328125
0.0034671505096012644,0.02961628204553848,-0.030361142920499788,0.11826165585703391,0.007131485737832239,-0.019659674925908973,-0.09540948836626886,-0.009835916108165421,-0.013625846288075921,-0.006831812988543952,0.010042687318401336,0.0018624693995921101,0.0026405058255858905,-0.0005674662617585008,0.140625
0.028569444837711316,0.2814534544057515,-0.28761346374781194,1.1275526231129451,0.06989223407715517,-0.18299226596918206,-0.8972472258416664,-0.0943322145660109,-0.13074315731802974,-0.06684222438355586,0.09486639737418545,0.03309371449430692,0.02486441454574346,-0.002359539056281849,0.1484375
0.02457839793833774,0.241608434830164,-0.24605804341063153,0.966484151537487,0.05978942107250649,-0.15662829996002156,-0.7678853026240035,-0.08094452075899634,-0.11190448778269507,-0.05718723193518979,0.08124571517958075,0.028174218765320152,0.02124538306027094,-0.002074558740425399,0.15625
0.011372158441894124,0.10927367382374022,-0.11023646254969738,0.4348820337858581,0.02665715974702223,-0.07042305303132826,-0.3447381080124735,-0.03648590865128746,-0.050159519403498325,-0.025521694370313118,0.03655005383703396,0.011783323395761833,0.009496059777104906,-0.001131782849429995,0.1640625
0.006392869177350036,0.0594795705097489,-0.05920766874736751,0.23520879468394448,0.014253094802613503,-0.03824966499151995,-0.18655931928145844,-0.01971279900209341,-0.027090339703913446,-0.013673364267453008,0.019856744784125076,0.005597918326862687,0.0050964494064610595,-0.0007774350406689789,0.171875
-0.01432974477581441,-0.14787424906854263,0.15369164365890317,-0.5964412407528296,-0.03735296247816587,0.09628943621134443,0.47411203800690244,0.049833038608798806,0.06946126840897693,0.035710966898536124,-0.05000995102505508,-0.020150884504443575,-0.013278681973055447,0.000698915885980565,0.1796875
-0.046226349235389555,-0.46736256745600324,0.48155060396257876,-1.8782174010984027,-0.11694140674687419,0.30395990187886274,1.4937121572057102,0.15692338821475552,0.2184965410710586,0.11189492522079529,-0.15787672505182748,-0.05977887080569316,-0.04159183414913118,0.0029737665558476367,0.1875
-0.032822506543981264,-0.3334317785130039,0.343710269660425,-1.340578570432179,-0.08352585136397205,0.21703036081361116,1.0675399121355058,0.11196636909128302,0.1561997417231493,0.07997382582798734,-0.11284997344775231,-0.04311688941945251,-0.029695430024727496,0.0020192403068511207,0.1953125
0.03009596484765557,0.29652030346786923,-0.3030958450376832,1.1873297488292782,0.07353292430047559,-0.19244798631464344,-0.9417975371461125,-0.09928784581129088,-0.13754331417229246,-0.0702643323849407,0.09966168438717292,0.03507070371817743,0.026156978370141352,-0.002467364226299522,0.203125
0.05750899819202546,0.5712472157004683,-0.5846563894314276,2.289172085245488,0.14200111658801418,-0.3711616000599427,-1.8192338085367457,-0.19139785318549782,-0.2657977025216711,-0.13579805446908172,0.1925181600317763,0.06913825511949309,0.050485344044831355,-0.0044228641020916965,0.2109375
0.009216737625725084,0.08780406255544868,-0.08797543644231805,0.34848430067103775,0.02142387830556085,-0.057018529831059546,-0.27838544449415,-0.029249229368326832,-0.040456218266507006,-0.020514097174588335,0.029591485390275292,0.009118628264563526,0.007614131259309179,-0.000978604896383077,0.21875
-0.03225460456450968,-0.3276982917417297,0.3380189086054879,-1.318499012786429,-0.0822030859023226,0.2130675408490165,1.0466552804836082,0.11012377504662518,0.1533269160780948,0.07856286172157663,-0.1105919606419928,-0.04244936154376474,-0.029183883254847356,0.0019801424968717836,0.2265625
0.0019607768127898814,0.014647611616733497,-0.014344788512083028,0.05652828177453723,0.003158720539696051,-0.009416550956115296,-0.04474824420058128,-0.004688938510955343,-0.006264658151092399,-0.0030929701828944236,0.004761375473952034,3.501505904365201e-05,0.0012059701159008191,-0.00045955214294396917,0.234375
0.047735771878715284,0.47309020198043433,-0.484943052282017,1.8967813300729723,0.11751272709434175,-0.3073864621146313,-1.506514743548586,-0.15851454069799142,-0.22002424408885382,-0.11242431262799318,0.1593361823926607,0.056916465433531134,0.04183659635308728,-0.003724952738484788,0.2421875
0.021200585214188414,0.2076407693179717,-0.21169259319834083,0.8310487337760643,0.05138152802685425,-0.13487382316620536,-0.6600760349016109,-0.06957112385287335,-0.09623959653573279,-0.04912920766228443,0.06984310377908634,0.023956129449293234,0.01827857455364266,-0.0018334846057682407,0.25
-0.039238622855239734,-0.39750617386436454,0.40960013367048603,-1.5978900232562376,-0.09952328135863238,0.2583939204403143,1.2696318888603275,0.13342435587080717,0.18592192868699856,0.0951675345488031,-0.13421454863941887,-0.05115705232515325,-0.035350220528075744,0.002476819793889732,0.2578125
-0.05047428394472973,-0.5101382300999344,0.5246131824472912,-2.0498783213122227,-0.12769421059997638,0.33158154480335633,1.62909774667219,0.17133410753039208,0.23841137171117344,0.12204484335103014,-0.17221674959527386,-0.06512995848116408,-0.045305919706187886,0.003278588352471628,0.265625
-0.021303089830310297,-0.21805448437424013,0.22478595428446582,-0.8776238516685969,-0.05488833471573418,0.14185235927625522,0.6979624625857654,0.07342000235481354,0.10222295232887188,0.05243805463746472,-0.07374412354945789,-0.028854482670139354,-0.019430148373464396,0.0011983620868830079,0.2734375
-0.005351098338553288,-0.05820791795262712,0.061370157240998535,-0.2360282481940491,-0.014926999470102027,0.03806884033255203,0.18775538449860993,0.01970442843519519,0.027704124290041977,0.014314599433888985,-0.019814554960107846,-0.008999023982547484,-0.005290909969677268,6.032888955471862e-05,0.28125
0.0023680315884334192,0.019130987581402862,-0.017929630222924646,0.0745576350152134,0.0044503504242275616,-0.012308139410404845,-0.059703756356556795,-0.006334843079216585,-0.00839576569696149,-0.004204094306819357,0.006336511583122474,0.000579800222086376,0.0015786954238385777,-0.0004906412922819516,0.2890625
0.02443569563847357,0.24005327820793834,-0.2452436581379086,0.9611091771378812,0.05949362523037372,-0.15604939265827786,-0.7640569520038442,-0.08038795142843745,-0.11143598925644768,-0.056921948511821835,0.08085709162376477,0.0279803838766441,0.021184739350388122,-0.002064389236260354,0.296875
0.03526619676883409,0.34851139734816733,-0.3565181995462057,1.3959357332300568,0.08645437791205919,-0.2263403179565045,-1.1087950032881804,-0.11665384093803628,-0.1619458948563837,-0.08270786147165758,0.11735493832409166,0.04148349363009,0.030762563437172513,-0.0028366105880771905,0.3046875
0.015487772507519587,0.1505053103514061,-0.1525960833684012,0.6010030709702456,0.03708511931786257,-0.09722571981011584,-0.4766531543700463,-0.05021933911915451,-0.06954864757035553,-0.03539246866422187,0.05049413810378957,0.01697784603799139,0.0131491765476295,-0.0014265871030604601,0.3125
-0.004065592762088174,-0.0454299723147267,0.04850830807247308,-0.1851394800445486,-0.011754547150908502,0.03015934365812614,0.14816747483528442,0.015430916938605625,0.021796511658820367,0.011343677262066289,-0.015600499334055086,-0.007332837734005614,-0.004220458252405006,-3.247661105196038e-05,0.3203125
-0.004653189556417491,-0.051604685901908504,0.05404371470131624,-0.2096539289085773,-0.013360719564752693,0.03371731315187048,0.16799891776510292,0.017461445725135704,0.02464309672142256,0.012777652078315741,-0.01766371542096699,-0.008154245056888835,-0.004716489294047715,1.0705492761753834e-05,0.328125
-0.007894675616197614,-0.08407327495706486,0.08729664750555163,-0.3402616591623167,-0.02150473467732543,0.054463440574143006,0.27164888604026866,0.028366978039381697,0.039812203607525055,0.020500322652867033,-0.02858123766711608,-0.012223484092836974,-0.007575329894702083,0.0002434319537349322,0.3359375
-0.016920455818620502,-0.17396938036698606,0.18070599962508357,-0.7020377412059652,-0.04384426510988902,0.11298600682005605,0.5575987748583047,0.05851048129531294,0.08176582404584914,0.04191960670208431,-0.05882949535589441,-0.023386351457892376,-0.015579684431597025,0.0008860839315722221,0.34375
-0.010076339548468864,-0.10498325873181114,0.11066843945865745,-0.42601160781297365,-0.02656765642663383,0.0683707981841095,0.336749785556149,0.03532581254593002,0.049598824190357445,0.025437070020488152,-0.03551024632186849,-0.01484030627372618,-0.00948795207457481,0.00039564936743983234,0.3515625
0.005286727959076888,0.04867003623724328,-0.0478025660134815,0.19116868051326263,0.01167610742801063,-0.03145470098501565,-0.15306339536074973,-0.01620914510058311,-0.022038245875722604,-0.011199526881720148,0.01626055920808091,0.004205907792333197,0.004165531901285412,-0.0006994439723374481,0.359375
0.008118932630214935,0.07649871508425653,-0.07757150325045205,0.30447590358976745,0.018514039082314807,-0.049530659119983916,-0.24128627751166107,-0.025479663429559048,-0.03500067210540848,-0.01779099123291096,0.02555242590306179,0.007666400848629976,0.0066768589589134494,-0.0008986719178609278,0.3671875
0.009390832032778355,0.08912103453399287,-0.09067880825300992,0.356077921822188,0.021709175210958078,-0.05762929826412469,-0.2819610624106725,-0.029691798787251603,-0.04093289863301971,-0.020802042623264034,0.029811346450268516,0.00925608782099214,0.0077961105719278,-0.0009894209737939417,0.375
0.018453387516449402,0.18014747290790808,-0.1836737285632674,0.7211201584997745,0.044544244338468604,-0.11682930277306111,-0.5731610305126261,-0.06027910778883172,-0.08347683220443054,-0.04259258518557191,0.060603256140355506,0.020550815321433744,0.015852046645622845,-0.0016386143262013687,0.3828125
0.01287701954423271,0.12427410818481756,-0.12670009655677444,0.4969509910220556,0.030657911605168876,-0.08083849987105907,-0.3953145097822987,-0.04156453107058589,-0.05751387603613556,-0.029353677319776016,0.04182512334278355,0.013597987857484808,0.01093836583876109,-0.0012411653952031723,0.390625
-0.006893372233104801,-0.07410366625455922,0.07603094701121771,-0.2982973253420017,-0.018873854310900013,0.04780571105250596,0.23757125956348968,0.02504376291500315,0.03494596792345,0.017954327686402306,-0.02507932677997427,-0.01101601603547197,-0.006587792254444673,0.00017214445812221288,0.3984375
-0.006915387032171266,-0.07440444904677072,0.07655866901416702,-0.29960247865526035,-0.019013342971765514,0.048127241817749085,0.23919536916132964,0.02522386838340153,0.03513702332317777,0.01811132531474902,-0.02521558566213834,-0.011015591457931176,-0.006641503905303209,0.000175140990124403,0.40625
0.0029191690231883173,0.024487224557762723,-0.023536231851870256,0.0955662043207062,0.005637927250021045,-0.015706872061479443,-0.07506017020115217,-0.007946093773163633,-0.010834875746642705,-0.0053726662720133544,0.008069454467224018,0.0013024296284041253,0.0020150591976981556,-0.0005288621790637753,0.4140625
-0.01836133744958884,-0.18833742785513918,0.19575577603119376,-0.7597793001193253,-0.04740379496481281,0.12290883360841036,0.6043241541029215,0.06339206002751374,0.088494482870115,0.04541819198360788,-0.06377716765935824,-0.025081750640248375,-0.016907518976624115,0.0009865844091378258,0.421875
-0.041214898538284084,-0.4173195539560714,0.4303801763147837,-1.678379528250463,-0.10447267797018192,0.27167245626308756,1.3339575994605062,0.14016933646427865,0.19521030523894445,0.09999467114215406,-0.14099812339250356,-0.05349965986245306,-0.03716089383049708,0.002617283736828275,0.4296875
-0.00549354764779633,-0.05967346438423956,0.06297119962886708,-0.24265388070887925,-0.015288550778971226,0.03907941113564908,0.19256955803233866,0.020199344548266024,0.028365788819181927,0.0146773667102928,-0.020305967190833246,-0.009136609257316696,-0.0054301657376493555,7.059918324790179e-05,0.4375
0.04641442528839972,0.46035207936324324,-0.4703273636689275,1.844089727596247,0.11437094513175632,-0.29887388506477186,-1.4657411163987264,-0.15425245715568336,-0.21409868118120998,-0.10932851827853621,0.1551163794931142,0.055374449271811794,0.04061773393388432,-0.003632677619794447,0.4453125
0.03011340103873988,0.2971767622964064,-0.3028557311800449,1.1897501313466303,0.0737042519470657,-0.19276921729733706,-0.9453661575489863,-0.0995658214511833,-0.13801388430234723,-0.07043338574496306,0.1000610857343894,0.0351006732206914,0.026143781733722022,-0.0024712576845645163,0.453125
-0.016033682914583465,-0.16527640867989682,0.17069381341071208,-0.6649381009202037,-0.04157829655249523,0.10763673731642007,0.5285571098953016,0.055527434546266484,0.07753073602555789,0.03978978120936799,-0.055925127973912074,-0.022310871520147567,-0.014756281347253273,0.0008211694635892082,0.4609375
-0.003950986001205368,-0.044545723580675024,0.04607533030250744,-0.1806349248716253,-0.01153171873054165,0.0289641372711846,0.14346090044475973,0.015083200500641953,0.02123991335859914,0.01099407749965614,-0.01520926804738724,-0.007332071059417069,-0.003991070235361488,-3.8402099751405855e-05,0.46875
0.020444277357613762,0.19997404970344915,-0.20406714849380395,0.7987544758720532,0.04929637111419031,-0.1299255909305612,-0.6346161402646817,-0.06684039533984772,-0.09257815567923824,-0.04722957415245183,0.06722696042940592,0.023017563553382654,0.017618206030449664,-0.0017778871190135745,0.4765625
-0.029836054205229237,-0.3031445564225018,0.31344059861020435,-1.2214609215194008,-0.07623500749406699,0.19721161537262769,0.9713027278944558,0.10192143218381576,0.1422093982090921,0.07280622205998077,-0.10251126175396817,-0.03944901005483244,-0.02706417983216155,0.0018066605823241328,0.484375
-0.08094868898537112,-0.814998831667558,0.8386860178936612,-3.274688868993898,-0.2038011903713538,0.5297945621039388,2.6031292945240856,0.27347592236626705,0.38091179568688366,0.1948030087970494,-0.27516895834715766,-0.103032986709677,-0.07242010716947785,0.0054511690293219455,0.4921875
-0.015369526936748602,-0.158655298603862,0.16419576958397655,-0.6392605947236658,-0.040032603246825754,0.10293416114646965,0.5088574532223485,0.05321296347162951,0.07481671498700562,0.038188235426814,-0.053779718366580374,-0.021598156116756497,-0.014180538904476457,0.0007752672900680029,0.5
0.09135281351209665,0.9098684585930997,-0.9328139203598579,3.649378851395463,0.22645829686605348,-0.5916154073965167,-2.899200657628281,-0.30511919674451554,-0.4235499237468462,-0.21663122333123916,0.3066833506936993,0.11108270187124245,0.08054477085381287,-0.006834511084759795,0.5078125
0.08534425826533992,0.849862540962127,-0.8709668291342304,3.408444638945819,0.21151572155242862,-0.5523420790883711,-2.7083381313667254,-0.28481571242258213,-0.3958390073928928,-0.2022638296518691,0.28655700138979956,0.10374460224170816,0.07520417382144415,-0.0064062871702335765,0.515625
-0.0011355607542182632,-0.01598786301140708,0.01788406857997814,-0.06642341041613607,-0.004358040851973896,0.010736658071886201,0.05208850922130858,0.005684173278116949,0.007683548817298038,0.004251045917926993,-0.0054203588328849955,-0.003658279265983326,-0.0015500838536730108,-0.00024053181400883808,0.5234375
-0.02819523651869597,-0.2870638026694856,0.2960305606451023,-1.1541824764253696,-0.07192766915337187,0.18700442956460123,0.9164927907994151,0.096553992788131,0.1341767371170721,0.06887744921668422,-0.09691204526756617,-0.03732003266333049,-0.025572897255260914,0.0016880928873228352,0.53125
0.004276753993240998,0.03799815899202604,-0.03778204770897155,0.15058164271081487,0.009133318931567904,-0.024371896193855786,-0.1195174057986728,-0.012527975869789413,-0.01718992057508823,-0.008680414992902228,0.01263876414610758,0.002979798488801569,0.003249445833131428,-0.0006275474686220897,0.5390625
0.0011465361333121678,0.006765078438079085,-0.005945778359953447,0.025282744634081665,0.001329394594725728,-0.004151910285624696,-0.019919739452141753,-0.0020344555086809083,-0.0026742557063882534,-0.001250161095847108,0.0021238384424055283,-0.0009164416124409271,0.0005045206873135737,-0.00040368917860228383,0.546875
-0.035335139332641444,-0.35847779631417304,0.36878991974243935,-1.4407893174366693,-0.08979230451240339,0.23319272634957275,1.144257251079435,0.12048829809858286,0.16744178471464258,0.08587482562612196,-0.12098459075285854,-0.04624542437269586,-0.0318502854532013,0.0021988076448991047,0.5546875
-0.04196573681964573,-0.4251103743992454,0.4371381765562292,-1.7081583094566413,-0.10646458473424632,0.27636335115040234,1.3569893147987007,0.14278799940464046,0.19855664918417074,0.1017966796036923,-0.1434680710175537,-0.0545286804729117,-0.037761355190517785,0.0026729072477987155,0.5625
-0.024284982283356044,-0.2483109246398359,0.25560942997875824,-0.9980849024292606,-0.062400950279642764,0.16129445466887682,0.7944257920326231,0.0834056933350578,0.11637859039666296,0.05963038772617828,-0.08396284101578808,-0.0326268525747935,-0.022104556639780643,0.001412758766359306,0.5703125
-0.010738406785749666,-0.11245074710243795,0.11636356177652728,-0.45317008293194944,-0.028510525785356285,0.07304886955061757,0.3620958919811324,0.0377903234009646,0.053183837603054,0.02721782784269508,-0.03824418968146204,-0.01579485585217703,-0.010080490981366598,0.00044563670696259454,0.578125
0.01408029974411147,0.1365778994875298,-0.13840562420896577,0.544492498336617,0.033594733344034504,-0.08854999315348225,-0.4320515405749893,-0.04572762237100795,-0.06292099413875565,-0.03214426149932659,0.04575751247742816,0.015125343164539484,0.011952086836230627,-0.0013262329463770328,0.5859375
0.039926817003893195,0.3955785504367363,-0.40339938454858054,1.5827252090049193,0.0981657837678972,-0.2567269094895438,-1.2580487906053828,-0.13256874468237156,-0.18361431479774795,-0.09387032847007029,0.13315248472290167,0.04729234999464424,0.034865156398537364,-0.00317013068253514,0.59375
0.02069944089226296,0.20282078362599112,-0.20562273391968522,0.8098100507587733,0.05007436507412567,-0.13150680089394523,-0.6427737762960671,-0.0679004752943023,-0.0936294341738612,-0.04789278681459878,0.06810541733560155,0.023358516024750527,0.01777271940047052,-0.0017984301808769577,0.6015625
-0.018123934245236277,-0.1860476289599731,0.19298470026930037,-0.7500969643080232,-0.04691773086655705,0.12112783459692936,0.5977278765522979,0.0625337036708064,0.08761887725639515,0.04484024059723508,-0.06308326569501684,-0.024918252855373198,-0.016681498903617666,0.0009702005609294313,0.609375
-0.0017714230602867828,-0.022127437031894247,0.024812102116266485,-0.09293919543217552,-0.006035828920510936,0.014544086593662174,0.07408942174365044,0.007574106059393138,0.010948119170906583,0.005755073692172232,-0.007684634726793179,-0.00454431188676063,-0.0021540575012115554,-0.00019632495672545344,0.6171875
0.04899179664914434,0.48621411040570917,-0.49662665984278176,1.9467464021256065,0.12076752542979592,-0.3158849575000869,-1.5487303475469663,-0.1628796511658909,-0.22625844199459988,-0.11548443817197125,0.1639577577276854,0.058594615689913115,0.04290800110908529,-0.0038155835267874682,0.625
0.042631495952780395,0.4222610113551477,-0.4314169235880724,1.691303810445824,0.10485213913534125,-0.274300264615952,-1.3455188725537295,-0.14136914562044242,-0.19646044409859942,-0.1002665262116095,0.14243423935813154,0.05067423470641505,0.03727678007135661,-0.003360665533307646,0.6328125
-0.020138682535467856,-0.20641933738751347,0.21301993310744924,-0.8305048199813392,-0.051907658141115705,0.13445567412921564,0.6600815760780462,0.06953435973742157,0.09670284985898277,0.04964016441253588,-0.06973857868180129,-0.02735454937732757,-0.018410253916063442,0.0011153367984971922,0.640625
-0.053059318726001205,-0.535994233572072,0.5509048894778419,-2.153050849254808,-0.13405164660306387,0.3487353483794944,1.7115479887156615,0.18006074301327843,0.25034105974640336,0.12822216353250507,-0.1809956020507358,-0.06825414898452832,-0.04760295266519906,0.0034617552060044517,0.6484375
-0.03190673256733148,-0.32437244680221156,0.3334129171495658,-1.3033473647140847,-0.08122744085588529,0.21092109844372617,1.0356763114599665,0.10901398591381571,0.15160778849250686,0.07770640793237595,-0.10955836918766892,-0.042009566422168375,-0.02880271520418453,0.0019541307923953513,0.65625
-0.004303195993402898,-0.04841647439774523,0.04955749455009211,-0.19460660084402545,-0.012441014696232407,0.03112459309136964,0.1546654722203087,0.016385930266259535,0.022959717684866182,0.01184061977299561,-0.016399246999875706,-0.007829114393734142,-0.004287719514319897,-1.1788262696056919e-05,0.6640625
0.011089032054054204,0.10566045709440167,-0.10869738786054342,0.42406587595567236,0.025900958735483648,-0.0691383725585843,-0.33600212520862455,-0.03533314283219106,-0.0487554713572486,-0.02490490958019584,0.03552516391227944,0.011236915651973167,0.009354628534660578,-0.0011089525680162365,0.671875
0.023259771909431372,0.22801359876091018,-0.233370413167132,0.9138757322330268,0.056418783545286955,-0.14833946600966402,-0.7248034175191743,-0.07639101654588303,-0.10569814972053956,-0.05403361105489993,0.07668390555701728,0.02644676594538177,0.020114310230440437,-0.001979285158346675,0.6796875
0.015036527797244818,0.1459998202268605,-0.14836499758321262,0.5836984229470125,0.03604339571433688,-0.09464365766858522,-0.46291820563235275,-0.04887349220216798,-0.06747262031810013,-0.03442128791940354,0.0489819852683605,0.01634075108352494,0.012794335395286249,-0.0013944611469052547,0.6875
-0.016342408364867705,-0.1683126347206118,0.1742028059084802,-0.6778465003839808,-0.042351211473708524,0.10979558452063722,0.5391274850955752,0.05661304209367402,0.07902898686843522,0.040577330083838174,-0.057001883376529304,-0.02263335640785629,-0.015049047647075238,0.0008441710494271282,0.6953125
-0.021998090961901844,-0.224908980276124,0.2323602803467605,-0.9055423700305276,-0.05656389732895674,0.14657861772028224,0.7199532544677218,0.07566720746848547,0.10545936897051549,0.05410489083887204,-0.07607001325390443,-0.029674483759309266,-0.020072422575884187,0.001247782454081894,0.703125
0.01793228679518427,0.17534762815352636,-0.1775312448060275,0.6993769092248966,0.04323189477330958,-0.1135552618875796,-0.5558344185461301,-0.05859112446314431,-0.08107447815093011,-0.04133966569805449,0.05893648862642043,0.019987665493397953,0.015340862276335757,-0.0016018416571048676,0.7109375
0.04245350464213499,0.4210824401427327,-0.4289971928843554,1.6847273655334698,0.10457562111071378,-0.2732820922681058,-1.3394367821024442,-0.1410824246890284,-0.19561317377588427,-0.09994480265023022,0.141830707874859,0.05050021836977767,0.03708550859679086,-0.0033515489231151848,0.71875
0.007895690220392472,0.07468005063547635,-0.07382816136818077,0.2948837921302511,0.018166280855488694,-0.048243177419309655,-0.2347473300820785,-0.024915486844890873,-0.03407450994927382,-0.017314853950329116,0.02497706390810723,0.007517125650667286,0.0064141594906050765,-0.0008847400447145243,0.7265625
-0.03184003299808288,-0.3235405303483176,0.33422023900402204,-1.3028837496743706,-0.08125778137759072,0.21048013200742577,1.0357208997558547,0.10869522994201604,0.15164904004613136,0.07768579219420016,-0.10938425307128825,-0.041926201648082785,-0.02885342790415948,0.0019510245864940486,0.734375
-0.015085925017674896,-0.15561996359371966,0.16180179505061396,-0.6291348114465778,-0.03940602078597984,0.1013357120750335,0.5001961073182675,0.05237638442776378,0.07329836964002942,0.03762892206718989,-0.05273636088467781,-0.021113687148710977,-0.013982237872053155,0.0007542444740844771,0.7421875
0.021546482340541944,0.21133094185916193,-0.2150736419991467,0.8441823936317654,0.05221274894900517,-0.13716964500374088,-0.6713980615130496,-0.0707551862965116,-0.09801175036339611,-0.0499582745626733,0.07111791042772253,0.02441656767027864,0.01855879107083559,-0.001861043662561687,0.75
0.007563010121429256,0.07088300355934052,-0.07221151135665008,0.28284186632497205,0.017265231752580087,-0.04598519427470036,-0.2248734931584859,-0.023629615044932932,-0.032690477943726357,-0.01654917328661204,0.023789077267449457,0.006989707829735844,0.006196166346287967,-0.0008624399750186117,0.7578125
-0.039397307833103606,-0.3998675486310514,0.4097877479233892,-1.6043342620159127,-0.10014781719571193,0.25988327589330906,1.2763262021312867,0.13439689907185345,0.1868427408070788,0.09568699862962966,-0.13502966404954528,-0.051416388244272505,-0.03545492908122894,0.002490591799153718,0.765625
-0.04211525447406704,-0.426955064042834,0.4381453537292162,-1.7134062504987693,-0.10688896724163073,0.2774856231387962,1.3630910933988751,0.14356944563073315,0.19955600335880008,0.10216317949000922,-0.14415687506809657,-0.054747957075704984,-0.03787735321848124,0.002685513236526567,0.7734375
0.011620852462461344,0.11164040061249518,-0.113180407130284,0.44644722316198776,0.0275137996258933,-0.07258565814018067,-0.3547746630816437,-0.03717917886580485,-0.05159453683323631,-0.026276418143997903,0.03759378052099973,0.012108142533325272,0.00978924148436104,-0.001148976374181087,0.78125
0.054397682684383546,0.5401036305768873,-0.5526070352544942,2.165464756411371,0.13438626692779138,-0.3511319824578169,-1.7211973022422689,-0.1810737027803737,-0.2513647535118243,-0.12846399779731538,0.18209964576177376,0.06525037648987611,0.04774278651127807,-0.004200674611063016,0.7890625
0.043982731463958334,0.4356181105396357,-0.4460463648456728,1.7462250535905317,0.10822912735415088,-0.2831588943415045,-1.3869904691074602,-0.14609580396280303,-0.20249791076723758,-0.10351417682883154,0.14669645450417695,0.05224060529171227,0.03850868832995935,-0.0034567411018739023,0.796875
0.01064111387509565,0.10190943710523137,-0.10338256781151413,0.4057317259490316,0.024933783682527914,-0.06600377766781797,-0.321892966985327,-0.03409430629865029,-0.04677800741480659,-0.023867898269122494,0.03404392794151944,0.010831142744244727,0.008928820039817474,-0.001079161818291192,0.8046875
-0.009360735908010717,-0.09797990529311598,0.10277215731886052,-0.3977766664611051,-0.024871788131647688,0.06406780081303405,0.31531001912185674,0.03302471366677831,0.046373014042036094,0.023816805393355397,-0.03328709994003361,-0.01394306040016348,-0.008833673244217589,0.0003450763263614018,0.8125
-0.02278031199995654,-0.2324404629434158,0.24075712734244456,-0.9363594548855122,-0.05836951858444704,0.15127954711911254,0.7435906285947292,0.07813905725109388,0.10895238396361803,0.05583948843625275,-0.07853479112768093,-0.030635089542076346,-0.02076924688786453,0.0013015064556250863,0.8203125
-0.040015167665521566,-0.4055309539804779,0.417278864569081,-1.6291559226867645,-0.10161208292586484,0.263565117293103,1.295691965698358,0.13621323230854673,0.1896004884250615,0.09711176373921498,-0.13692972319484348,-0.05214229847802958,-0.03607764384407838,0.0025324131766746717,0.828125
-0.0400148941832769,-0.4056736394849683,0.41717236634036126,-1.6302147492812824,-0.1017186938941158,0.2637857806552846,1.2963322497923164,0.1362962824917553,0.18963497879212934,0.0972143790245446,-0.13700600044706251,-0.05213322917538063,-0.0360755967343216,0.0025331518669552476,0.8359375
-0.007022303672800642,-0.07494460637976655,0.07877825821212787,-0.30483513609616286,-0.01918457809998099,0.04909886908818391,0.2414383982306843,0.02534866502675964,0.035423211418424534,0.01838703774273823,-0.02542458912740009,-0.011029335025784785,-0.0067966235785841605,0.00017894285944722833,0.84375
0.033834043966518706,0.33438242632286297,-0.3408558331334439,1.3377074860939617,0.08298319663676539,-0.21697404664508785,-1.0639367669811395,-0.11201970328549184,-0.1553411286109891,-0.079280739673335,0.11262750526656808,0.03976149599945847,0.029468685263764994,-0.002735386866392919,0.8515625
0.04868350604728377,0.4828881540934726,-0.4941025298705091,1.9350981912266112,0.12000283568844239,-0.31374246364072544,-1.5371883563200541,-0.16187136124184637,-0.22445976262292502,-0.11476827098074141,0.16263245462367762,0.05811727869900904,0.04267028046277416,-0.0037934396279906816,0.859375
0.03586468968708089,0.35433232442186513,-0.36274046253155806,1.4197905827355584,0.08787534802438611,-0.23020783328744435,-1.1270068184226183,-0.11870840231838628,-0.1644899048808241,-0.08410522188714616,0.11922782093852623,0.042141019521859724,0.03129213838739337,-0.002878809873874448,0.8671875
0.012780558863992271,0.12320011354652126,-0.12492133753578778,0.4917933797862961,0.030234120874091122,-0.07976982922206723,-0.389848746202887,-0.041103724769558564,-0.05676278276997871,-0.02893008731093665,0.041317028114674546,0.013527496109600847,0.01075576065932427,-0.0012329161089367918,0.875
-0.010150831799956206,-0.10634822375485657,0.11134594429666678,-0.4297015950270979,-0.026966141694421443,0.06947025582897587,0.34230768694313934,0.03594473027802709,0.05025100808203217,0.025833021589403576,-0.03605043904355805,-0.014901645824630515,-0.009625121627207026,0.00040296889365847445,0.8828125
-0.024448827841437273,-0.24946576525197126,0.25795514172994494,-1.0041341732280296,-0.06265137094970094,0.1622940033450141,0.7984121095086429,0.08395613348475447,0.11694964720389364,0.05993393899262186,-0.0843079893383671,-0.03269514293876471,-0.02226608713229086,0.0014235238146112267,0.890625
-0.02146712280952999,-0.21956333327686808,0.226471965358431,-0.883962655972607,-0.05520282545596563,0.14274403387073936,0.7020691331949224,0.07388346288234002,0.10288068803854683,0.05275506006868511,-0.07421427714854609,-0.029049212471896572,-0.019554866491276707,0.0012100252224926313,0.8984375
-0.010177691751222817,-0.10661720417522971,0.10998431926270506,-0.4295459356385941,-0.026991262636651657,0.06938643508336145,0.3410556685332727,0.03592575464172728,0.05007325842446085,0.02577238905678264,-0.036095884418314406,-0.015050834806121944,-0.009533496111030873,0.0004030793311196691,0.90625
-0.009052318420481547,-0.09557884457986866,0.09854399668661804,-0.3841032099537706,-0.02419278123536294,0.06220684700349168,0.30599066824880156,0.032169956818140874,0.04492097503887993,0.02312254868920164,-0.032363156162370586,-0.013666038934593098,-0.008564652279619802,0.00032297488475088444,0.9140625
-0.015595754653741287,-0.16110950652914705,0.166285792924321,-0.6482482957400001,-0.04058744459492814,0.10470636416570848,0.5157783618469566,0.0541490157281906,0.07564469802824549,0.03880076225833298,-0.05449354881800596,-0.02179725017957524,-0.014369904296392993,0.0007920118077871589,0.921875
-0.013763531854164218,-0.14241670006703136,0.1480000100318424,-0.5759934441224799,-0.03602496121884773,0.09255017472322273,0.4569034750888834,0.04790705746664738,0.06712240651580786,0.03441871856037813,-0.048232930884663565,-0.019486520277777385,-0.012727015453404046,0.0006629080025539796,0.9296875
-0.0034910556359109275,-0.039289427699495554,0.042528892816478,-0.16271477106061463,-0.010303290253354044,0.025571718979460114,0.12818086058207342,0.013335683942109135,0.019050702418511332,0.009818988789137853,-0.013454606540125482,-0.006686424625954474,-0.003618985791708074,-7.090734741595289e-05,0.9375
0.007697872040022886,0.07259778128160067,-0.07293976026077086,0.2888023177401984,0.017704475189045436,-0.04716552416380008,-0.22916621828046194,-0.02419169614016508,-0.0332894179692641,-0.016950761702059267,0.02433006815787596,0.007201942008011955,0.006294072649782632,-0.0008713289871090562,0.9453125
0.022066923497712262,0.21626462658129342,-0.22092067635772772,0.8669629850187296,0.05357910241642044,-0.14049144468963318,-0.687833986367776,-0.07238763553579738,-0.10036926127347445,-0.051238248403476745,0.07280279757594471,0.02503111009813705,0.019045415960830887,-0.0018971631460214114,0.953125
0.032456904889942496,0.3204241696916126,-0.32722069527919395,1.2830891625099123,0.0794903190514957,-0.2079555551244469,-1.0195638163708245,-0.10733243363379727,-0.14880318463607342,-0.07598100565168946,0.10786311972139616,0.037983367023862374,0.02826414983272945,-0.0026372751176108023,0.9609375
0.0197890423738719,0.19367547458957654,-0.19647510032015503,0.7723110334150542,0.04782694716834506,-0.12542103507561095,-0.6145050220028144,-0.06481778342213095,-0.0895998280164053,-0.04566388302718567,0.0650515999980002,0.022307250803726985,0.017004947289845182,-0.001732445059460845,0.96875
-0.004795754959303634,-0.05292880012113444,0.055833755259398536,-0.21584678373511004,-0.013662220765194792,0.03468813010350734,0.1717826292790061,0.017911231041967686,0.025231587561145782,0.013117258805026505,-0.018072363746301164,-0.00827488934843013,-0.0048309031330509185,2.167007449693618e-05,0.9765625
-0.003599134331892095,-0.041454784148334756,0.04277931654728573,-0.16674462426434958,-0.010813354829357181,0.026992445451571808,0.13434566663234737,0.014084398990981635,0.0197253436587465,0.010308907057382558,-0.014125310151543464,-0.0068967413825920315,-0.003779427210135756,-6.347767257621701e-05,0.984375
0.020347222032911873,0.19860750773090943,-0.20327319627610313,0.796554249180302,0.04900248174858711,-0.1289836855832966,-0.6311420486502953,-0.066410308756972,-0.0920567811502683,-0.04694674563587492,0.06681558999901956,0.02283542484632749,0.01747115494922194,-0.0017716098265256421,0.9921875
0.019886115816612256,0.19484413109425433,-0.19787223860421382,0.7785057700635731,0.04806858048391238,-0.12633401898556174,-0.6182593896789299,-0.06512081731502832,-0.09006247491073746,-0.04602279429226243,0.06547917074570093,0.02235669758097323,0.01708505342040332,-0.0017395832060323282,1.0
-0.01466782880426896,-0.15083167503888883,0.1573087707457605,-0.6099427363559325,-0.0380637106917822,0.09833420471113348,0.48401565176601696,0.05083979881311161,0.071056243038821,0.03638922310461805,-0.051078838980684396,-0.02052277329313513,-0.013537945567466817,0.0007240324845923802,1.0078125
-0.0356387227250766,-0.3613117243069568,0.3722347232616581,-1.452751255703674,-0.0904946097063996,0.23494595945811272,1.1540209496074565,0.12143163537687608,0.16894457752792313,0.08652516529738945,-0.12197546415866808,-0.04663138766343891,-0.032129243632696966,0.0022197256706488803,1.015625
-0.017704310094366904,-0.18219877837411366,0.1877830762213599,-0.7323888237016097,-0.04580321667839741,0.1184611018017898,0.582269597143319,0.061335682066358636,0.0853541990446256,0.04379241362749151,-0.061540722310339996,-0.024379402616956737,-0.01624107975698123,0.0009411225688928302,1.0234375
0.0031021368048076013,0.026178526848695285,-0.025467080463380313,0.10291882940368959,0.006164439954197245,-0.016836765737591297,-0.08144069237485344,-0.008575414542007975,-0.011678753282979092,-0.0058493886899351226,0.008675203600523118,0.001529465628259192,0.002182333869169629,-0.0005424709259447338,1.03125
-0.007655244969803624,-0.08138853995403637,0.08539897669764722,-0.33044339711327736,-0.020711948756347832,0.053201053821623975,0.2625607395820459,0.027477434293158288,0.03857568010747352,0.019877768412403685,-0.027685019890427945,-0.01180742785983989,-0.007367726407941227,0.00022492312705567086,1.0390625
-0.02825260897399136,-0.28760554472902256,0.2966573184404069,-1.1584293674314008,-0.07220919690580072,0.18713290992167433,0.9203352469319006,0.0965975689850574,0.13474079932849056,0.06906571123042156,-0.09727909431757263,-0.037471583141265315,-0.025605994852598356,0.001693604147146331,1.046875
-0.018081878007895263,-0.1856387557078636,0.1917289532444281,-0.7485860828860208,-0.046764837964810624,0.12059072882196696,0.5947052860107354,0.062348788061327806,0.08719974135651827,0.044667087143043994,-0.06286005326264829,-0.02490493056754373,-0.01654325205915886,0.0009673190082748471,1.0546875
0.01508587192385391,0.14656399669269465,-0.1489259141160144,0.5854375308062238,0.03613884576932989,-0.09547614666334465,-0.46520321069804726,-0.04907642966602472,-0.06772134166739867,-0.03461379750845303,0.049274737412169686,0.016321496465988163,0.012874368741537181,-0.0013979413797384887,1.0625
0.02257917210715898,0.22131471171063635,-0.22559699919645426,0.8862269492600423,0.05472746859138009,-0.14388197794264104,-0.7038057495856257,-0.07408786907606141,-0.10266317630447272,-0.052362962878731406,0.07454768020689842,0.02566953820716981,0.019470398421524374,-0.0019301001575904658,1.0703125
-0.004967962279920467,-0.05480131401703071,0.05731431157506704,-0.2215124446909443,-0.014236437421750158,0.03592691339143444,0.17688542030261867,0.01858595238789513,0.026019188097480654,0.013590523540830369,-0.01862673424854367,-0.008560788565702106,-0.004993368928661775,3.552673591067876e-05,1.078125
-0.012006325978512958,-0.12497201796888786,0.12919130693695877,-0.5036292433350613,-0.03168482772919776,0.08167020495851113,0.4009195529529887,0.04210380389187558,0.05879718773563194,0.030275901201592594,-0.04238804612371072,-0.017307361988920966,-0.01119431193744272,0.0005345971512210124,1.0859375
0.031113802599830088,0.30729905037770083,-0.313919174827573,1.230299148317155,0.07627995743557055,-0.19947937752901165,-0.9775390164357766,-0.10296899572811015,-0.14263349443882498,-0.07295092179482016,0.10338668985354749,0.03630284478722966,0.0271106874396012,-0.002543457707404089,1.09375
0.06591631403156302,0.6556488003881698,-0.6710003434973614,2.6281235122057205,0.16319009951363114,-0.426157293191342,-2.0885885615731845,-0.21984083973020693,-0.3050327577573944,-0.15603986750706586,0.22095860619375965,0.07957109143158039,0.05797153496525298,-0.0050232772497243285,1.1015625
0.03742680900444384,0.36982153277242763,-0.377838135411621,1.481678577965153,0.09181813286545962,-0.2404565687345025,-1.1774054722076948,-0.12387734312171865,-0.1718942481401666,-0.08777610506136083,0.12466444019447716,0.04416950164449973,0.032648764949271554,-0.0029873750280836747,1.109375
-0.012195806729772838,-0.12714421895816985,0.13188027151190662,-0.5122747628759935,-0.03214900465645384,0.08269750006006091,0.4072006073295705,0.04293612250069738,0.05970487311525242,0.03077000011310768,-0.04292222584099501,-0.017487561272635996,-0.011386801022402108,0.0005511314904564256,1.1171875
-0.02268787075753578,-0.2318227497768788,0.23933994572179912,-0.932804088779284,-0.05824218889804992,0.15097892883558825,0.7415915707641532,0.07806107362480297,0.1086219518662316,0.05569747739680895,-0.0783463190597209,-0.03052238508393071,-0.0206892866191687,0.0012957721315072738,1.125
-0.016797668787480187,-0.17276166224407055,0.17883950100030693,-0.6966186070701321,-0.043596850989709696,0.11274614015165006,0.5545722596414658,0.05816836148594822,0.08133140477065354,0.04165360923013683,-0.05860887602113904,-0.023234192639107393,-0.015487898648796196,0.0008751531938745833,1.1328125
-0.03132130210260336,-0.3184442312476413,0.32820985782484624,-1.281533176023552,-0.08001408944079633,0.20733942363204388,1.0196959017321081,0.10699079771007594,0.1493050737959954,0.076462822670524,-0.10778475471055762,-0.041318077828113,-0.028386186628009267,0.0019132644254646692,1.140625
-0.0323016633167918,-0.32820075943530164,0.33802763864795204,-1.3202749997362606,-0.08235175225394599,0.21340027587914223,1.0495524679727946,0.11029902711619105,0.15360015823333545,0.07872131306068454,-0.11091061576885472,-0.0425199175114245,-0.029200975355051555,0.0019830047065428277,1.1484375
0.0042944284534877685,0.038591403596938335,-0.038392893612875637,0.15224399932842853,0.00930797792240687,-0.025172279379400905,-0.1218476674190011,-0.012730909715317136,-0.017671306937792258,-0.008890838075843883,0.012963821927502416,0.003002190474271032,0.003333547749481429,-0.0006297250405683106,1.15625
0.020560119096779874,0.2014315358558778,-0.20546127767521263,0.8062561070063877,0.049965781580404406,-0.13087477969586084,-0.6415151094262095,-0.06743513432263508,-0.09357374348688335,-0.04774090100301252,0.06786065131637867,0.023214727262012555,0.01775256364444939,-0.001790294387627723,1.1640625
-0.018454566117165786,-0.18964139402223032,0.1958438420443495,-0.7627355228399583,-0.04767358672056007,0.12360604667525463,0.6063633822811528,0.06369906392885902,0.08896345476062346,0.045629277737658076,-0.06416313701867263,-0.025310398283727293,-0.016926108524333267,0.0009946968909383472,1.171875
-0.04515894422411781,-0.45714555502381227,0.4705102150054958,-1.8367347957269282,-0.1145133180901894,0.29758687413912666,1.4602078977353032,0.1535144891273369,0.21381196843939052,0.10950740211847522,-0.15442061538022908,-0.05850473709791805,-0.040645023153722766,0.0029011451050457962,1.1796875
-0.006306065633492026,-0.06778100993377877,0.0713295450888392,-0.2757520738954012,-0.017473429185496405,0.04427682765360075,0.21903976684276283,0.022993881721809915,0.03225052726557044,0.01666325510304326,-0.023034671209615463,-0.010188642071478788,-0.00614903326244245,0.00013013045862135468,1.1875
0.03971969125819575,0.39327585711714286,-0.4015856715928892,1.573637892674796,0.09753682571575602,-0.25575390018931127,-1.251091127795256,-0.13173369049879938,-0.18277537282824177,-0.0933208590066309,0.1325104003707098,0.04701250235459895,0.03470681994345675,-0.0031529938837941782,1.1953125
0.029131721943042897,0.28710183439173265,-0.2928092126264963,1.1487829800011466,0.07116819402274235,-0.18683092470863924,-0.9127775394602723,-0.09626651665660171,-0.13325940516804743,-0.06806323892735955,0.09666736287191612,0.03381132405988823,0.025300553006522192,-0.0023986010313703588,1.203125
0.0015397130283818271,0.010664178836077905,-0.00940673267332713,0.04108150089195149,0.0023010290556828585,-0.0068982609311311425,-0.031314256089278576,-0.0035587575397371947,-0.004289718982990189,-0.002180113086223949,0.003360495430025873,-0.0005001307778333139,0.0007939401413700475,-0.00043175923536237747,1.2109375
0.016377893090786945,0.15926592709208776,-0.1620546553099543,0.6373016298800892,0.03929921294735718,-0.1032480767235448,-0.5048039386065774,-0.05328805788874013,-0.07354740743098907,-0.037580879941921615,0.05344349366628957,0.017968853818114243,0.013954322928961232,-0.0014901998107454953,1.21875
0.04175757853278946,0.41341320185505265,-0.4230850362438507,1.6562480997235927,0.10259885831812801,-0.2684849367177643,-1.3155339044368182,-0.13844497544655512,-0.1921534868821217,-0.09814716324541412,0.1392149686040499,0.04953123279886123,0.03650647951796787,-0.003299378086029425,1.2265625
0.018362001133000207,0.17905368156641124,-0.18288965822138592,0.7161122994743104,0.04419516559063967,-0.11629047236336276,-0.5694563700992754,-0.05982218911390537,-0.08301035976565203,-0.04230444602767601,0.060267542000940505,0.02043865561573738,0.015787414809571212,-0.001630271717078238,1.234375
-0.02614459154579419,-0.26668975527978356,0.27453178834282765,-1.0717190952147022,-0.06689298113347447,0.1734677116162216,0.8515958988020351,0.08969811530659881,0.12484504777521402,0.0639447979978705,-0.09005920060147683,-0.03487974029395859,-0.023711986437683706,0.0015437789634078023,1.2421875
-0.02273701146029715,-0.23250363935589619,0.2398574982508125,-0.9351465743848826,-0.05840489442125974,0.15132905038229957,0.743890086496432,0.0782491535255746,0.10900926032833044,0.055847211901600725,-0.07860517529635484,-0.03060711231015351,-0.020728681508541,0.0013008007960510297,1.25
0.01566752959451345,0.15233884102451056,-0.1545983435752981,0.6075028843626763,0.03750995687484191,-0.0988626663681066,-0.48260969304433315,-0.050855966583766565,-0.0704570819805259,-0.03586300885519815,0.05118352285147832,0.017165251137391827,0.013351025734517399,-0.0014384918556293402,1.2578125
0.015499170948004995,0.15097313355232383,-0.15293988510516535,0.6015575678050387,0.03722253354816835,-0.09800663097192859,-0.4794733145201383,-0.0504476872072537,-0.06995629361742284,-0.03557551891759218,0.0508175696366735,0.01696405877109152,0.013243050895284898,-0.0014277723984994898,1.265625
-0.026503173223162757,-0.2696858468521766,0.2786336534671607,-1.085165515018421,-0.0676140699732451,0.17556132188250545,0.8609700592349078,0.09061342337683487,0.12616534159433196,0.0646930599066482,-0.09103876463033266,-0.03526326733035736,-0.02403160051284167,0.0015673897075178273,1.2734375
-0.03867063364892316,-0.3920429613471245,0.4036099368508304,-1.5746701250319382,-0.09817579320172001,0.25520164693314906,1.2520842557448608,0.13162207638720105,0.18334964120594713,0.09391304657273163,-0.13243912438909072,-0.05043444615412428,-0.03488206342809933,0.002436863479028094,1.28125
-0.007298681032601391,-0.07822914329005508,0.08095860188914106,-0.31527145269451734,-0.019996119267642432,0.05108345165517751,0.25258164670196526,0.026334299215832642,0.03712175778790721,0.019112231567134996,-0.026705997028780393,-0.011491849377925592,-0.007055488083643077,0.0002006844238929582,1.2890625
-6.686852142247517e-05,-0.00549984510970029,0.006567175406064791,-0.024773949639197636,-0.0018543277203238188,0.0036268665333231394,0.020594102602232767,0.001975142651742656,0.003197251569583123,0.001730134065392117,-0.002120552614951731,-0.0024972039223737533,-0.0005946365861714037,-0.0003163800203496821,1.296875
-0.03240564520773354,-0.32887010329292604,0.3394239029506922,-1.323870369432507,-0.08246906259962548,0.21387153285856292,1.051456221224629,0.11053738670754858,0.15396656427089456,0.07883690045554298,-0.11107892652796461,-0.04262132842956898,-0.02928251960243684,0.001988568637952351,1.3046875
-0.032220151649814344,-0.3270948968676484,0.3380447146180199,-1.3166770884588337,-0.08204392680991161,0.21285905813187667,1.0460655671110268,0.10997768214317573,0.15316560125534476,0.07846868119029202,-0.1104704476336128,-0.04234787026918278,-0.02916531421902909,0.0019762036576563575,1.3125
0.02185661594516727,0.21396451165979122,-0.21797261715105765,0.856084329164868,0.05288263860603349,-0.1388981314602009,-0.6792833608768172,-0.07159149518375914,-0.0991275920045114,-0.050561764276343,0.07195948852376818,0.024813177150632294,0.01879881213999418,-0.0018792044845090318,1.3203125
0.05368601418628796,0.5325166062913043,-0.5457441797896935,2.135425153729429,0.1323517859151693,-0.34614633130150524,-1.695550709971315,-0.17852666776615547,-0.24769849907827535,-0.12659540186919852,0.1793685290451921,0.06429821115018498,0.0470742136738858,-0.004149589823862129,1.328125
0.029155930075556707,0.28712266840848083,-0.29368302935056995,1.149758917546846,0.071135585277112,-0.18666963279235874,-0.9129957004271795,-0.09618049601914729,-0.13326984991259344,-0.06807194047173587,0.09661586997760445,0.03381386746921312,0.0253335036517156,-0.0024007200310987736,1.3359375
0.011693615377531118,0.11260294737670261,-0.11372580600006843,0.4478306970608021,0.02756674004088635,-0.07312279723976241,-0.3561904281341264,-0.03755268082215999,-0.05187524165469653,-0.02639106493759016,0.03780356649975349,0.012177321649730495,0.00984137543929365,-0.0011548845460563149,1.34375
0.03102656493922406,0.3063374614882309,-0.31231089411024354,1.2253368961853222,0.0759230725809013,-0.19899451615652514,-0.9745882981763507,-0.1025237686979632,-0.14225361804340966,-0.07261971289438726,0.10321295085752036,0.036238065343587235,0.02700735040474881,-0.0025335122293753923,1.3515625
0.031804806036746465,0.31394194603052256,-0.32070127108550195,1.2577033893175023,0.07792790855067332,-0.20392834894010795,-0.999963718840452,-0.105137751992148,-0.1458693759940738,-0.07453120265819692,0.10580231892219094,0.0371714614106168,0.027705123310209773,-0.0025895651240515627,1.359375
-0.004227837578301858,-0.047226493476231486,0.049446764540023516,-0.19031241114503597,-0.012108873242953575,0.030852458432583347,0.15150150126219072,0.015961480675585782,0.022519864073811915,0.011586926730126125,-0.016048556609929564,-0.007652572681247944,-0.004287191949516015,-1.9598076570976283e-05,1.3671875
-0.02207019263680911,-0.22595897541310095,0.2329602879843755,-0.9082345355532666,-0.05673440393588804,0.14699687725911031,0.7220555583388804,0.0759191802878556,0.1058642674918852,0.054276975432051885,-0.07636168744097943,-0.029824761863911933,-0.02012423125985708,0.0012534510049625662,1.375
-0.012520063367875527,-0.1299826918165975,0.13465114127888023,-0.5244300764657762,-0.032829558405249745,0.0846154741726865,0.4164783069957441,0.043762914307271715,0.0610863036359888,0.031408326979130895,-0.04400475595299107,-0.01792129586575852,-0.011614950408752411,0.0005713837592808553,1.3828125
-0.02769479048024201,-0.2816802923964341,0.29022470169181946,-1.1333521396384088,-0.0706680797812586,0.18345305470528572,0.9006797646645589,0.0946994770030203,0.1318410852293897,0.06757697073008824,-0.09524273191832527,-0.03675328781266165,-0.025071580390952537,0.0016520078384382208,1.390625
-0.05848865942748588,-0.5902364153781142,0.6069129965597191,-2.3710890643325397,-0.14767239653699268,0.38422839417665605,1.885521251038261,0.19823392884254842,0.2758485852304311,0.14121157424435424,-0.19940491349001224,-0.07502393486273011,-0.052457110353834144,0.003848800547319479,1.3984375
-0.040532037429502274,-0.41073953980113614,0.4231239828495891,-1.6510532491178007,-0.10295592798940466,0.2672683480886667,1.3135964632893202,0.13799285910322015,0.19224671288928913,0.09844589488992458,-0.13881851449557203,-0.05273070154494194,-0.03657385957934286,0.0025705106740782522,1.40625
0.01111776700683446,0.10645958935159505,-0.10744941518697991,0.4238649592795752,0.026082732533292435,-0.06944241238169963,-0.3365262647170874,-0.03557072450003985,-0.04903464426968546,-0.024953816867580896,0.03578209311956807,0.011438838217997606,0.009288371071409219,-0.0011126829900571778,1.4140625
0.01876008763214301,0.18320025306957244,-0.1864569733267551,0.731930234176852,0.04530876301890777,-0.11931572391725667,-0.5823087215804429,-0.061343518400490654,-0.0850139776801002,-0.04331274157003872,0.061719172534779966,0.020952515034944795,0.01611721614627494,-0.0016600288304527908,1.421875
-0.007957543803764039,-0.08419803781292423,0.08801639729574835,-0.34108550457784437,-0.021397291080319528,0.05500156789209515,0.27057757327575727,0.028399054966153917,0.03969977744697102,0.020508109584507852,-0.028565599180895875,-0.012208339111939078,-0.007607706019880852,0.0002441198420864137,1.4296875
0.013934914921497404,0.13500330369947613,-0.13641874825777597,0.5379925904722133,0.0331727082849585,-0.08733016411620649,-0.42763334393080454,-0.04507556050282808,-0.06226002102154927,-0.03170746313629651,0.04531469599768792,0.015004970531787629,0.011781718829874766,-0.001315224382181096,1.4375
0.07623132172839946,0.7586446545892868,-0.7765173432716082,3.0408937016824797,0.18866487726214007,-0.4930763732375462,-2.4163852420115055,-0.25427370754233347,-0.3529036722820326,-0.1804829188413016,0.255708947792834,0.09236182385454053,0.06707617620435148,-0.005755515430354649,1.4453125
0.0773769199697074,0.7699336694491868,-0.7889914432768066,3.0875451157169844,0.19150503801310753,-0.5005460260796574,-2.452765437236999,-0.2580941660513085,-0.35825374679164695,-0.1832308210432596,0.2595054035415632,0.09372625847994144,0.06812465216447865,-0.005837568913961881,1.453125
-0.0017461762271728228,-0.02230593803622895,0.023720485270668782,-0.09157723001218868,-0.00607876059835792,0.014808925723126556,0.07408435459521498,0.007657941489576588,0.011032371789382465,0.005765991987175744,-0.007814663266043234,-0.004577829934422493,-0.0020978644140272023,-0.00019712077497915296,1.4609375
-0.05890046152589616,-0.5943815842741026,0.6113950200701597,-2.3886979033181497,-0.1487666396558899,0.3869067417279719,1.898819537125474,0.19959102933551168,0.2777471551476572,0.14226677779794214,-0.20078627211538924,-0.07554270270870582,-0.052831861699743986,0.003878017688175931,1.46875
-0.03668409861341687,-0.37197498492129893,0.38310551905377604,-1.4956879057439103,-0.09322087940909828,0.24199551494202445,1.188261666274059,0.12498151902026985,0.1739449699006053,0.08913988973909773,-0.12561591973542946,-0.04794871438334857,-0.0330834924136392,0.00229502453733857,1.4765625
-0.0025514168485599653,-0.03059015617973563,0.03165205979064121,-0.12262915860985125,-0.007930531358232504,0.019619343504061762,0.0974379480803838,0.010403973636558591,0.014543019461894718,0.00755592238675832,-0.01031247527042653,-0.005611583581243857,-0.0027467459240356393,-0.00013808963703115004,1.484375
-0.015520027633707434,-0.16051546345717038,0.16465518750638866,-0.6430092251935153,-0.04026726779267387,0.10406566709405567,0.5114793035254077,0.05396233497738104,0.07504118522566956,0.03850255683376565,-0.054145030174270664,-0.021732566300539293,-0.014252229195290275,0.0007856627504566261,1.4921875
-0.027518952115363638,-0.2800695911892663,0.28878001450019447,-1.1263664943215015,-0.0701638438460196,0.18218022203866027,0.8948649123824386,0.09413353294785991,0.13104175586803363,0.06714091751106836,-0.09461710129911911,-0.03652763000814244,-0.02492619268390102,0.0016396124493457457,1.5
0.01097803250882146,0.10593550629838269,-0.10581685446789173,0.41895327633174073,0.025990893148866427,-0.06843556084767916,-0.33390215015663127,-0.03531095114098683,-0.048575217079172214,-0.02478906482176261,0.03544442359390859,0.0114067476686415,0.009212126040707055,-0.0011056128217759229,1.5078125
0.04684926622112409,0.4648525342108452,-0.4742044750027749,1.8600517481832899,0.11546109666692068,-0.30184617562626037,-1.478154406197978,-0.15580405677008008,-0.2158318910477721,-0.1103688458538524,0.15648817875100712,0.055931665177925007,0.04100691468189642,-0.0036619190406959,1.515625
0.01871172521578077,0.18249044075994336,-0.18547647012158563,0.7300034804622718,0.04503820140559917,-0.11853953712923186,-0.578755786608683,-0.06118593779421097,-0.08438726851878213,-0.043065765428335415,0.06133190146219887,0.02085024489936136,0.015994628463537046,-0.0016546305816382953,1.5234375
-0.026761812764198846,-0.272902980503452,0.28133645745537,-1.0968793429891348,-0.06855728134717544,0.17751755514537984,0.8725941999182327,0.09164762957591278,0.12773073530540535,0.06553360591384959,-0.09219721970453111,-0.03567451033689283,-0.024350133212080485,0.0015868493332177273,1.53125
-0.018305053893432323,-0.187808834975283,0.1942259506640632,-0.7571519051518047,-0.04735171959052514,0.12240188659560253,0.6011809947341012,0.06325490610663322,0.08803990977789751,0.04525503057319677,-0.06349943276993085,-0.025083475141967845,-0.01678872221293333,0.0009828959070592152,1.5390625
0.012797368661811288,0.12367137925662844,-0.12534403495917695,0.492452259966406,0.030353744401159087,-0.08011551476636385,-0.39177641540962144,-0.04120576409160331,-0.05710020417447584,-0.029040500198333978,0.041524214328478325,0.01359929007218795,0.010832188442674636,-0.0012335386162107653,1.546875
0.0027863731164455637,0.02296361767623169,-0.02246712263280507,0.0901275675694004,0.005258197770822876,-0.014860243901428313,-0.07053362324504467,-0.0074924900864528545,-0.010110177283773612,-0.005051862486968844,0.007540116301491746,0.0010918203097086477,0.001907705324974176,-0.0005179734854499281,1.5546875
-0.019122967259752908,-0.19663268342165524,0.20253366423695776,-0.7903264099375243,-0.04953999564464626,0.12791797356814885,0.6296021802069638,0.06617521385807748,0.09226236822547298,0.04732187365763838,-0.06653232938408513,-0.026185701939961545,-0.0175600894491666,0.0010433586072700024,1.5625
0.004514543066049525,0.04043438185279493,-0.04030358748375492,0.15922139627527396,0.009544219345075274,-0.02599851270942281,-0.12639720886299424,-0.013297104231848728,-0.01825320207335054,-0.00918470206607915,0.013434231317786928,0.003228396229541628,0.003446783010470776,-0.0006443548756996794,1.5703125
0.040459008596014395,0.40071168302398813,-0.4093460144009717,1.6035655428834388,0.0994377299189389,-0.26027890336547815,-1.275366886632488,-0.13419868240635813,-0.18619985298555208,-0.09511911709948241,0.1349889145101843,0.04794004537860996,0.0353817201588146,-0.0032074465644210486,1.578125
0.029555248965841028,0.29137972971800724,-0.2973427240601242,1.1663820561909826,0.07229170172628022,-0.18951424239816603,-0.9272576845079238,-0.09765221712743373,-0.13524255484324785,-0.06913358419832347,0.09814040564381561,0.03434618844382566,0.02571656697167906,-0.002428293650425914,1.5859375
-0.0037271880231449428,-0.042175192431335114,0.0441055280437413,-0.16982402815620648,-0.010811691575770237,0.027200753390573568,0.1359708972054568,0.014172255513862718,0.020227468848858916,0.01033820785464029,-0.0143989642427671,-0.007081439980418611,-0.0038118888360998216,-5.464392476918183e-05,1.59375
-0.015291439414437166,-0.15794379919644835,0.16272831199192583,-0.6348602400849782,-0.039726810404615266,0.10262893424906327,0.5056028301507612,0.05306678197671403,0.07418236747041498,0.037988100398928214,-0.05349230163593873,-0.02142937823834955,-0.014068786917760843,0.0007692546308564307,1.6015625
-0.027332876947498513,-0.2783276290555856,0.2869803390055791,-1.1203096882917023,-0.06985686486831356,0.18114880923962132,0.8902226393218917,0.09358253440497186,0.13029312349583713,0.066817397460743,-0.09406922315268583,-0.036295632415621726,-0.02477345180661667,0.001627850811229241,1.609375
-0.05285033590719261,-0.53378554206659,0.549597328219893,-2.1461141893817435,-0.13360614919695923,0.3474484041972383,1.704713450199421,0.17936643449295603,0.24935639027112766,0.12780023284547462,-0.1801776381598248,-0.06795131829561722,-0.04744837036013442,0.003447360206654855,1.6171875
-0.037370130734178254,-0.37880652688615385,0.3903668596620798,-1.5228308295463473,-0.09491484101311115,0.24675760559571092,1.2100244677152712,0.12731584952188915,0.17711064548813682,0.09080028848008741,-0.1279231153412195,-0.048754940447302636,-0.03372506688606478,0.002342581327422097,1.625
0.033039791586774094,0.32622022265617373,-0.33318726844791413,1.3071929991755158,0.08093554501892057,-0.21182567381062345,-1.0379498841345942,-0.10935316413769851,-0.15148901442083512,-0.07738739121030641,0.1098212898175073,0.03867220406673864,0.02874965762353356,-0.002678171157713283,1.6328125
0.07342993464818025,0.7306114207140174,-0.7478918108436089,2.929532346765477,0.1817647123623779,-0.4750274138914483,-2.327178386703683,-0.24505824644047888,-0.33996915369161673,-0.17383522011098065,0.24624714772331982,0.08885002091613779,0.06457967632161524,-0.005556768355514649,1.640625
0.03340603118282383,0.3298056172515756,-0.33665842110211114,1.320789121852649,0.08180735844213544,-0.2144062809462406,-1.0496983258547505,-0.1104586865413195,-0.15321213435861472,-0.07825017559915874,0.11114366045740671,0.039162510736576714,0.029071275928057302,-0.002702409504931247,1.6484375
-0.017105027498076634,-0.1758528362407608,0.181822437291201,-0.708545250608275,-0.04428224521437439,0.11464123902864436,0.5624088758642733,0.05930640042613791,0.0824349782637907,0.04234065300129022,-0.059427610620142395,-0.02355901010555053,-0.015716277192914838,0.0008976532188315724,1.65625
-0.009552534156271449,-0.1000848330820987,0.10402400733885687,-0.4052031694604116,-0.02542529423279385,0.06546978091496027,0.3220899879237909,0.03384560785479714,0.04723937812506355,0.024306790863709127,-0.03401671121035925,-0.014185009644086427,-0.008997953049251994,0.0003582145946228429,1.6640625
0.018002422192251986,0.17568712808241815,-0.17872051312680468,0.7011847790134853,0.04329648919794408,-0.1140499116341158,-0.5559720276335176,-0.05878343183914253,-0.08112487292129628,-0.04142597690024564,0.05890838034856255,0.02000125766133395,0.015430114395004784,-0.0016051856665524847,1.671875
0.005504772854060362,0.050185737842145285,-0.050142108206233174,0.1987803946162561,0.01203866352042386,-0.03267623958884171,-0.15665609173246475,-0.016722281144209542,-0.022659990746206907,-0.011535107878724143,0.016664414657470136,0.004424885780014306,0.0043229081850560255,-0.0007125768885236906,1.6796875
-0.028066644703866498,-0.2861154440643884,0.29443354277673756,-1.1495371456279522,-0.07174395161461475,0.1859473782740199,0.9138015677160086,0.09610543910453805,0.1338983848551233,0.06859587356863635,-0.09663288251419885,-0.03730535360561405,-0.025444483903810013,0.001681007376124386,1.6875
-0.032838615936312904,-0.3336555336198357,0.3432756676847615,-1.3408821246445006,-0.08360585317576875,0.2169425716707037,1.0650982201959245,0.11205940846157171,0.15600587116641937,0.07993401811583382,-0.11265485306844542,-0.043220658156908336,-0.02965397797254604,0.0020205065594424295,1.6953125
-0.011111328032255646,-0.11581680732222802,0.1204679553169803,-0.468207847382599,-0.029362091463970574,0.07540209074282204,0.3716950745316433,0.03902263155040511,0.054601386971602356,0.028049799711693274,-0.0392364267504813,-0.016184962715961485,-0.010392019006033095,0.00047113923955725487,1.703125
0.003554096517576886,0.030983297385143282,-0.029682280464479075,0.12037035612851824,0.007208318738714626,-0.01999915263716804,-0.09568403339360022,-0.010159484631627786,-0.013755590378767096,-0.006914812372331503,0.01028348605269588,0.0020757114868999657,0.002578442795625182,-0.0005741857732230768,1.7109375
0.003917168343449715,0.0343658815481469,-0.03344487556820356,0.13450206516211255,0.008059758379793102,-0.02221909551318611,-0.10662570695183488,-0.011300634808731894,-0.015394589551798208,-0.007721963612130009,0.011449304727569725,0.0025223975673854065,0.0028840082396562033,-0.0005994909990327337,1.71875
0.002999894679669669,0.025136238555847863,-0.024582995706118153,0.09817527073009963,0.005768039493832548,-0.01623821341938818,-0.07738086551309553,-0.008275374614657294,-0.011146324020750645,-0.0055413992753395565,0.008286856020834423,0.0013444462978361759,0.002098312090800388,-0.0005339386195548849,1.7265625
0.003965741109913688,0.035113391432922754,-0.035024517012276636,0.13880972957345233,0.008321593749204086,-0.02266239229125853,-0.10961998660191394,-0.011644938884124252,-0.015842450535097072,-0.007971828954585775,0.011611113699368231,0.0025443740855481344,0.0030009117554020207,-0.0006041669989186163,1.734375
0.005558740165533037,0.05140198783713381,-0.05142087035935874,0.20454429521043066,0.012512983729537292,-0.03314219313974186,-0.16253600397225534,-0.017062393724599063,-0.02353145480046825,-0.011927250692021638,0.017171565852131053,0.004581291017718698,0.004438677216221453,-0.0007198968396384542,1.7421875
0.012583589917206414,0.12173011367546269,-0.12328308005359064,0.4864819479926033,0.03008742417418122,-0.0788220877816531,-0.38717669648371894,-0.04062469347733908,-0.05634074102448856,-0.028709589622040625,0.040957990960104516,0.013344991431169415,0.01066214696593357,-0.0012211126125966502,1.75
0.023040596406733282,0.2261242329027577,-0.23054624911533517,0.9046383540788356,0.05598479892014591,-0.14675877843354318,-0.7191120185667808,-0.07565917193475992,-0.10489341640419368,-0.05352570136449849,0.07611455518027728,0.026301310585778136,0.01991785257440284,-0.0019647495014274217,1.7578125
0.023691986397855674,0.23244015138983,-0.23732357792038436,0.9296427448033091,0.05743139065979466,-0.15094578612946868,-0.7383462668292213,-0.07779096817413125,-0.10776711708955368,-0.05496062949858626,0.07817173679401712,0.02706407856828473,0.020483699379236667,-0.002009869939552884,1.765625
0.005359882813505818,0.04892826859772443,-0.04901542349921053,0.1939057243453909,0.01171809265203663,-0.03159597320414296,-0.15358078423518792,-0.016229938023492485,-0.02227021111470942,-0.011222591350694186,0.016297374975795406,0.004285706292031286,0.004210620209871378,-0.0007037743438556883,1.7734375
-0.026768536013434405,-0.27279491248320203,0.28118429521668226,-1.0959202965455437,-0.0683891534723748,0.177706144472658,0.8716489182271939,0.09169035316659815,0.1277121157230523,0.0654353824351009,-0.09219074193054781,-0.03562585695201902,-0.02431569925703192,0.0015861411423350315,1.78125
-0.04818007345093912,-0.4874152113247883,0.5012529493830862,-1.9569365406934134,-0.12191197439490498,0.31723700304681823,1.5566096546213135,0.16368080610176222,0.22788116645695988,0.11662054895737754,-0.16463965593863766,-0.06224478567884968,-0.043331769240961986,0.003114349443235333,1.7890625
-0.02650128169224652,-0.27035295895051326,0.2786947277850454,-1.0878676956273707,-0.0679067891873974,0.17585219954079423,0.8657461043906834,0.09085720471690667,0.12676985360768567,0.06492848106459834,-0.09146471920387009,-0.03531013434210032,-0.0240869483512383,0.0015705850391259742,1.796875
0.02718586757302457,0.2675983856998143,-0.27242962999993536,1.0680251264853111,0.066138178556614,-0.17419226571383392,-0.8492197722518624,-0.08962934089792114,-0.12400770492489334,-0.06331069416724261,0.09005786729202693,0.03141317591736989,0.023568859684912836,-0.0022576362742150486,1.8046875
0.04447400557295371,0.44086179548899707,-0.44968938957673393,1.7628489632492075,0.10932849531587124,-0.2869058970530352,-1.4023818572677913,-0.14778038389624815,-0.2047622322591801,-0.10464728530612005,0.1485871119055347,0.05287097678971588,0.038896887380965695,-0.003491353103084185,1.8125
0.00020361286997773,-0.0028001160276477765,0.004828263091519073,-0.014952181829048715,-0.0012491179507522433,0.0016862178522602186,0.0115113209767489,0.0010523437344467106,0.002031996135246032,0.0011094784270532512,-0.0010674799141496712,-0.002183097749812415,-0.00041099142164070275,-0.00033452489150944786,1.8203125
-0.025613722927864284,-0.26148128193103143,0.2692748903041135,-1.0506263141528736,-0.06563089317618379,0.17009105200487923,0.8357127361938907,0.08785948022680515,0.1224464448583595,0.06275182079528732,-0.08837289598023168,-0.03423591749098594,-0.023295892901206303,0.0015059352496691867,1.828125
0.016930109642092718,0.1650153312231154,-0.1684371745876836,0.66112618583347,0.04087745648585414,-0.10698598686305281,-0.5251495487912433,-0.05517922621735509,-0.07658974717849537,-0.03901897124415302,0.05548886179315507,0.018718147393960573,0.014527730981094914,-0.0015304130485413803,1.8359375
0.039002330353362376,0.3863633437671547,-0.3953906476532729,1.549309184984083,0.09613432029402523,-0.25084190508227744,-1.2316504706006406,-0.1294046029412681,-0.17985390011575375,-0.09185110603358028,0.13019950273550737,0.0461689954750769,0.034151873985194245,-0.0031061383134449983,1.84375
-0.023795158913593316,-0.2428552376709888,0.2499978413315005,-0.9753303231201631,-0.060892320936902535,0.15811638877259357,0.7754903536364168,0.08169677880640014,0.1135794111805039,0.05825275119573325,-0.08204015316095975,-0.03192721436686053,-0.021614148463203937,0.0013738381450494682,1.8515625
-0.06679596833276033,-0.6737418655042209,0.692392119626932,-2.705853474166028,-0.16853978967346625,0.43822888452620545,2.151513935630603,0.22626648445861416,0.314688695256229,0.16114327310061696,-0.22747150574527594,-0.08538066765207779,-0.05983426255618987,0.004442966323873384,1.859375
-0.00578467588415139,-0.06241957315512878,0.06616234328407473,-0.25550980887613556,-0.016174519059201455,0.04095744923461277,0.20337967324441458,0.021209945823756474,0.02989893707986258,0.015433377429755264,-0.02134438624125279,-0.009502769130512352,-0.005703039846903376,9.201073586082603e-05,1.8671875
0.05178524673822326,0.5142296487521203,-0.5253789406500184,2.058301372328516,0.12770517139887647,-0.33395872415605476,-1.6363898710135207,-0.17226191566689208,-0.23900192474487225,-0.12214220951775681,0.17322207108743545,0.062050589424826746,0.04541342264612336,-0.004014537735575073,1.875
0.013680011483510971,0.1320352382674883,-0.1344385595157387,0.5275681909480004,0.03248260643603185,-0.08580550956719794,-0.4191709896884879,-0.04413442992658159,-0.061074927579853444,-0.031080186459123745,0.044413120689493144,0.014611060883059435,0.011599536091075639,-0.001296085819266362,1.8828125
-0.0196939054086608,-0.2025422743528645,0.20827410823976095,-0.813391057528865,-0.050966365401942174,0.13164225632894902,0.647893150350574,0.06805258771283755,0.09489060244829782,0.04871396405258102,-0.06847830271775943,-0.026915534304556614,-0.01805458268639901,0.0010851089524616527,1.890625
0.02414667931279684,0.23704404254307107,-0.24187319308754526,0.9491332503030071,0.058637749148538955,-0.15376016443131776,-0.7528154029249652,-0.07936979149579507,-0.10981078551056372,-0.0560885254106498,0.07966427840107705,0.027627226972462452,0.02083955439806117,-0.002043055407040773,1.8984375
0.03313001708383835,0.3275571301842342,-0.334153060401344,1.3111440188135512,0.08129357454601922,-0.21246910718094913,-1.0418109684509047,-0.10969308960235771,-0.1520013770320518,-0.07772022475303403,0.11021287655621793,0.038856112581235745,0.0288638223369536,-0.0026859375227628133,1.90625
-0.04381628851701169,-0.4432725707419451,0.4561902042237667,-1.7812654592187873,-0.11084940616670044,0.288217410026803,1.414831529283385,0.1488453989542895,0.20709148162862215,0.10604232839015976,-0.14961736767113118,-0.05679655035413069,-0.03936944448021582,0.0028023927529755278,1.9140625
-0.06764840861146151,-0.6823386855553724,0.7012694208249086,-2.7403077296301497,-0.17052954418080576,0.44335133828076007,2.177086431928567,0.22899875055811847,0.318506801508362,0.16308403952197909,-0.23019206439406203,-0.08646409650713864,-0.060541916734128925,0.004504282688361536,1.921875
0.01667231089732428,0.1622643222196778,-0.16454264318505207,0.6475418373723609,0.03996582383650689,-0.105446816663921,-0.5149182996743666,-0.054303802017878086,-0.07498225467866694,-0.0382525306957132,0.05457954203438404,0.01833820020477862,0.01422640077907618,-0.0015092868749559017,1.9296875
0.06591084532948338,0.6556362284491638,-0.6703541641528329,2.626575228970008,0.1629932181368165,-0.4260119802375707,-2.0876477831978204,-0.21980202601434135,-0.3049092966540742,-0.15589894361302867,0.22092570391067023,0.07955590567767701,0.0579088801870669,-0.005022668859069308,1.9375
0.015320098215476191,0.14877955184844632,-0.15088373604825875,0.5937274171937861,0.03669518963170883,-0.09680583404162112,-0.47196462510428083,-0.04982376518667086,-0.0687729614307409,-0.0350884147449621,0.050014718507461746,0.016660319508624944,0.013039808494588443,-0.0014149158079815912,1.9453125
-0.022528593342692797,-0.23064574112149652,0.23781678464370884,-0.9274163254972719,-0.05788861724777613,0.14975037747416964,0.737762376188386,0.07747607241840736,0.10812549048686194,0.0553638568309558,-0.07796810381070882,-0.030406476947000303,-0.020548831147702017,0.001286052599049823,1.953125
-0.0004265525788574178,-0.009416915909600492,0.010611954547916965,-0.03905025690689316,-0.0027900611180734797,0.006349282918139313,0.03269747491329862,0.0033898474036463196,0.0051285354710260255,0.002649326481232265,-0.0034318139529745588,-0.0029221076631652954,-0.0009568812033962993,-0.00028889145595445675,1.9609375
0.005172122165450496,0.046761598761374784,-0.04725261361851504,0.18637381194458372,0.011164326567867276,-0.029898457036309275,-0.14678179506865266,-0.015373532340214137,-0.021207001533676686,-0.01069498146727074,0.015540237123664672,0.004071344517178755,0.004027798031678294,-0.0006883764755538995,1.96875
-0.013277551071295867,-0.13774839393530255,0.14212443794032734,-0.5547675653010664,-0.03483258055486686,0.08984297806400784,0.44074357825194965,0.04649186234703663,0.06451292966450453,0.03331300966542745,-0.046561902841994275,-0.018837652563732772,-0.0123011104148462,0.0006260922870873084,1.9765625
0.0005016884397889432,0.0006611056566721577,0.0008143506360969104,-0.0007811719226794552,-0.0003172174773878797,-0.00028623748633766665,-0.00013772604185754108,2.9370773712743872e-05,3.0448743271949062e-05,0.0002984261946767262,0.00013235991890808759,-0.0017030260878022495,-6.650213248097521e-05,-0.0003582437846261317,1.984375
0.018413136401928352,0.18032746737479727,-0.18300902409782496,0.7192310183842033,0.04442122443899988,-0.11697011887232202,-0.571133051472073,-0.06023637924660931,-0.08341481116156821,-0.04252491670775978,0.06056998709958268,0.020551492516760316,0.015801024738085635,-0.001636244409914427,1.9921875
-0.0031899456347253244,-0.036116916013658136,0.038756112486173305,-0.1491042399608096,-0.009591879853191342,0.02370929298686399,0.12011115965985547,0.012329145307748576,0.01760248342193673,0.009107622140639735,-0.012541840129629021,-0.006326224887960498,-0.00336946531417867,-9.454237351417371e-05,2.0
-0.012367994244540772,-0.1282747271020563,0.13297542335422988,-0.5183953979048411,-0.032486965446843596,0.0834657684205732,0.41268041815400225,0.04315757168815835,0.0604382446637845,0.03103394832185827,-0.04354903955882412,-0.017746139571742835,-0.011482914715046007,0.0005609123880153085,2.0078125
0.018314186023990847,0.17886150458376637,-0.18184697583337925,0.7143284301677884,0.04425787581113942,-0.11609688535547492,-0.5689554269941685,-0.05991726431822537,-0.08282064270912676,-0.04229653588814956,0.06017953679842643,0.020415117857448206,0.01574692767896383,-0.0016279887361361593,2.015625
0.015196902387565879,0.14744032202863133,-0.14940408547606884,0.5889793639752288,0.0365085384811391,-0.09553161933448674,-0.46983990018848776,-0.04937611142216703,-0.06818970280280226,-0.03484219843824469,0.049651654520190554,0.016558895512616145,0.012939642124440402,-0.0014065868602684136,2.0234375
-0.03888602060309063,-0.3944980078118311,0.40614108594773346,-1.5842548644177041,-0.09865281621707737,0.2565408235057841,1.2585504195521302,0.1324241844660581,0.1843587594836178,0.09440877801044871,-0.13311662061206395,-0.05069499509904288,-0.03508481568909368,0.0024510061438405674,2.03125
-0.055181846228486056,-0.5577945326589616,0.5731695230087759,-2.238678058684289,-0.13944415405523347,0.3624492339992867,1.7798566295671348,0.18723800961521936,0.26044818670605435,0.13336771833416,-0.18821027931600853,-0.07099588462538758,-0.04953715884975067,0.0036144397920437744,2.0390625
-0.011016469949639451,-0.11533183554409197,0.11926289981316102,-0.4639071022683985,-0.029210718648138796,0.07501617970077354,0.36961478427911487,0.038889335765546144,0.05435123867413865,0.027889871478090644,-0.03905454604900896,-0.016108230662705773,-0.010327163044549857,0.0004659045442697367,2.046875
0.02034022518321438,0.1988074335724224,-0.20269691046316476,0.795088304184222,0.04901470313653439,-0.1289146131769502,-0.631058547232707,-0.06644597010975761,-0.09190437387155093,-0.04694219939329857,0.06680294448118942,0.022890488919187314,0.017495516230395854,-0.0017690851181511222,2.0546875
0.02234442126642811,0.21895985325536388,-0.2230429008321295,0.874997269507737,0.054033376494312585,-0.14211429756829128,-0.6945102569101517,-0.07323454486793265,-0.10132377668278034,-0.05170583984483216,0.0735841048973125,0.025411813648562168,0.019260868977490565,-0.001912179444517016,2.0625
0.034497719852231754,0.340911458022186,-0.34793380235011045,1.3646822172774191,0.08458492770677131,-0.22157467482298038,-1.0837517630885662,-0.11418655286918998,-0.15834036882213584,-0.08085934571076485,0.11477765516600599,0.04054561138295002,0.030045731706851025,-0.002781748807419008,2.0703125
0.03821906311699067,0.3783423275139192,-0.3865211278091074,1.51580194651393,0.09402860569657345,-0.24582031732519596,-1.2041282660057995,-0.12676240147924003,-0.17589166127101566,-0.08987179888536469,0.12743962637301934,0.04517070323643524,0.03336641862289369,-0.0030496911553876396,2.078125
0.008422123511849856,0.07981261505379784,-0.08071445776018606,0.3178890538245534,0.0194930013460172,-0.051654095008642376,-0.25229914462382624,-0.02663620842869013,-0.036694010695684974,-0.018646412695617356,0.026714506106069794,0.008090707061342996,0.006946741861676727,-0.0009236693891544612,2.0859375
-0.004101921332686889,-0.0456860017311361,0.048098213221564316,-0.18705065816200234,-0.01197499533615847,0.02982928858966044,0.14883857462595956,0.015462973759779234,0.02191671623481163,0.011383821016766361,-0.015660760764114292,-0.00750888796303382,-0.004163904230514716,-2.8052632828021686e-05,2.09375
0.021312288126027108,0.20895728790132162,-0.21257724967631267,0.8338453354393328,0.051502658030554864,-0.13576172092586503,-0.6627721946255418,-0.06990258481653831,-0.09673066251376165,-0.04931953727495593,0.07024727243071983,0.024110507654530055,0.018370739690950346,-0.0018400636921727146,2.1015625
0.012385794239498302,0.1194974730550683,-0.12082423321264943,0.47593673098771366,0.029314991325703223,-0.07752556269544862,-0.37846220061793495,-0.0398246040549277,-0.05511332910567551,-0.028053096853345214,0.04014779019522967,0.013063084616139494,0.010442306681919044,-0.0012041279603089915,2.109375
-0.04504832102817621,-0.45595148907067984,0.46886470148326603,-1.831689351698525,-0.11410042803596193,0.29653038750363014,1.4556226922363364,0.15320582179289316,0.2130113411854519,0.10912310839626731,-0.15390461453684398,-0.058327898215723574,-0.04050304255389216,0.0028917430552028336,2.1171875
-0.05438098674414471,-0.5493734482791239,0.5646685200004852,-2.2069129854651273,-0.13740663401601322,0.3571437323996539,1.7538987753143558,0.1844723954545652,0.2565906948306728,0.13139975233516327,-0.18544950016216166,-0.06995913508378152,-0.0487706126231569,0.003556612538203675,2.125
0.0058881711984174285,0.0544587069832486,-0.05416946650701144,0.21511678818762855,0.013149585097942767,-0.03529845930208976,-0.17099271339906524,-0.018126812266417307,-0.024755945239769196,-0.012588503849818047,0.018171378486012312,0.004947288937814598,0.004688193607437798,-0.0007427881217762732,2.1328125
0.02685257231889985,0.2643163476401796,-0.2695159890869981,1.058053789846557,0.06548682199525088,-0.17144277670506583,-0.8406546307116567,-0.08849917933608901,-0.12258668444546915,-0.0626270172626196,0.08895654080026012,0.031018324056001658,0.02326549448487298,-0.0022374836388261163,2.140625
-0.027546307508935768,-0.2807300117216769,0.2889952349216703,-1.1275969953844247,-0.07042427963156214,0.18296645054731164,0.8966753525780123,0.09436155114721949,0.13136343813134138,0.06736101012273861,-0.09486029139054428,-0.036592962035973925,-0.024998569946899515,0.0016433956327498987,2.1484375
-0.055108714030704144,-0.5566350372670474,0.5722816338786969,-2.2352722422615243,-0.13921703255821158,0.3620844439853259,1.776830234430244,0.18688213910608822,0.2599849085937035,0.13315019598788147,-0.1879098671671131,-0.0708534531859645,-0.04944485396665489,0.0036088953166047476,2.15625
-0.01130440127073214,-0.11775490893449653,0.12292489051293133,-0.47556856976965234,-0.029751232644234415,0.07650711931002072,0.3780433011015927,0.0396119657607917,0.055536954894599484,0.028467938254776917,-0.03986473768221604,-0.016409106080058283,-0.010594541585634963,0.00048446214367750686,2.1640625
0.02346000723833011,0.23014022182253216,-0.2341515365088811,0.9209136950280192,0.05701599085646975,-0.1496491670715873,-0.7315335005295805,-0.0770850348624067,-0.10663252197428706,-0.054496798907595075,0.07748211343883137,0.026793601014068105,0.020238765373007707,-0.0019935004641648208,2.171875
0.016152072656285963,0.15666990181071577,-0.15991019828536468,0.6273697583636028,0.03867770772291793,-0.10170464040721566,-0.4978472420420752,-0.052386120215653344,-0.07253320810192841,-0.03695921860942372,0.052659807574866394,0.017703982180666215,0.013786593609595508,-0.0014713001601381922,2.1796875
0.030918176442970808,0.3047803588065716,-0.31218099746252354,1.2210500471089418,0.07557060464973898,-0.19792894161412136,-0.9699021493600904,-0.10202661563643971,-0.14160797542627515,-0.07227949383296281,0.10256755121283267,0.03605389469617989,0.0269311841542808,-0.002525708306036315,2.1875
0.07322330817218188,0.7288037738442168,-0.7463899753955303,2.920752208799512,0.1812534917552529,-0.4736518878196901,-2.321228520928226,-0.24426471322932486,-0.33912222439035594,-0.17339626824072754,0.24559451353225084,0.08862763808710188,0.06446216046076077,-0.005544088084194012,2.1953125
0.06414313072224657,0.6378851874807642,-0.6524615975022515,2.555348803549247,0.15853643249292979,-0.41450176610308215,-2.0309892630667172,-0.2137883919861261,-0.29665387385478537,-0.15167009960728856,0.21496544657794348,0.07734644649759469,0.05636608114872038,-0.004895922327743759,2.203125
-0.005225998968649181,-0.05685906483958655,0.0603190129015906,-0.2321088318175118,-0.014700649368551076,0.03724562122332342,0.18416100032583987,0.019248094990777533,0.02712149862461965,0.014050532340701883,-0.019348691443227924,-0.008838518236700085,-0.005196960768195759,5.1706395755746367e-05,2.2109375
-0.053357356703303126,-0.5388111854452204,0.5546229473864405,-2.165894358314539,-0.13482251921280952,0.35039351475874286,1.7208134285898964,0.18091579961496987,0.2517050112833893,0.12894955369274033,-0.1818964315399347,-0.06864169689590505,-0.04788640265253555,0.0034836243039646753,2.21875
-0.048020771265252435,-0.4855684936519932,0.4996675411047007,-1.9515179089645058,-0.12151176036399218,0.315486148318865,1.5511783839313926,0.16305520076661326,0.2269332398768265,0.11618904579187773,-0.16394352684322328,-0.06205136092688958,-0.04315358893567279,0.0031033762386989314,2.2265625
-0.029817843802838955,-0.3036757577343177,0.3124095099399323,-1.21997768138417,-0.076189084731942,0.19732804399299866,0.9713821107175625,0.1020346034028954,0.1422082876485847,0.07281871249899668,-0.10265776961832263,-0.03948359538824825,-0.02702951108859363,0.0018064803416393475,2.234375
-0.014298973380691051,-0.1482437114939324,0.1526490080111313,-0.5955909453588866,-0.03745640830088947,0.09669592127582644,0.4755498517531245,0.04988046237386925,0.06970871845504699,0.03579474009304715,-0.05029431291592043,-0.02018984371598949,-0.013263130731963132,0.0006991946467083876,2.2421875
0.009661287429657658,0.0921968237637325,-0.09340231899293663,0.36780227053649633,0.022548819682596262,-0.059486453878716,-0.29179911222635196,-0.030790909310538888,-0.04244943289043264,-0.021561179343953105,0.03085586009205341,0.009643193320466936,0.00803038370723594,-0.0010117058796227183,2.25
0.020343709442703747,0.19946809183154654,-0.20253832040116312,0.796423832009949,0.049340755729258404,-0.12947128172512878,-0.6341767884242434,-0.06675432949253464,-0.09242112713659598,-0.047176951303640455,0.06714643769062761,0.022956257977679334,0.017531048884776627,-0.001773922424807621,2.2578125
0.0026514388783767688,0.022067287465885765,-0.02041760804283555,0.08443076046824166,0.005057578302069492,-0.014263494640873736,-0.0681547970440118,-0.0071803888964060095,-0.009647307661974353,-0.004835934521831835,0.007332253742066416,0.0009657998279609368,0.0018186889183470954,-0.0005101454268812047,2.265625
-0.007952808219789779,-0.08447061987249393,0.08810314423715224,-0.34154237156238215,-0.021546189946263634,0.05509708475721606,0.2715401967304812,0.028586408939010724,0.039954750521334195,0.020599596153796806,-0.028640360259797815,-0.012239380114402721,-0.0076026475942037154,0.0002474006501976705,2.2734375
0.004839277617933655,0.04355173617706464,-0.04391435772450743,0.17363573658836395,0.01045567289274916,-0.02816526167599695,-0.1375341724445194,-0.014420442919087785,-0.01988220573478181,-0.010004325664736658,0.014560802646303155,0.003628864705749693,0.003759418585898779,-0.0006660774524702822,2.28125
0.0036150596997192386,0.03142024929138055,-0.031233796398856935,0.12467224413853237,0.007501504978740898,-0.02039007617356616,-0.09904016686145743,-0.010397522731774604,-0.014238971610073788,-0.007170737719999973,0.010504372134082056,0.002113059412581921,0.0026750626372104044,-0.0005803286745855492,2.2890625
-0.017334154527818335,-0.17820786827211196,0.18456405076740767,-0.7183259470620672,-0.04485037225740252,0.11603676596704383,0.5707008599671092,0.05999085207480173,0.08365195286486522,0.042904858764123546,-0.06026112016276806,-0.023867396662890693,-0.015933331140109655,0.0009139759992645679,2.296875
-0.011515700952821045,-0.11980312504917702,0.12492924220136409,-0.48511017414959756,-0.03037596735406149,0.07827134544068749,0.3855172685035251,0.04045342807319609,0.056541822868859115,0.029067326099709575,-0.04065694439134059,-0.01660010125570726,-0.010772550677875829,0.0005001007583925181,2.3046875
0.02140542744838561,0.20991782810536916,-0.21365144797070845,0.8388528349734365,0.05192201215440958,-0.13624288838781234,-0.666437002232518,-0.07025995311756869,-0.09720949295853834,-0.04963363445886815,0.07055091614542158,0.024269246229999847,0.01846331247029405,-0.001847769154721191,2.3125
0.02565199885864522,0.2522840284212708,-0.2574487270979567,1.0102243012182426,0.06258480663170912,-0.16408816369785342,-0.8024000795439193,-0.08459361204071557,-0.11702571096138926,-0.05983590617650701,0.08490102953164706,0.02947839427204745,0.02223580142955311,-0.0021510499738390592,2.3203125
-0.0029185325638132822,-0.034092805219511586,0.03622409586357661,-0.13893674243407833,-0.008918997062034313,0.022132785467835814,0.11095557808647559,0.011540158117631486,0.01647158324609946,0.008517352053399301,-0.011668711492996742,-0.006035012520949728,-0.0031421000752942484,-0.00011269106978086198,2.328125
-0.007385666825521919,-0.07891649753847138,0.0821048780781556,-0.31937788967281433,-0.020234170635034653,0.051507788219676234,0.2542609818739779,0.026692119144092523,0.03735992566428653,0.01930572152336549,-0.026804896362480957,-0.01156076954287175,-0.00711875999758603,0.0002068752347456987,2.3359375
0.02468839105952739,0.24240015295176795,-0.24762409241613503,0.9704203480099298,0.05994122691745066,-0.15742734506873882,-0.770645303083684,-0.08115894823922729,-0.11245024734914172,-0.057370377197947665,0.0815680144304998,0.02828375234740385,0.021355221792676016,-0.002081122693588715,2.34375
0.04200231512203255,0.4158132605108124,-0.4255469920984674,1.6670771041810128,0.1032989964994804,-0.2703568328865553,-1.3238780568776296,-0.1394329323535531,-0.1932769015065573,-0.09881644356290636,0.1400666887886971,0.04976902333159338,0.03672406249026308,-0.0033168518282290786,2.3515625
0.015623929349013991,0.15155393196258038,-0.15441080727890952,0.606183096991785,0.037342912405493464,-0.09844890705950511,-0.4807945562021632,-0.0506844381891666,-0.07005750627439007,-0.03573927644766279,0.05092322189004649,0.017012530904070806,0.013308424973014479,-0.00143519919383091,2.359375
-0.0265594282619332,-0.27071867877547434,0.27913466173965623,-1.0899398866404062,-0.06809936950948749,0.17636858620222529,0.8664132264213683,0.09113118952592796,0.12683309851323854,0.06508815927818526,-0.09153976975536164,-0.03534731622002492,-0.02412105594903823,0.001573810883776584,2.3671875
-0.04598807258085013,-0.4648506698577205,0.4789823772354946,-1.8701842263127717,-0.11651427823648637,0.3025836756513542,1.4859479055380331,0.156223882251282,0.21741360438931231,0.11139562418256262,-0.1570496000389738,-0.05946532383918359,-0.04135034859146388,0.0029587871184922473,2.375
-0.03299714925294945,-0.3346696544784977,0.3456371205772685,-1.3475236859750461,-0.08394902435779378,0.21771155377904455,1.0707615977660414,0.11244347226308286,0.15674356002818365,0.08027237846528555,-0.11312312433414293,-0.04333743309995574,-0.029820424005474452,0.0020316948467775852,2.3828125
-0.009348843137799932,-0.09829238524751181,0.102359027088212,-0.3973507449766509,-0.024924715675315956,0.06395894441851008,0.3158474720715493,0.03317084713851151,0.04637048205093942,0.023843958465275223,-0.033308121362200675,-0.013962796368657339,-0.008834151468584238,0.00034537265728866,2.390625
-0.0018997615779100035,-0.023984112667631303,0.025449221015045438,-0.09747323262638491,-0.006321778125781747,0.015737784643730067,0.07730226274532992,0.008289180838424837,0.011526573516906407,0.006075166473152286,-0.008151590841103014,-0.0047091387848539204,-0.0022172446752616952,-0.00018634917599685702,2.3984375
-0.005780691442351481,-0.06257534759573057,0.06549096865170971,-0.25212353120235514,-0.015868320999760325,0.04081194124558656,0.20011105325511966,0.021142844161654913,0.02956296676157948,0.015224619929663395,-0.02116640442761762,-0.009541307530402573,-0.005665661455790027,8.898343993761222e-05,2.40625
0.004319220706154803,0.03888045318100075,-0.03792141859471372,0.1537728412063819,0.009409561025735529,-0.02518431136340376,-0.12216675403036795,-0.012981734360851377,-0.017553774648799016,-0.008952837930209774,0.012968225917413303,0.0030087785528105817,0.0032843948733935714,-0.0006317801629706765,2.4140625
0.021275758424164872,0.2085749471097434,-0.21229082381592637,0.8337670691330834,0.051605084470376705,-0.1353648507595588,-0.6624246801350951,-0.06984016241867438,-0.09664042456388539,-0.04932973655758163,0.07013672567204808,0.024095345822528327,0.018336465325895546,-0.0018400733911120345,2.421875
0.01508054834010117,0.1462767847043206,-0.1489408410549359,0.5840325604782681,0.03600008828535263,-0.09477281481712094,-0.4640319514700284,-0.048854193956480114,-0.06766289418691789,-0.03442977089546423,0.049129595839852935,0.016391700714554393,0.012851320048466562,-0.0013970721107832312,2.4296875
-0.0015422653146765668,-0.020284278197287113,0.02206531360062248,-0.08372356029284118,-0.005511721424396022,0.013300468528694574,0.06688729810391798,0.006973448112981626,0.010060143265226149,0.005250689657991582,-0.007021665748105443,-0.004305334982995666,-0.0019114279256485327,-0.00021030024595064504,2.4375
0.012217082152385116,0.11743948895555605,-0.11904642725295547,0.46910146031560446,0.02883446889657072,-0.07642103184015733,-0.37201758320881945,-0.03930221434989287,-0.05405124760132939,-0.02761056901481574,0.039424129565003976,0.012764521130780334,0.010278786899667283,-0.0011900235173581087,2.4453125
0.042886013251659895,0.4245123300569568,-0.43453692527272997,1.701160816565136,0.10535137871937716,-0.2758538813122774,-1.3512023170019318,-0.1422722303962627,-0.19729604882838503,-0.10079004207468518,0.1429625480839406,0.050896336464488046,0.03750492221738923,-0.003377112115664966,2.453125
0.03658458980257185,0.3615889037741864,-0.3701788096599196,1.4481314359012938,0.0896286182529286,-0.23470794506692952,-1.1505855899219053,-0.12107178205818499,-0.16806685356116036,-0.08575018558806143,0.12172270386643257,0.04310586861339153,0.03193655677435925,-0.0029295890245799403,2.4609375
-0.005881022507772061,-0.06340427169878957,0.06659921815984884,-0.2582074802875155,-0.016319815705885754,0.0413756144650489,0.20521498063365823,0.02150724202957335,0.030150558670576536,0.015572590736889639,-0.021591119161760416,-0.009651716163189392,-0.005754589850235289,9.780799153184194e-05,2.46875
-0.03244501964257424,-0.32948838068675673,0.3402110323336071,-1.3262151515060179,-0.08263271622791282,0.21395777868213697,1.0540980559614421,0.11069875390469186,0.15429643705345436,0.0789921418497203,-0.11127653018577666,-0.042683845641572384,-0.029355018841034364,0.0019935082910181316,2.4765625
-0.02941857809977224,-0.2994808430287346,0.3089476305153427,-1.2047059118080712,-0.07514293572192453,0.19444802687551171,0.9577653621563803,0.10059283579058953,0.14021500601670034,0.07183627841004858,-0.10113063819979637,-0.038951727742285294,-0.026676821740481402,0.0017785349609271057,2.484375
-0.02541005950293693,-0.2593319783444028,0.2670886655812108,-1.0425562088871996,-0.06513930513956044,0.16875521379794936,0.8290729181904668,0.0871845971757431,0.12139324562764439,0.06227458531860242,-0.08764027733839248,-0.03396610769036962,-0.023104054777500875,0.0014907825966824918,2.4921875
-0.02259742192395221,-0.23079454775868535,0.2380014297003733,-0.9284431975665041,-0.05800259440655829,0.15056320969561277,0.738312374930508,0.07770594720280354,0.10815558149726996,0.05546658801234097,-0.07808567303574071,-0.03042219125688689,-0.020589883423692994,0.0012877277705961136,2.5
-0.0026244709320033623,-0.030572398299823767,0.03304701984365165,-0.12571348781388872,-0.008015317448926312,0.020488321625773177,0.10002164812207731,0.010534532861724856,0.014892824192662368,0.007703709264151932,-0.010566744209029463,-0.005559309303916368,-0.002852363582235119,-0.00013683910954027194,2.5078125
0.01884644743174765,0.18425628688445586,-0.18747359369100197,0.7367377009382071,0.045591919807319144,-0.11927261583703005,-0.5855506076486309,-0.0616444935107467,-0.0853102023946603,-0.0435383944685966,0.061922465279284834,0.021102425051962442,0.016201715897122684,-0.0016667160558654507,2.515625
0.014198779530752407,0.1374781153565565,-0.13975902532255122,0.5495515311242872,0.03388626372501509,-0.08910700564269643,-0.43651657983033926,-0.04603196167823113,-0.06354307224748183,-0.03238207870067496,0.046164495015582015,0.015266656427087544,0.012058537475959185,-0.0013344450011168506,2.5234375
-0.001931749798330181,-0.024106865029082988,0.026202268310971676,-0.09945057941014977,-0.006473014092862425,0.015611995706344833,0.07943428511114144,0.008185375995726519,0.011859179652065222,0.006157414689888988,-0.008320721855228091,-0.004811406706382164,-0.0022734403675557205,-0.00018341258276299177,2.53125
0.0010242086723141449,0.005455335192896918,-0.0038446350598391834,0.018445877891710462,0.0008895371474171296,-0.003775826122224141,-0.014536635117101302,-0.0017204667643386498,-0.0018754296144185877,-0.0008857715359425525,0.0016851467799085668,-0.0011278901910559689,0.00035130736065565115,-0.0003927446276957361,2.5390625
0.014359096413215073,0.13889675563418644,-0.14084900402589698,0.5543260539973787,0.034189043774229946,-0.09037915777048158,-0.44057459494164514,-0.04649066604629031,-0.06416389275756106,-0.03269358856627195,0.04672135821594278,0.01546759687418741,0.012185312208010203,-0.0013429441854640246,2.546875
0.008318469459386964,0.07845633169633127,-0.0791398430566853,0.31279803507079856,0.01912438809064649,-0.050832588951241854,-0.2482944783949475,-0.026139678916314968,-0.03610994695684452,-0.01827772769981691,0.026340386317045685,0.007985434561289506,0.006815484969294558,-0.0009137448330058304,2.5546875
-0.014585187115340998,-0.15070020060529937,0.15568703007610407,-0.6060621537866145,-0.03798928345514521,0.09819046151008187,0.4822018761792188,0.05084641811601817,0.0706380773215978,0.03632063055775711,-0.05093988741680215,-0.0204639694514723,-0.01349207668085326,0.0007173114460300886,2.5625
-0.020889628251123508,-0.21371737408103872,0.22013863699152209,-0.8588352225713618,-0.05363732471960673,0.13902526730753356,0.6827781633548201,0.07196591160500114,0.10000477886044583,0.05127999689994409,-0.07218472198531513,-0.02831339291902348,-0.019037651489048353,0.0011666613825713039,2.5703125
0.006993788997967647,0.06552796434666973,-0.0661220369887515,0.2606104967474867,0.015989487752035254,-0.042554659870780165,-0.20744125574118724,-0.021834055623348253,-0.030066984875920324,-0.015297583354793622,0.02196070135703106,0.0063214615705215116,0.005724607793248819,-0.0008204056750722729,2.578125
0.04519728623416307,0.44816529149893286,-0.4579393960088414,1.7938133336764288,0.11127789001523611,-0.29119820431623444,-1.4262732463123255,-0.15021673216650513,-0.20825789901420963,-0.10643629078644545,0.15095066182353778,0.053818153948888586,0.03958517953075486,-0.0035440956399873536,2.5859375
0.05150566688395643,0.5112948766310303,-0.5223259870116912,2.0460899210222103,0.12691772540153484,-0.33217866125085577,-1.6266330747526487,-0.171309394254159,-0.23759901909042255,-0.12141322748064487,0.1722226471620131,0.06167896675379915,0.045138545505747994,-0.003993996563407895,2.59375
0.01406322272945104,0.13602222602027636,-0.13793999255502032,0.5420872977280506,0.0333899769931888,-0.08827417227809008,-0.43062777554114207,-0.0454165141740182,-0.0627424783838188,-0.031957500712596336,0.04566950265192031,0.015115149884800902,0.011909059526806777,-0.0013233459946658582,2.6015625
-0.029706443298413213,-0.30255603540015713,0.31128390954686574,-1.215274348007482,-0.0758572764125361,0.1968257887873307,0.9668550699441303,0.10161414776857498,0.14161188171008973,0.07255927001711009,-0.10226366174130426,-0.03932406367891638,-0.026920914670235063,0.0017984495992896688,2.609375
-0.03924070605794734,-0.3978816576149738,0.4093262706748469,-1.5979253271859177,-0.09961528254084764,0.2588900698972057,1.2711945245008964,0.1335670601288007,0.1861014845899185,0.09529734308343604,-0.13446257218220362,-0.05115783526172584,-0.035389483252380026,0.00247768735937257,2.6171875
-0.025056438001696834,-0.2555758933445607,0.2640191681125012,-1.0290600468546056,-0.06425403291174547,0.1664694017988953,0.8189197665799081,0.08591098640818863,0.11990782569380949,0.061447289987019114,-0.08651411663799267,-0.033488512404789325,-0.022819825055267168,0.0014657205528109411,2.625
-0.025246344665016334,-0.25755039881920727,0.26599602281366375,-1.0377936885709318,-0.06486702734533704,0.16777404186289124,0.8259468245782521,0.08663993096554415,0.12087977467636504,0.06198400677575957,-0.08719710342020784,-0.033729810417664395,-0.022991323425383514,0.0014802403143102413,2.6328125
-0.037780171913138705,-0.3832545091444407,0.3942796007998816,-1.5406018398631771,-0.0961575232192931,0.2494422918681318,1.2254475112475864,0.1288041461716327,0.1793331855194751,0.09190020280528473,-0.12952828438346103,-0.049341451497418434,-0.034087100022352865,0.0023743727833206215,2.640625
-0.024518370398642214,-0.2503186913967078,0.2576009664209617,-1.0052631176276023,-0.06277989648462602,0.16285772138543742,0.799046992947685,0.08416401366598875,0.11712181198185423,0.0600245193245748,-0.08453621831600677,-0.032867844874050284,-0.022269811452458894,0.0014265042598689828,2.6484375
0.015779897560763045,0.1535271630849042,-0.15636737378503596,0.615537526613168,0.03809053834841536,-0.09987892654538677,-0.4898649095690188,-0.05137440025391924,-0.07124094243240606,-0.03640010449483332,0.05177904311147162,0.01722565885291177,0.013517014302880898,-0.001449385923092398,2.65625
0.03755802276406571,0.3716821955323325,-0.3797977896102519,1.4898243955566275,0.09241443614209216,-0.24171378052088524,-1.1843160603052805,-0.12458573901776095,-0.17283219614720227,-0.08836410288436217,0.12530621309540932,0.04429630680474233,0.03281744751638653,-0.0030017572285762247,2.6640625
0.02801794422744684,0.2760729924917042,-0.281650043906315,1.1050065123605186,0.06841486580674695,-0.17940780137559065,-0.8781595322723609,-0.0924527915809465,-0.12817546192748613,-0.06544754736442303,0.09298326587592902,0.0324573557883955,0.024322011836962854,-0.0023197335022834475,2.671875
0.03155205024502364,0.3115283859329306,-0.31802111586956155,1.2467555330650986,0.07726910693413573,-0.20242504108490975,-0.9917858330301681,-0.10428476444770059,-0.14480106345765592,-0.07390299527228368,0.10499365130939639,0.0368871925941252,0.027475817327159115,-0.002571952092288369,2.6796875
0.060531358981432026,0.601802267767593,-0.6156344783359987,2.4112509007035348,0.14975171375115795,-0.3912097800663544,-1.918005467677636,-0.20171031591980873,-0.28019169468654154,-0.14316236267733318,0.2029408081720829,0.07292616531386749,0.053212761933954064,-0.004639346042310885,2.6875
0.05322316474669359,0.5284255733698495,-0.5401954771253543,2.1163184951478353,0.1313793343839159,-0.34338644088196585,-1.6824649817888968,-0.17715950899354982,-0.2458166445333848,-0.12556706162705505,0.1780557191978531,0.06383940492952023,0.04668970838719173,-0.004116907316016549,2.6953125
-0.019868542033795785,-0.2038339857787326,0.2108938643226444,-0.8221951856775143,-0.0514139039553275,0.13291498204296487,0.6544724072616397,0.06856304103579455,0.09576060554535097,0.04919737663128524,-0.06908121866485332,-0.02701049392065184,-0.018224499033535613,0.0010976161083599593,2.703125
-0.0800277127466273,-0.806359055265608,0.8286840415580934,-3.2392009228612766,-0.20170204544575096,0.5246119461892588,2.575381351443701,0.27080552658465173,0.3766398586320885,0.19285959723673204,-0.27226829143677783,-0.10179792953317644,-0.07160251042457827,0.005387852807832351,2.7109375
-0.05339810524843765,-0.5395585783582222,0.5547254722724049,-2.167525438950095,-0.1350598594476354,0.3509284590357471,1.723116365122899,0.18126424799865795,0.25217556801535784,0.12910207499715198,-0.182184128439895,-0.06875191600933848,-0.04793232594365462,0.003487412421386982,2.71875
0.005708758143481457,0.052377777325779654,-0.05264977354922482,0.20823194212261428,0.012572872081715978,-0.0339401864666298,-0.16433982062059646,-0.01744032504223774,-0.023700194973274497,-0.01209181597981347,0.01740961432244621,0.0046522526604281175,0.004515844178225599,-0.0007280111999216744,2.7265625
0.003735711349542029,0.0324773197638314,-0.032286450648827195,0.12838672237139015,0.007536813421942684,-0.02088796473070372,-0.09986468525002992,-0.010789099721056074,-0.014312376638663178,-0.0072876104790211265,0.01060107452748033,0.0021878453278204716,0.0027292679870166143,-0.0005864978340961906,2.734375
-0.03608357923232205,-0.36633393743187825,0.3769849196361103,-1.4719706575299087,-0.09187165957072986,0.23828279659311066,1.1714795348739202,0.1230569878069627,0.17151216545181674,0.08780437430347811,-0.12383319972385114,-0.04726128631309708,-0.03260775958828324,0.0022531690520232214,2.7421875
-0.022698730994723873,-0.2320834991626909,0.23962052824373875,-0.9336428197630662,-0.05822306089122926,0.1507854484120137,0.7418613232703193,0.07801275709860295,0.1087153938801708,0.05570129560464492,-0.07838661664191109,-0.030571028247992613,-0.020684465046541454,0.0012974172182440111,2.75
0.03786179618627247,0.37467436967963225,-0.38265347650493214,1.5004175213792257,0.09316206968135701,-0.24359570604791606,-1.1937170647235245,-0.12558158085335536,-0.17423659142530304,-0.08902541483101309,0.126302221820452,0.044725186284050894,0.033097930638226865,-0.003022786169162883,2.7578125
0.05411639473679759,0.5375208421549047,-0.5500059430997668,2.153930321523538,0.1336794773723883,-0.3491760606437681,-1.712656037602609,-0.18017634955713013,-0.2501232974106522,-0.12781718207164094,0.18115900303420004,0.0649136531618894,0.04751896325398475,-0.004182726917261117,2.765625
0.009282532332313381,0.08837479586587872,-0.08963820228503637,0.3526746858082534,0.02157999846299031,-0.057134409471156694,-0.2800385036880404,-0.029422867361250812,-0.04072264386360616,-0.02068062127465448,0.029645900728666193,0.009159750168629369,0.0077048551007038585,-0.0009850489597869828,2.7734375
-0.016142985366198348,-0.16636131051459951,0.17175146075081896,-0.6691213559879002,-0.04192586820631562,0.10826915846335743,0.532285425978439,0.056033022255068135,0.07803565374885527,0.040056415358639144,-0.056240679130971985,-0.022445104136943894,-0.014862944255249904,0.0008297502847911022,2.78125
0.01045997561599826,0.1001590287364294,-0.10118601841879134,0.3990194455952104,0.024580831305562108,-0.0650952813284343,-0.31743774054289353,-0.03344346887533835,-0.046153569459921925,-0.023495256475063495,0.03365035952946092,0.010650008708558955,0.008769683779037574,-0.00106588582592739,2.7890625
0.024795097900450425,0.2438374266535514,-0.24826665615069368,0.9741788097766957,0.060370614323418316,-0.15844315647567753,-0.7750390570736987,-0.0816655403444193,-0.11307474419828148,-0.0577136925509799,0.08207208993580734,0.028488248266856756,0.021494546410503287,-0.0020879407591266217,2.796875
-0.008535221694423325,-0.09010102908566199,0.09413802321926343,-0.3651675255652521,-0.022976976569600193,0.05866204050903733,0.2903154819566288,0.030411498551571686,0.04257478301960658,0.02196332449766755,-0.0305707055247336,-0.01295176955043417,-0.00812923653659166,0.0002885590464258728,2.8046875
-0.032068028620166306,-0.32605927034282683,0.335864017393445,-1.3101963594923085,-0.08180497278054064,0.21206527510282885,1.042589803304826,0.10961804799201814,0.15250252142992207,0.07822739286697088,-0.11013131390937414,-0.04221337906772699,-0.029060401176419566,0.0019664134627245143,2.8125
-0.006524184592196695,-0.07027012089628297,0.07344546072030128,-0.283446712578692,-0.017935750110242323,0.045938427584816255,0.22648045854629298,0.023799352179314108,0.03325856262420486,0.01719153662721758,-0.023858067233023004,-0.010446864591218971,-0.006389801341582802,0.00014368821266779025,2.8203125
0.015955825483571162,0.15513239890969466,-0.15752168925777968,0.6195308776467623,0.03828692237160477,-0.10044649348119854,-0.4921324321787756,-0.0518648260244026,-0.07172346907667765,-0.03657160456862199,0.052112828114069316,0.017503335685217083,0.013595128513624984,-0.001461060720970411,2.828125
-0.0066157718381493905,-0.07071949358139687,0.07427671963225037,-0.2879403705264183,-0.018114366097994508,0.046257762673815365,0.22860076211668925,0.023866692242515367,0.0336551616879749,0.017308786896346778,-0.024111268304302325,-0.01058626773850813,-0.00640639415057704,0.00014851075154707555,2.8359375
-0.02537433134567091,-0.258598446953038,0.2668723746091341,-1.0414727735748124,-0.06498899639295437,0.16820164589697545,0.8273960647691352,0.08689695029857968,0.12123273392080937,0.06209961119272783,-0.08745583886620004,-0.03393357189706838,-0.023035357030400813,0.0014875439331549585,2.84375
0.005124690421085477,0.04682973706670685,-0.04655695399648092,0.18511439114222938,0.011275690386474501,-0.03023936743468441,-0.14760734641180054,-0.01553840172707631,-0.021221641172721645,-0.01079489498561129,0.015608974778268826,0.004001904368100226,0.004038389410691058,-0.0006874161682618741,2.8515625
0.04023400658197873,0.3984266356688622,-0.40730668937491415,1.596492927819577,0.09901172328990256,-0.2585471739869082,-1.2688573491377826,-0.13346233960927611,-0.18514452235321574,-0.0946545905578273,0.13417460505117346,0.04767962606225849,0.03517846379020459,-0.003191951433074315,2.859375
0.026151148951230486,0.25711024975621083,-0.2625726859232464,1.0295381749507326,0.06366685895487093,-0.1668234553850737,-0.8169946342286895,-0.08605386104697792,-0.11919967590133582,-0.06089053453153514,0.08645485064708473,0.030142758235863105,0.02264695635237784,-0.002185685009977076,2.8671875
-0.013153634185905542,-0.13692962650981383,0.14140449850074968,-0.5515996556498363,-0.034712794628795694,0.08879468788399247,0.4401224111804039,0.04609795607028688,0.06452339288542816,0.033116073325917206,-0.04640897610509669,-0.01878764239327162,-0.012246230606840764,0.0006211827272501769,2.875
-0.02911989490979889,-0.2968707738339107,0.3054945007832772,-1.1934536774638744,-0.07455780208415455,0.1925059687779905,0.9490942160731812,0.09971661086201522,0.13897974631887694,0.07120886256937,-0.10023511437655794,-0.03865030104367801,-0.026391626438539244,0.0017602286286971538,2.8828125
-0.016692757889078775,-0.17202821542246197,0.17755001305045853,-0.6927089398070235,-0.04332311678380347,0.11166942494515006,0.5498802255779511,0.05786171095773012,0.08062998963514689,0.04138941165867496,-0.05808492276805391,-0.023147768026676598,-0.015331618974185586,0.000869973101428095,2.890625
0.004835034760409143,0.04390174923985336,-0.0438591431253849,0.17337137251687443,0.010522941397943896,-0.028296032006862752,-0.13832680909540782,-0.014512037982279933,-0.020045435084104165,-0.010072575390434714,0.014668326171071337,0.0036566977760773564,0.003776132058540236,-0.0006684489316233523,2.8984375
0.014905981545580928,0.1447811553641814,-0.14700150797976938,0.5777565624460155,0.035624522499067814,-0.09382695728493615,-0.45886692269597223,-0.048363696553404445,-0.06692098161951907,-0.03407692744540734,0.04861182545025303,0.016172715714457057,0.01268046520482047,-0.0013861158244414336,2.90625
-0.004053222471482518,-0.04516966834157717,0.048352022034766635,-0.18442203982564356,-0.011726908633022339,0.02956421240425132,0.14738401955752162,0.015260621967526578,0.0217721745650891,0.01122398247763844,-0.015478227564369385,-0.007401801542327761,-0.004182074498632396,-3.261506901597391e-05,2.9140625
-0.02983855323817777,-0.3034210295393103,0.3132617864104354,-1.2200140321336068,-0.07607165614546937,0.19750478458918172,0.9705061846872672,0.10185125313279914,0.14213803131152794,0.07278645697334489,-0.10257563980081137,-0.03944415279763615,-0.027064418536192864,0.0018064183617798257,2.921875
-0.011821707045421221,-0.12300799368436792,0.12764988265173294,-0.49546819637685446,-0.03105906671655832,0.08027793131975586,0.39435739728992486,0.04141080006970923,0.05787752411385888,0.029745446021408266,-0.04168343819525689,-0.01703791161911978,-0.011038489264690653,0.0005214791201979903,2.9296875
0.03551565643755561,0.3510670064559698,-0.35883878778151546,1.4065603617036389,0.08719598462362671,-0.22800990867329032,-1.1181059628650025,-0.11753981049491795,-0.16326257075198003,-0.08333604265930676,0.11830417621710368,0.04182383924521057,0.030997108084163758,-0.0028545051981540073,2.9375
0.03852793299894918,0.38134379247840766,-0.38944972398089867,1.5272880702339755,0.09479601254139473,-0.24776772876179531,-1.2147292943174715,-0.12770499206253166,-0.17739881924079884,-0.09058072783114793,0.12857294612134473,0.045602674738899625,0.033663078676390276,-0.003070277564922094,2.9453125
-0.0018534680441879502,-0.02300782766084851,0.025502030608210866,-0.09552202064819974,-0.006099440601108927,0.015170450215643484,0.07530109551727329,0.007926875601662857,0.011192866495493697,0.005876090219338846,-0.007859011173093134,-0.004596074893402838,-0.0021859451863021546,-0.00019064768228108496,2.953125
-0.008143518218533527,-0.08617176774208316,0.0897711495520582,-0.34883127123492086,-0.022034356975431022,0.05629474941610766,0.27744485707970507,0.029170564217311144,0.04078323248765467,0.021011988349412508,-0.029262301509841934,-0.012483954313998506,-0.007765132594486548,0.0002600282782698218,2.9609375
0.020600963666714895,0.20150454920763633,-0.20568363330939018,0.8052943165005542,0.04961158508530512,-0.13075961919924228,-0.6396113832582391,-0.06730661537149413,-0.09322618313592189,-0.04755568362418951,0.06771726725588835,0.023193785175917494,0.017748845630473284,-0.0017882156506519309,2.96875
0.010051676586917751,0.0959505693834397,-0.09707345821794583,0.38125446764035675,0.023409323845636782,-0.06214231958206936,-0.3032185212777665,-0.031965844509402146,-0.04405167873852226,-0.02242458785033945,0.032126804749554365,0.010121077838490268,0.008388511902691334,-0.0010376038477947155,2.9765625
-0.028564938233674522,-0.29055295068204906,0.29964949663231366,-1.169408887976244,-0.07281620794765661,0.18918294710260686,0.9287285845505622,0.09762132397986732,0.13599315771435083,0.06967867123562024,-0.09820529555763788,-0.03781844462283895,-0.02587191587813457,0.0017135043205798667,2.984375
-0.016016752586106117,-0.16493687475486782,0.17037353030325034,-0.6642974127077977,-0.041498128127376716,0.10747472057425905,0.5278572726416189,0.055476336165662776,0.07736676586256237,0.03970025633838677,-0.055831995924965454,-0.022252174132573015,-0.014734953539028319,0.0008186250311975429,2.9921875
0.02482764200623602,0.2437250232907068,-0.24921234486421942,0.9762049598794168,0.060282525949299344,-0.15840539072868232,-0.774429105896926,-0.08163911649778301,-0.11299167970423067,-0.05770881416595839,0.08194172662792439,0.028416526257156533,0.021473587008768395,-0.0020916157767378297,3.0
0.0028004513532948567,0.0227698777750438,-0.02226218149128569,0.08938473152578505,0.005097826136929468,-0.014996729509917326,-0.06814449017084331,-0.0076040130310969095,-0.009707475048292998,-0.00495552930334166,0.007318043588446157,0.0009735626149332492,0.0018705731081494548,-0.0005183219928491764,3.0078125
-0.05640870036051759,-0.5702340169068563,0.5863969038010869,-2.290320350329496,-0.14276025635455716,0.3703801666123714,1.8232809807290087,0.1912874516162383,0.2668419627666265,0.13645092559299185,-0.1926965480777002,-0.07261621789929838,-0.05067647653277481,0.0037052757002163247,3.015625
-0.04559899077958695,-0.4616632829609841,0.4748588129324661,-1.8544578625132166,-0.11559803010002986,0.29982788607111055,1.4751424347728495,0.1549544190362317,0.2159758355546811,0.11047353803651358,-0.155913557653758,-0.059130417686181456,-0.04101589579835426,0.002933819518413143,3.0234375
0.025418172289628223,0.25006054850060644,-0.25523409873615766,1.0011052438445673,0.06199010125175076,-0.16261536123569376,-0.7968587965528298,-0.0836612494600615,-0.1162218110841159,-0.0593091152326956,0.08435210665169927,0.02923975906250066,0.022070658457854424,-0.0021331571352965033,3.03125
0.046907534889095985,0.46561549791184265,-0.47562016086902753,1.8651074292445275,0.11581336463928149,-0.3023878740189709,-1.4848957038006554,-0.15588343178187955,-0.21691340402951728,-0.11066835028208194,0.1571515588869361,0.056076446606717276,0.04112910279588299,-0.003668035511702939,3.0390625
0.004932074725078078,0.04516167690675906,-0.04380550998894611,0.17789369228012156,0.010969880655464254,-0.02884299089343553,-0.14336714071776097,-0.014833509518563872,-0.02083403262281491,-0.010340397327340748,0.015290251253016373,0.003955025931938236,0.003824243229660563,-0.000674872033456785,3.046875
-0.008884891838833479,-0.09349876617562831,0.0977378471456813,-0.37745817130741705,-0.02364908011461196,0.06129156069223827,0.2994414533184502,0.0316120885853428,0.043940265904937645,0.022710694696779974,-0.03160515399080031,-0.01329502828331912,-0.00844906605275866,0.00031077134181808506,3.0546875
0.027986999017488846,0.2756597281218525,-0.2819935899773659,1.1041503778194204,0.06833817544980639,-0.17875769501112818,-0.8773180743414128,-0.09232077381569849,-0.12807609157544833,-0.06535230555734578,0.09276796308369722,0.032422338880230946,0.02430871992591538,-0.0023196518678929804,3.0625
0.03789830065892966,0.37493159067172693,-0.3837983550065725,1.5012236541227653,0.09299233015965166,-0.2434102784590228,-1.192939349649893,-0.12566499220293267,-0.17422865789744987,-0.08897355785107033,0.1261700499192651,0.044696250056466394,0.0331152480948599,-0.00302627960006987,3.0703125
-0.008426157104402723,-0.08911508771351151,0.0930604744115864,-0.3619700613636257,-0.022807915105416653,0.05800209089084075,0.28789993336588343,0.030029990702474186,0.042306684280434714,0.02175973588824827,-0.030347914057040605,-0.012876587363883555,-0.00802981009730088,0.0002802044513205843,3.078125
-0.04251916544631742,-0.4306113211791587,0.4436588729435834,-1.7318033869157567,-0.1079388761506996,0.2798820416173847,1.3771966378448683,0.14462461139660898,0.20162335196592496,0.10317610062786783,-0.14553639945007243,-0.055242917126241645,-0.03830394800407138,0.0027128713013319437,3.0859375
-0.01719123921082643,-0.17676098900626178,0.18271863813308054,-0.7118080613037463,-0.044524565607526295,0.11515472416561844,0.5673737558224512,0.05949148415567558,0.08320852724882534,0.042565649963329275,-0.059979943817988546,-0.02374105545969461,-0.01580458589732176,0.0009037106456858895,3.09375
0.025806365264822814,0.25393359997489223,-0.25955948725291417,1.017395100735218,0.06293369271277423,-0.16454520387225724,-0.806523819646113,-0.08496012159750421,-0.11771875038802063,-0.06016293033140602,0.0852822118043533,0.029725918226983603,0.022365738889421026,-0.0021644002303086445,3.1015625
0.03218571125992575,0.31751499206320116,-0.3246555147349119,1.2725806864213665,0.07873767436492751,-0.20614839406880686,-1.0099112996287656,-0.10627931061030861,-0.14743235994247822,-0.07529593874871768,0.10687536525889349,0.03763874173703865,0.028011864496254243,-0.0026155836255767713,3.109375
0.008147402201410367,0.07658514233740439,-0.07712549684852403,0.3049513320397122,0.01859721190876945,-0.0499466046877529,-0.24231476880861144,-0.025490974262720192,-0.0351288021101948,-0.017830788916754627,0.025769713131351294,0.00772902308655572,0.006683098079419922,-0.0008976766219535341,3.1171875
-0.009338235974881258,-0.09820453923329457,0.10237593574616714,-0.3975993929502199,-0.024980824044228977,0.06380078595452202,0.3148511739494447,0.03311649300351378,0.04633579282130356,0.023836659923819614,-0.033193878354439835,-0.013988372416762037,-0.00880476533508971,0.0003466634244978171,3.125
-0.012913579688000916,-0.13372011028654723,0.13875661777867593,-0.5403704499169656,-0.03378845913204589,0.08718474158321254,0.42827272719622334,0.045033569748806415,0.06286437400885687,0.03228279097377406,-0.045249966893755204,-0.01840194672945362,-0.011976103422750344,0.0005972292880559767,3.1328125
