AF3,AF4,F3,F4,F7,F8,FC5,FC6,O1,O2,P7,P8,T7,T8,time
0.07101703562945774,-0.010656735373184633,-0.016034145188787867,0.007478366910166567,-0.02077568400227866,-0.008670568042736628,-0.011464459582873626,1.179865764862874,0.015888443630482144,-1.2512590418890042,0.012601353045611226,0.004263691429312138,-0.011576042765222328,0.03993414183427678,0.0
0.025189956968211667,-0.002846067157278801,-0.006695639480823269,0.0035747198771253702,-0.008280940023089994,-0.0021051059481272246,-0.003484746810541096,0.41805491506833964,0.005947248916410406,-0.4432487668095042,0.004756463417563906,0.0013502769398495928,-0.004899983234249303,0.013511126292923146,0.0078125
0.01946116974948383,-0.0018663083135651583,-0.005524027011339982,0.003083656991414731,-0.0067003754146672785,-0.0012775807292726641,-0.002482984862592609,0.3226446023857579,0.004711433734047998,-0.3422794543501609,0.003761753124241751,0.0009780135356517252,-0.004068678843805532,0.01014966477029077,0.015625
0.015444869275438306,-0.0011777885951202156,-0.004705814143890258,0.002741463623092054,-0.005608802948005811,-0.0006967273332077357,-0.0017812210113793763,0.25454275803073656,0.003817897672353029,-0.2706680586933606,0.0030774496143140036,0.0007233988033372644,-0.003480373608777202,0.007838268255503223,0.0234375
-0.00413506769754827,0.002159991561203539,-0.0007215408233062071,0.0010769767683134434,-0.00029858554432356347,0.002104381351637481,0.0016259709539297618,-0.07221361766051075,-0.00046186467450074284,0.07544962140719065,-0.00025137924837821007,-0.0005095190013062014,-0.0006193233919365117,-0.0033603551942132095,0.03125
-0.010764099479055989,0.0032863730291177837,0.0006288059258290217,0.0005135936483617281,0.0014968170501198175,0.0030458756521958993,0.0027777228525252425,-0.18195029072960078,-0.0018978729954394283,0.19218527164118726,-0.0013746630258602908,-0.0009248896934016285,0.0003492504082110607,-0.007125740262460676,0.0390625
-0.007650440510301882,0.0027536888919755635,6.7601114454593745e-06,0.0007760346801250124,0.0006673505998429508,0.002600345647222574,0.00223889154553832,-0.12923742517718345,-0.0012020370185145703,0.13669567217944942,-0.0008535567971545746,-0.0007345155395201949,-0.00010992225448926843,-0.005366622835572215,0.046875
-0.019528398659882915,0.004782007981055634,0.0024406985903145527,-0.00023794370227793907,0.0039241264503027005,0.004311453714960763,0.004314492718248303,-0.3272904402921625,-0.0037851558998900662,0.346175686431728,-0.0028991947916606636,-0.0014976181834216444,0.0016155024528746182,-0.012256430371958275,0.0546875
-0.033680264450769326,0.0071981964630828685,0.0053195532544131315,-0.0014410832194755962,0.007772744332297477,0.006342127159925291,0.0067813008098304515,-0.5638944254274845,-0.00688065654126348,0.5960207261959424,-0.005314567230070272,-0.0023924619795595813,0.0036784467846221235,-0.020374611469955818,0.0625
-0.030971062738498176,0.006732462858198523,0.004748221096813755,-0.0012063359430941462,0.0070113970899948344,0.005944412855674394,0.006305256373866038,-0.518984271464119,-0.006298526045213551,0.5480649142383278,-0.00483249101090504,-0.0022081260039808264,0.0032873087550006792,-0.018723287155614297,0.0703125
-0.027107331104743518,0.006064606869350796,0.003954104050107664,-0.000877426955027033,0.005952276522191416,0.0053815458505101985,0.0056290741217580945,-0.4538040917833994,-0.005443587578545955,0.4795767760340362,-0.004163115724667183,-0.0019584692130034226,0.0027252595048537697,-0.016459297993570543,0.078125
-0.03240450806526064,0.0069635688171908626,0.005049456071431703,-0.0013330477929605154,0.007410279974603047,0.006142646372219707,0.006553184346017346,-0.5411336055094779,-0.0065797205022775996,0.5729957629983125,-0.005078839034810414,-0.002302955124956147,0.003495320380053729,-0.019560648231988175,0.0859375
-0.026723076130775996,0.005999414066015517,0.003907114071644353,-0.0008512437193859333,0.005870430054329494,0.005334762849852791,0.005564782222323949,-0.4463760012980542,-0.005346153668978692,0.4729193619070089,-0.004116866858831568,-0.0019491161497495716,0.0026660563872849155,-0.016339531377731385,0.09375
-0.005961003151353036,0.002465209917417432,-0.0003311169565556083,0.0009208159235936246,0.00020101743877281068,0.0023593120260047245,0.0019449326116593641,-0.10100019620909978,-0.000841930245514343,0.10662992079878819,-0.0005605330908054899,-0.0006265870557628898,-0.0003593549482740259,-0.004364340782744896,0.1015625
0.005066616911971634,0.0005857421849094759,-0.002596651100107797,0.0018641161487690787,-0.0028143896018454147,0.0007761388146189966,2.003008460194992e-05,0.08231997514467404,0.0015558930344341743,-0.08803796602130647,0.0013328257343084948,7.968275886829802e-05,-0.001966749133831064,0.0020097493928194084,0.109375
0.0020665503785523083,0.0010969747105290394,-0.0019860128743646867,0.0016063794381533242,-0.0019824626021642806,0.0012104164108411048,0.0005449606982484021,0.03216852613293359,0.0009118375393543191,-0.03497998073649938,0.0008089360356544854,-0.00011599567007801498,-0.0015306135590728686,0.0002246025891147923,0.1171875
0.007434259104866085,0.0001857738766113251,-0.0030587766937103743,0.0020568413358511258,-0.003417452517936665,0.0004507673903741962,-0.00038159569244516244,0.12114540186578354,0.0020774030118817133,-0.12914473437554594,0.0017054959133131003,0.00021238789569809103,-0.0023115622309017037,0.0032204636874033424,0.125
0.02310724980832168,-0.002481558670234764,-0.006237151267678546,0.00338832313313873,-0.0076780466971847925,-0.0017913520486641623,-0.0031062211520591775,0.3816123855450855,0.005472588431135192,-0.40512492939054007,0.004378190719099629,0.0012026047726482506,-0.004591928467955787,0.01221829292863718,0.1328125
0.030719490924523897,-0.0037801528553189664,-0.00780225058756129,0.004040443534478386,-0.009767900944156927,-0.0028872703166321866,-0.004437165336180436,0.5084756073680531,0.0071243696734312354,-0.5396067511932693,0.00569026424464764,0.0016929798991774528,-0.005700742167731638,0.01664930450129219,0.140625
0.031347016359735295,-0.003892634999144271,-0.007961961212891402,0.004100130669661349,-0.00996014885198429,-0.0029839520990184148,-0.004556585355237171,0.519696187308659,0.007272422446363325,-0.5515848663233456,0.0058084385297481386,0.0017427321749756274,-0.005796629128940431,0.01705863963339711,0.1484375
0.03333046267026675,-0.004234558239438798,-0.008381667130890537,0.004269940988771292,-0.010508761487320769,-0.003270142628503396,-0.004903947067160643,0.5528063691959055,0.00770757090911231,-0.5871036527390369,0.00615017364084332,0.0018727636644059313,-0.006087263021886467,0.018219059059865286,0.15625
0.024373702299416433,-0.0027065015892634983,-0.006541623859587229,0.003501313099484616,-0.008063741851241701,-0.001984192652071792,-0.003334403673403076,0.40229572433928196,0.005744553017502491,-0.428383813029485,0.004619270315480889,0.001302037777292385,-0.004775144022282524,0.013070668749578452,0.1640625
0.004404849715049559,0.0007016694194360868,-0.0024508184045700355,0.0017956683306868068,-0.0026161543249951912,0.0008801782825114463,0.0001514442611995842,0.06851787663525137,0.0013906247180173162,-0.07502083511605044,0.001207222205158823,3.045118679493438e-05,-0.0018579248968088272,0.0015736344686466267,0.171875
0.00445076959548442,0.0006976852998045747,-0.002458347751510711,0.0018021643103777497,-0.002627311240992849,0.0008730442833135925,0.0001394045011975018,0.06987251748326949,0.001411478901352524,-0.07591776735535455,0.0012170222464903003,3.249870274398363e-05,-0.001867469632924334,0.0015954546345529627,0.1796875
0.02524620031413425,-0.0028458522123050965,-0.006706835289600208,0.0035795247498346043,-0.008296835583355661,-0.0021119764003777663,-0.0034901558021642044,0.4178762542657622,0.005951558341211462,-0.44400358561282643,0.004775149412303668,0.0013562815522659125,-0.004906592755908325,0.013594383498041516,0.1875
0.01766827291621945,-0.0015573648257881214,-0.0051638535757151695,0.002935596965652654,-0.006235428598074852,-0.0010322092010188937,-0.002170215616984697,0.29283071298278507,0.004310252179037552,-0.3112430466867833,0.003483212064538888,0.0008794073833773225,-0.003805360881635901,0.00928611607234227,0.1953125
-0.027316373410815435,0.0061030526270173645,0.004009823583757925,-0.0008988307803835923,0.006019310149662242,0.005411741889379578,0.005667107182374234,-0.45576381485530654,-0.005470686442062196,0.48239828168849574,-0.004207559032896993,-0.001976070300616074,0.002752910892908724,-0.01659717557037449,0.203125
-0.053811706776644354,0.010612894670438758,0.009408921655126426,-0.003155499684121272,0.013234451147197776,0.009210670440896471,0.010276604412001284,-0.896515446398754,-0.011230509123095348,0.9503023856047026,-0.008741083762694524,-0.0036606576025072415,0.006614959525959043,-0.03189918974235357,0.2109375
-0.04930197201010021,0.00984585558610871,0.008490423649698748,-0.002766596604537183,0.012003870520689977,0.00856831976189711,0.00948502201751488,-0.8214904605910018,-0.010259131919930825,0.8713361729882946,-0.00797320553058782,-0.0033770676274625655,0.0059560412748413645,-0.029350562925529757,0.21875
-0.06600533630593801,0.01270201794088125,0.011911063185383755,-0.004186259301174129,0.01656650226367654,0.010966989676982395,0.012399015342106882,-1.1005629007061482,-0.013910620992890938,1.166727744044161,-0.01083342668077606,-0.004442040177935527,0.008389341961475867,-0.038976386214927335,0.2265625
-0.09408661855061584,0.01749466658434267,0.017651576874928313,-0.0065807223596852015,0.024239375512656765,0.0149976403449584,0.017299933835166648,-1.5689694762257953,-0.02002218438598548,1.6624813612860365,-0.015643857220204463,-0.0062319797319236505,0.012479685099083183,-0.05515725376463593,0.234375
-0.05188638143373661,0.01029710850189856,0.00904310872119843,-0.0029908128553000437,0.012749216786634708,0.008954231399080782,0.00995080559304847,-0.8664048363453523,-0.010830163687862469,0.9176090064299655,-0.008434165866335427,-0.00355593283609176,0.006325816923128972,-0.030898417314913686,0.2421875
0.05419854740573313,-0.007794648647921627,-0.012602630057593106,0.0060424817690113725,-0.016172921455014838,-0.006251427026472372,-0.008532692057929102,0.8996343030323213,0.012248579882915165,-0.9543465519907658,0.009712681068409175,0.003185464728996269,-0.009132758378588743,0.03016973383671545,0.25
0.11015710826823571,-0.01733540090666453,-0.0240181525718316,0.010806477535616154,-0.03143974261458874,-0.014277888703455692,-0.018279320455754592,1.8303201464119034,0.024408408780567922,-1.9413904931174129,0.019293411370291558,0.006746986859492064,-0.01727769570799922,0.06242551399638734,0.2578125
0.07614154471612258,-0.011530328397480649,-0.017077510639351878,0.007905421655489592,-0.02216743940584024,-0.009405895092944568,-0.012346232351836253,1.263392194621239,0.0170040103633853,-1.3411851249659323,0.01347567002735033,0.004588048724194457,-0.012312655798330295,0.042869643150694615,0.265625
0.03607169960117653,-0.004691910432099323,-0.008907768975169674,0.004490861219955497,-0.0112320628902429,-0.003659598877360392,-0.005361602000433345,0.596822174791055,0.008295604918744216,-0.6348393897788417,0.0066121743995012335,0.0020388229003926667,-0.006476643172952054,0.019793469712186356,0.2734375
0.03685443501168236,-0.004822833536704915,-0.009078200107204993,0.004561504860800313,-0.01144552066525222,-0.0037691306451233357,-0.005502301251550486,0.6105318473659631,0.008465979235560334,-0.6491105847285382,0.00674534735213478,0.0020889612863018063,-0.006597155950643829,0.02025507241253388,0.28125
0.028991791662016927,-0.003485617066500096,-0.007485035093659932,0.003897748938808603,-0.009324225078196333,-0.0026474797541263047,-0.00414111659011209,0.4797354054123845,0.0067455481593790756,-0.5101036652877993,0.005414706161128211,0.0015978365810992874,-0.005449033676954007,0.015776574974496457,0.2890625
-0.011377549842165264,0.003391356113919953,0.0007471566905951028,0.00046129062076529696,0.0016633301159998729,0.0031300586239458813,0.002886087420457845,-0.19188654326763116,-0.0020311760966888054,0.20233696747482707,-0.0014815333393928686,-0.0009609021068916839,0.000439526554777658,-0.00744494965788409,0.296875
-0.03858053341178158,0.008026581261703537,0.00630494967403449,-0.0018572912877345194,0.00909062106359793,0.00702848719534423,0.007624949174191773,-0.6435549130829267,-0.007924418884085101,0.6818279860006701,-0.006144779551578504,-0.002694946012796327,0.004399833243546216,-0.0231588020079423,0.3046875
-0.03156009771141135,0.006831680263966361,0.004885845357314204,-0.0012597089048070069,0.007199380115678892,0.006030900157245192,0.006403800779930695,-0.5261556094128704,-0.0063852376422110875,0.5578069773183604,-0.004957142216014812,-0.0022591910830027395,0.003366806908584138,-0.019183030626372197,0.3125
-0.021737966670872227,0.005159216652666945,0.0028856960924066766,-0.000421297185600687,0.0045208613817793964,0.0046290298310019224,0.004692770461979435,-0.3636660208953969,-0.004266145398667037,0.38529467034068443,-0.003272462446108185,-0.001635831122812228,0.001934228329040549,-0.013524032692130749,0.3203125
-0.02396844206940767,0.005536431427008306,0.003330691072062698,-0.0006103594136998105,0.005105890178304736,0.00494371516897998,0.005079410613110641,-0.40191892634623794,-0.004770726983790786,0.4253184582523876,-0.0036376343626305196,-0.0017685272864021797,0.002267659721040842,-0.014747070806264537,0.328125
-0.022524014745228454,0.005283990260753344,0.0030262628974666505,-0.0004886333848314042,0.004702013372478016,0.0047288694762946,0.004826686250908009,-0.3776144198421461,-0.004448262341565667,0.39948390373221315,-0.0033856015390613175,-0.0016720932274141515,0.002061117694789718,-0.013893551147729685,0.3359375
-0.014245991714939616,0.003871092207872653,0.0013419737209293251,0.00021443294988570343,0.002463517198038345,0.0035443793345260547,0.003386778291535356,-0.2390374745373208,-0.002626795433320651,0.25286061036131785,-0.0019826656367597927,-0.0011531426161452193,0.0008490021146316005,-0.009184812341131074,0.34375
-0.0076033712268372255,0.0027439130119838993,-1.1616840972436897e-07,0.0007789031300156557,0.0006723281279798444,0.0026018423326292684,0.002234074487948978,-0.12873168918877775,-0.0011832422917601683,0.13581220979938582,-0.000858785743595006,-0.0007396091784601711,-0.00012422005491415862,-0.005413608080170775,0.3515625
0.00038369373136616484,0.0013874264255562376,-0.0016247063169777714,0.001459371602032981,-0.00151124321350165,0.0014609122749932322,0.0008454943141737568,0.0032667410840941215,0.0005308816304333055,-0.004766750937681656,0.0005126354538199297,-0.0002300389742529412,-0.0012861184853861795,-0.000778315234471896,0.359375
0.010815954125134516,-0.00039203849122150574,-0.00375927706700508,0.002349350191037098,-0.004374007891981047,-3.939405525721639e-05,-0.0009725196245026149,0.17671566810357364,0.0027873756343324025,-0.1891046094192899,0.0023107657402271897,0.0004412891914133473,-0.0028035234170771133,0.0053069922849998405,0.3671875
0.013382966432910372,-0.0008333675995981719,-0.00428511929197999,0.0025680217183696274,-0.005073921754373001,-0.00041102527367587415,-0.0014202544279483284,0.22007349747282665,0.0033560523673127926,-0.23484917788327078,0.0027511163341147455,0.0006056787102176325,-0.0031791869435312775,0.006796011147497589,0.375
0.008018279558903553,8.108146758407659e-05,-0.003180002367215975,0.0021083671574997085,-0.0035932566459418763,0.00036058062653787415,-0.000483278003382621,0.13117102421680657,0.0021993734026827926,-0.14001992634305582,0.0018222010266844395,0.0002575567677947273,-0.0023985438146920247,0.0036545818106215795,0.3828125
0.008701067863222651,-3.205977384761359e-05,-0.0033110292050019053,0.002165419578861543,-0.003772421133953355,0.00026383812750818757,-0.0006011784262965193,0.14243995899965198,0.002341290421541144,-0.1515615637440439,0.0019352108966110891,0.0002979343731005332,-0.002494923088105402,0.004036455323866645,0.390625
0.01682721189043474,-0.0014154231726569767,-0.004981023966350142,0.0028620426630523517,-0.00600227769583949,-0.0009068296519584878,-0.0020218962431724544,0.2777760770080368,0.004101377873974754,-0.2949958082020072,0.003335378121279327,0.0008214085659642791,-0.003676663125865264,0.008770155851137374,0.3984375
0.01744205763164508,-0.0015209666335861984,-0.005128226989487856,0.0029191024106330616,-0.006182528290188058,-0.0010006939046911625,-0.0021349672067048934,0.28833509826200643,0.004243887970035887,-0.30645261448783373,0.003446784301779246,0.000866989563200851,-0.0037679161422199798,0.009151791529857409,0.40625
0.005188479123160499,0.0005672851614923052,-0.002630481305109706,0.0018720470784973932,-0.0028337151989753194,0.0007580270677548959,2.021575991008598e-06,0.0842858337840428,0.0015913735692840991,-0.09047599239927548,0.0013405128723101443,8.38682421865823e-05,-0.0019827157140357913,0.0020438604255277326,0.4140625
-0.006873061522892332,0.00262461944094508,-0.00014844146350958078,0.0008359796147023022,0.0004730294403932737,0.002493616395595465,0.002111849482373103,-0.11708575841566998,-0.0010328112326667177,0.12294122503235665,-0.0007378657916628363,-0.0006926136741929066,-0.00022026199934380817,-0.004973523801329508,0.421875
-0.008918940428499247,0.002974722691194221,0.0002834082248477494,0.000658406495137011,0.0010394253494385706,0.0027899697356183074,0.0024715854191977036,-0.1515226362016371,-0.0014832073325130792,0.15976299556145326,-0.0010923687690922853,-0.0008264395931592967,8.203251881304888e-05,-0.006182417297736002,0.4296875
-0.009079867733891647,0.0030011317385022543,0.0003029016249016908,0.0006501286715324066,0.001075968128391281,0.002812220566320493,0.002492863330015414,-0.15388958533203298,-0.0015123289513384703,0.16257127456539755,-0.00111394791932293,-0.0008322905396502154,0.0001017270602873126,-0.006273413502487688,0.4375
-0.016087419340908703,0.004192639327227468,0.0017083269494482071,6.0181954122203376e-05,0.0029698674966144273,0.0038166075814656817,0.0037045524594539196,-0.26995982770252164,-0.0030276363482016153,0.28550907788664726,-0.002303936710391237,-0.0012712536567196315,0.0011140344614747099,-0.010289738291610138,0.4453125
-0.01780577488566452,0.004483525781212243,0.002050607158950471,-8.412718639472899e-05,0.0034240923572300247,0.004063965412811707,0.004001636526685505,-0.2984297916747959,-0.0034076221282288164,0.3152690548226797,-0.002590271972202491,-0.001375983929509604,0.0013600178045677352,-0.011234554721837825,0.453125
0.002212006206647762,0.001071596386781322,-0.002024168569875656,0.0016190772536585332,-0.002036036354728885,0.0011935994655968502,0.0005187788874629999,0.03435187266545683,0.0009288747525323387,-0.03780729402561815,0.0008382923355983433,-0.0001015502356084385,-0.0015529417041254088,0.00034054109489087335,0.4609375
0.031358052737775206,-0.0038959626758112717,-0.007959087775831236,0.004099630676708047,-0.00997552971791535,-0.0029874846873323897,-0.0045547448812241625,0.519080906149736,0.007258632039108957,-0.5514864834636805,0.005823819508900631,0.001749987983538717,-0.00579297638417881,0.017130467398711435,0.46875
0.03795288846567767,-0.005020182613780863,-0.009297246707164246,0.0046604763767059704,-0.011767539525237446,-0.003935617208351521,-0.00570355007534695,0.6289464196608496,0.008697165837102738,-0.6674616018150556,0.006950118528737418,0.0021652847241370654,-0.006751117021860158,0.020905732969356293,0.4765625
0.01670365236892558,-0.0013969017508681137,-0.004955247486160224,0.002849558103408477,-0.005970458934882268,-0.0008905851218388582,-0.002000363810127129,0.2755575219995434,0.0040827794490016795,-0.29279118496362244,0.00331437042771393,0.0008110353436487695,-0.003657460832852083,0.008676036975185505,0.484375
-0.007194586782912942,0.0026789266059841963,-7.428307674344659e-05,0.0008122549131366918,0.0005503030584855133,0.0025361027559036345,0.0021695227997886963,-0.12236564908875558,-0.0011139569213053633,0.1282410122310854,-0.0007745874980152299,-0.0007082218042503941,-0.00017922550014816435,-0.0050477953185089405,0.4921875
-0.020141185310575405,0.004884276284993897,0.0025651924246141823,-0.0002906311001374168,0.004078210913727943,0.004394274420770133,0.004428471444807712,-0.33824660082730706,-0.003934044429199985,0.3564304568025371,-0.0029885493888672254,-0.0015280206100856705,0.0017051367431804973,-0.01249113370701477,0.5
-0.027713113875672737,0.006169053798710712,0.004102308882729444,-0.0009320335077713168,0.0061273780074041035,0.005481531112141471,0.005738865461613482,-0.4640087115081191,-0.005582578537484074,0.4904784973016423,-0.004279065535845846,-0.0020061096506188278,0.0028079729736448086,-0.0168882160903975,0.5078125
-0.02522355311083104,0.0057423178180144915,0.0035912131424467074,-0.000716398749112867,0.005441735903675067,0.005125007398150979,0.005293374328122287,-0.4216294157885045,-0.00503329324544115,0.4470662873762822,-0.003852532034433771,-0.0018495487993722547,0.002444897237072753,-0.015506336733391683,0.515625
-0.0073185618322922094,0.002696859552970793,-5.497978677661832e-05,0.0008069666702421309,0.0005844707859875624,0.002559169237811423,0.002175994568886302,-0.12309636936458665,-0.0011246870687416223,0.13109048922143457,-0.0008029027043215343,-0.0007195361793646309,-0.0001648047929072042,-0.005233809687783338,0.5234375
0.001443478332030794,0.0012114701608194436,-0.0018361669926118495,0.001549209294183801,-0.0017725588995954765,0.0013047859983678703,0.0006608186525765452,0.022391825268467454,0.0007895164269166717,-0.023871229173734364,0.0006800848514982004,-0.00016965474860929024,-0.0014424314084787936,-0.00020242988432205735,0.53125
-0.021801054116470323,0.005172994716223888,0.0028984955939259957,-0.0004294119182814482,0.00455888742796327,0.004634564926870391,0.004711404189121017,-0.3649368014581472,-0.004271821304444499,0.3862288950549388,-0.003292202492792076,-0.001643100023082203,0.0019456057955452913,-0.01356062775418705,0.5390625
-0.0448464146997209,0.009093435106229016,0.007583126338554253,-0.0023876479988190246,0.010802837830027171,0.007930050191862551,0.008716272660837347,-0.7486600047314715,-0.0092985130637215,0.7931431113405712,-0.0072136508076183214,-0.0030951521516879837,0.005309477648691478,-0.026770222619458175,0.546875
-0.017754497796096315,0.004471186283298967,0.0020490764410861237,-8.21114077804109e-05,0.0033971391325250365,0.004041100257582706,0.0039950996622222495,-0.29815146294833617,-0.003415813593453683,0.3152308669909586,-0.0025709150742381243,-0.0013667688971094102,0.0013703690075907839,-0.01113644680513196,0.5546875
0.04480390511666877,-0.006187693528992412,-0.010704085298801227,0.005236863910766991,-0.013633809465454706,-0.004920617680255634,-0.006890523613143123,0.7423203193290856,0.010192145329500786,-0.7888170943493451,0.008113593179574349,0.002601512450565895,-0.007742093996495708,0.024848515631586014,0.5625
0.08140777227544674,-0.012418063873355221,-0.0181614771039924,0.008349112556278137,-0.023579520679726858,-0.010155244070687283,-0.013257386446584309,1.3511408287128313,0.01815894198142888,-1.4348732817664502,0.014354721695932595,0.004916287248196227,-0.013081035614275614,0.04586225908304199,0.5703125
0.07266000715069879,-0.010921899534031115,-0.016380441632706407,0.007608496122152485,-0.02119368928491153,-0.008894835834714425,-0.011738145225813817,1.2056810877710513,0.01625362895127522,-1.280380292545853,0.012858856988727858,0.0043594056200637245,-0.011812351937103015,0.04081340274165648,0.578125
0.04766842529699344,-0.006666881634738854,-0.011293388927950428,0.005487615690874098,-0.014410657067099278,-0.005316491573656901,-0.007396188996646718,0.7901625123589189,0.010809915772472582,-0.8392231376732214,0.008603441570081676,0.002781179625955939,-0.008171784466125246,0.026471497908197025,0.5859375
0.018058705182410095,-0.0016326858333074027,-0.005255966579533846,0.0029697554507017478,-0.006366060413556157,-0.0010800705123204114,-0.002245821134768512,0.29824628368229456,0.004373316639471524,-0.31702259293719953,0.00355700446621135,0.0009080692239862552,-0.0038590980890414297,0.009469644386992387,0.59375
-0.022269763089298743,0.005232348278103259,0.0029824386687879417,-0.0004640952938366316,0.004628979167972255,0.004697211409289151,0.004778276850643991,-0.3716848741526645,-0.004380451720578648,0.3940260815845482,-0.0033399882603977094,-0.0016569494136209567,0.002009968997322018,-0.013758587043861825,0.6015625
-0.04958468779911302,0.009892548090407351,0.008570287016218217,-0.002790432764417726,0.01209714673693057,0.008615208194848487,0.009539746018230386,-0.8257826065434226,-0.010312087437501491,0.8759362605264194,-0.008025642151651833,-0.003401792394125119,0.005985184491680539,-0.029536336596152287,0.609375
-0.04151097644869101,0.008527361021183193,0.006928123877079995,-0.0021036224968261534,0.009907686551599525,0.0074606265008468646,0.008137524536199082,-0.6924493588136237,-0.008569780912936137,0.73413286002009,-0.006652962987287133,-0.0028924626711814426,0.004814465261766693,-0.024908258845422693,0.6171875
-0.03483671171230258,0.007392639362603816,0.005559172353680704,-0.0015366780345140321,0.00807383174024269,0.006499874348520762,0.006977331236633388,-0.5829760811543988,-0.007137481135027075,0.6169859530107049,-0.005500321591766121,-0.0024616806887473547,0.003852623134221144,-0.0210069001544007,0.625
-0.06846893794616356,0.013118610776803633,0.012415286731700372,-0.004402863830084145,0.017225306282209342,0.011312676697935795,0.012837874659285669,-1.1433666795527975,-0.014454252988816708,1.210397502829051,-0.011237109386918371,-0.004591755395457873,0.008757819099497547,-0.04029374004825013,0.6328125
-0.09498095101596388,0.017633592778930417,0.017829979503705646,-0.006663192612242454,0.02446309250032387,0.015111688085569919,0.017459208703273527,-1.5840564257536511,-0.020207804960703842,1.6778629685348245,-0.015776801036679104,-0.006280502677042658,0.01261773215516307,-0.05556904723640298,0.640625
-0.04398889080362733,0.00894654200410425,0.007430627587737759,-0.002321602014238662,0.010589935360951127,0.007810599539840969,0.00857687576750057,-0.7344535268698563,-0.0091066548675067,0.7779135028710362,-0.007077045367031809,-0.003050248501186909,0.005182547281296315,-0.026298434775623207,0.6484375
0.052197103076307635,-0.007442285118619991,-0.012206033164652033,0.005872273199451243,-0.015620745168676991,-0.005969935134677649,-0.008183546388760716,0.8669851988280047,0.011816566539559176,-0.9195167427491155,0.009363824261127819,0.0030604315857894085,-0.008835624932284932,0.029036269978815903,0.65625
0.09660037906399349,-0.015009315925655234,-0.021281976337796424,0.009656325363849158,-0.02773633469494046,-0.012335272938563851,-0.015922244638525884,1.6059555058040036,0.02147351814003826,-1.7033738704357955,0.016965533220177745,0.005889068539863553,-0.015305745368002466,0.05463533867461329,0.6640625
0.07018733222040376,-0.010508091138660846,-0.01588825066897033,0.007404365177946399,-0.020539984115251257,-0.008549348744156252,-0.011316652116765575,1.1657584032079706,0.015724783383985183,-1.23728551239826,0.01245130013876229,0.0042117936184893345,-0.011455114423907129,0.039442610234896223,0.671875
0.03819962211976824,-0.005056119892281598,-0.009339467682114475,0.0046745503786857915,-0.01180999040282536,-0.003959965971497622,-0.005737344478975923,0.6327240785897325,0.00875982871891085,-0.6721852018010142,0.006973223134462758,0.0021718749463288454,-0.006790517478663,0.020984211449751163,0.6796875
0.035266978429887116,-0.004556729952911435,-0.008732839906848887,0.004423452120179209,-0.011011639199028402,-0.0035406293901166412,-0.0052269160024919475,0.5837264867260116,0.00811561086727113,-0.6198315069318602,0.0064724255439478975,0.0019842645254533405,-0.006358110201591264,0.019289290203971785,0.6875
0.03407953001454268,-0.004355549284280468,-0.008508899735472917,0.0043272306656977205,-0.010707646683602468,-0.003380566089084508,-0.005027316019543082,0.5643651580934497,0.007859074627377938,-0.5991349541400272,0.006282234991111467,0.001918478979669752,-0.006181950180338552,0.01866586464716574,0.6953125
0.012099873845710174,-0.0006109036554196616,-0.004043701229769002,0.0024611205743162285,-0.004728043292642387,-0.0002359681632211841,-0.001203894911041846,0.19928588404955644,0.003088644216439591,-0.2121546671557518,0.0025285749555402385,0.0005280696586542799,-0.002984424823266418,0.006039209596755335,0.703125
-0.022680729929946918,0.005314276452119741,0.0030569941881973405,-0.0004990552164009362,0.004761487462074291,0.00475631847420741,0.004855000476201879,-0.3791181353534776,-0.0044676702153409985,0.4011030992716495,-0.0034274283794744832,-0.0016875696093521342,0.002071622158091705,-0.014030239654728873,0.7109375
-0.055726254763065156,0.010943010805921619,0.00981626751278677,-0.0033152285426004714,0.013775444483423605,0.00950092156322395,0.010614036104850096,-0.9295293145286418,-0.011659757216130297,0.9846036883757371,-0.009081172519148752,-0.0037931843923201232,0.006881679018444489,-0.03307813069955185,0.71875
-0.06764622548241274,0.012973371670164078,0.012252507873808039,-0.004333103329761032,0.017012860074741436,0.011206420398359458,0.012691508110359198,-1.1287914679507896,-0.014265041210351418,1.1955833891323333,-0.01110976247623081,-0.004546873102911231,0.008626898047099095,-0.039895896666967044,0.7265625
-0.041680744307149124,0.00854969502664617,0.006946246834011533,-0.0021222230223218643,0.009926355015348868,0.007477837815878553,0.008166756589883018,-0.6965688543206088,-0.008618409325928377,0.7374559141862571,-0.0066645802329671705,-0.0028924678395623907,0.004851078759733225,-0.02492505679979595,0.734375
0.0020114738602231455,0.001105599071378472,-0.0019691070877787286,0.0016008151397707115,-0.0019692633603234145,0.0012166827656989686,0.0005543529626336303,0.031800181488490335,0.0008995658692582169,-0.0340521684747904,0.0007977453764693945,-0.00012074347104763356,-0.0015215251966079787,0.0001796776614007211,0.7421875
0.019760272303338548,-0.0019170687783485677,-0.0055796375710088905,0.0031129859042376543,-0.006788101809858059,-0.001320950102064933,-0.002533986540397675,0.3276177847974307,0.00476678088831491,-0.3475234347682179,0.0038243956909046264,0.0010006115003524747,-0.004116378253431702,0.010363814048918833,0.75
0.005698087307549346,0.0004814176767299047,-0.002706916793738985,0.0019125958023166116,-0.0029590040105096724,0.0006954332909357006,-7.842746280199256e-05,0.09217602264935075,0.001691216509157944,-0.09894694346091691,0.00142545458006669,0.00010995110480940789,-0.0020618456446364034,0.002313200111600469,0.7578125
-0.007009737443469856,0.002646759176053355,-0.00012612692123549032,0.0008287014285142498,0.0004829034614878437,0.002512018891508835,0.0021345276213002684,-0.12066993575190949,-0.0010929202306266018,0.12590479866159168,-0.000736069791527816,-0.0006893106041888768,-0.000197959637333418,-0.004946613038646211,0.765625
-0.005180072830322173,0.0023326073925603605,-0.0005102706037208609,0.0009872771523304817,-2.5444089118825603e-05,0.002246833696704662,0.001807444573424313,-0.08957014193459151,-0.0006911344383488098,0.09365761733470361,-0.00042151576991903545,-0.0005715306800812367,-0.0004635727301998664,-0.0039031132087915268,0.7734375
-0.0027238893817125827,0.0019144920627289185,-0.0010060853434805475,0.0011979451726641195,-0.0006787235713257801,0.0018963134819383102,0.0013767420496676606,-0.04733194581146084,-0.00013717121599944498,0.04989547509155016,-1.1876686676732307e-05,-0.00042213213156342056,-0.0008289632202497983,-0.0025354591459427383,0.78125
-0.002415103382839652,0.0018663531493294241,-0.001056773528062388,0.0012194656834586231,-0.0007403170855587513,0.0018544099493806802,0.0013328779224913885,-0.04247259961642876,-6.379620683242774e-05,0.04427615422799747,3.0321081265065728e-05,-0.0004077960906210474,-0.0008742402683477779,-0.0023716526627395457,0.7890625
0.0021380573831818275,0.0010927912965827873,-0.001983681581176286,0.0016027246888135436,-0.0019793734448535563,0.0012017790721199249,0.0005488776484692128,0.03197222212989373,0.0009133140722212626,-0.03578963360421392,0.0008101712537326258,-0.00011587666786363335,-0.0015307014069416028,0.0002780435679576052,0.796875
0.00729484362509888,0.00021065450686159624,-0.003044294408679783,0.0020453994201424064,-0.0034039781925447434,0.00046005592542517693,-0.000355169110859645,0.11782226497993326,0.002025917508970811,-0.12661139366994678,0.0017036807174421959,0.00021839030823444085,-0.002280497483925382,0.003277377632527947,0.8046875
0.013669418250702526,-0.0008793965837055401,-0.004350072717252491,0.002594223112231242,-0.005152778121415752,-0.0004560304994832554,-0.001476882781189275,0.22544121200014278,0.0034246188138259376,-0.23944897259651118,0.002799562698217146,0.0006251348457835532,-0.0032154072664031044,0.006940745911508874,0.8125
0.0261896397282113,-0.0030117866570600884,-0.0068990279003931215,0.0036592225632876966,-0.008547600207700035,-0.0022483047353839326,-0.0036570127555481256,0.4347457913106334,0.006169442890440808,-0.4609398931468901,0.004928154996900414,0.0014134732727645704,-0.005045791697774807,0.01409608892402801,0.8203125
0.029011596093647972,-0.0034898283735910088,-0.007466533774511805,0.00389471159975876,-0.009289223341317676,-0.002645630901502547,-0.004139674308652536,0.48133353512297156,0.006791981879847009,-0.5109452230101181,0.005391682900644671,0.0015830306763271718,-0.005460989850178218,0.01565891391657044,0.828125
0.010692291980568326,-0.00037021740768043265,-0.003730374550062993,0.002336315202497477,-0.004296777472239263,-1.5442182468351666e-05,-0.00094962219983666,0.17611176722923194,0.002798585350916808,-0.1874894853963084,0.002257161050010385,0.0004176961833788231,-0.0027953662514549832,0.005100257461768473,0.8359375
0.005392420478169584,0.0005251453345140169,-0.002660519692634631,0.0018910366684960916,-0.0028836028338403165,0.0007396911885337412,-3.741836017655102e-05,0.08819180751833246,0.001633624440274358,-0.09374503588341515,0.0013691566805332984,9.006928714182885e-05,-0.0020225874616048435,0.002097122857784415,0.84375
0.038979211848371366,-0.005205226756574428,-0.009520663687703384,0.004751072491420503,-0.012061412241796918,-0.004082432580293214,-0.005891038172886031,0.6470783009775825,0.008935294049034892,-0.6863695720585999,0.007128316220491228,0.0022329992321331064,-0.0069094048313723755,0.021483562661727525,0.8515625
0.06006471804775908,-0.008797413446416581,-0.013816458015504844,0.0065404422478362425,-0.017800745743758815,-0.007105890145337278,-0.00955461545098536,0.9971960077646772,0.013522266881049254,-1.0584199667375036,0.010731368118377785,0.00357198240619364,-0.009975713627556754,0.03362538253795871,0.859375
0.009096930492222566,-0.00010286939828621523,-0.0034067362957329195,0.002198804021573698,-0.003894637543248362,0.0002052311168210754,-0.0006705466816051313,0.14838346737636296,0.002429784764330921,-0.15883796846729872,0.0020067026195041532,0.00032824095564709465,-0.002550615674282281,0.004261854206145654,0.8671875
-0.0755051917591836,0.014324237754739063,0.013854207366352952,-0.004999183310695846,0.019155292447785303,0.012334379410185382,0.014060689310901507,-1.2596833075405363,-0.01598784558502086,1.334397889317557,-0.012457016435188577,-0.00504573561872705,0.009774020140694584,-0.04443051929105424,0.875
-0.10814404476488666,0.019889259908826885,0.020501899722335532,-0.007774054575362205,0.02802961492263021,0.017007482402683273,0.019740586084803936,-1.8031642795028155,-0.023098719613711426,1.9105177999746963,-0.01802449975670097,-0.0071109234114674095,0.014533367669626138,-0.06316328858294074,0.8828125
-0.07821587138755967,0.014784628473461214,0.014388176876294373,-0.005229448819032667,0.01987029670722717,0.012711156836147965,0.014531695379490507,-1.305498884206402,-0.0165815445547172,1.3821610174418428,-0.012901020297896441,-0.005205134291843045,0.010177787883109711,-0.045891561686751715,0.890625
-0.03995246069763109,0.008258992436523125,0.006588641158087757,-0.001978030830559959,0.009463449847517359,0.007227226767884848,0.007873191867931853,-0.6683658366863238,-0.008238468974593783,0.7066290273812731,-0.0063689455178225175,-0.002781152847920235,0.004601711154263936,-0.023895682708023093,0.8984375
-0.01883595392700784,0.004660873108339647,0.002296183703090998,-0.00018206770746186614,0.003729203815352091,0.004207405411076763,0.0041949060590589305,-0.31615730166654477,-0.0036365226498039026,0.3342175222359497,-0.002773351797709073,-0.0014506696395076971,0.0015212706388146723,-0.011818514350745426,0.90625
0.0015124517698157922,0.0011972773120777164,-0.0018473723470970212,0.0015531973148126645,-0.001813718784418126,0.0012955097975880716,0.0006473606162621658,0.02257232283735397,0.0007789273531530393,-0.02425937770704788,0.000702859882799716,-0.00016116989090459195,-0.0014436563159397698,-0.00013777028720277017,0.9140625
0.029273847281609658,-0.00353254742235658,-0.007519652135478657,0.003920029656888665,-0.009384919404509771,-0.002685651296282632,-0.00418870268415517,0.484310267108308,0.0068117842876768125,-0.5142054977830637,0.005456788029717162,0.0016076156067390938,-0.005488668134534289,0.015884472375194403,0.921875
0.051886543413876295,-0.007390033198147389,-0.012145604169522626,0.005846253327197562,-0.015543700931214904,-0.005930436039068084,-0.008127160637258561,0.8613098883597798,0.011748635989332167,-0.9141761716475267,0.00932397584223647,0.0030468011986896203,-0.008789008038910763,0.028928470424125764,0.9296875
0.05827695593655687,-0.008483327806950599,-0.013447244116008433,0.0063889323386406745,-0.017273801556949006,-0.006845696496302853,-0.009241606778533187,0.9688787051515855,0.01315958384739863,-1.0274924149302087,0.01040559128978221,0.0034473927059681044,-0.009725087578902964,0.03255361618962675,0.9375
0.05344630416752275,-0.007660751975454395,-0.012449545296782341,0.0059756220987544455,-0.015955277419650596,-0.006150844588814674,-0.008400745752804181,0.8885527793463661,0.012103018732481473,-0.9416600215188325,0.009571807082582564,0.0031358266049618965,-0.009017156310748314,0.029711799981939832,0.9453125
0.057024497238880784,-0.00826955492139722,-0.013182200490860285,0.006280545161581833,-0.01694399438034822,-0.006664120198802483,-0.009023179651062842,0.9470384021558292,0.012859896979411235,-1.0042497736166638,0.010190227831951781,0.0033681195165650548,-0.009531762013835977,0.031795279416021685,0.953125
0.07511453960018036,-0.011352684782669566,-0.016892700644163646,0.007823551984064371,-0.021887253929590168,-0.009256963797200101,-0.012174581590201166,1.2475726112340533,0.01679000970765707,-1.324078090893481,0.013292996153326731,0.004525665234805892,-0.012170695166361531,0.04227021153320748,0.9609375
0.0667914804433068,-0.009934387374661348,-0.015200790230076738,0.007116269137419791,-0.01961830811578657,-0.008059734523951928,-0.010725502295054904,1.109387021570121,0.014990307826034877,-1.1780038778227089,0.011869422627349602,0.003997081937591036,-0.010967348525558127,0.03748286621366219,0.96875
-0.01612129923172549,0.004197469134612668,0.0017348329614057757,5.5364486951190966e-05,0.002978529599452702,0.0038253112245597177,0.003717702887480046,-0.27059013643507307,-0.0030470744319760507,0.28552922288995,-0.0023076841962757695,-0.0012744251900693193,0.0011134383245446622,-0.010265235465139034,0.9765625
-0.12993500762885118,0.023594950578598152,0.024967492702968115,-0.009634604906743232,0.03397747294080272,0.02012859899720536,0.023540902824996823,-2.165434476392451,-0.02782116703314905,2.2949531655706785,-0.021753275704115987,-0.00850055553818942,0.01770708099799135,-0.07573395611647216,0.984375
-0.14868819450044818,0.026788401984002588,0.028774425184982303,-0.011226732314665784,0.03906637787159622,0.02280638564377705,0.026800663313475484,-2.4774924967789294,-0.03190392238741207,2.6259068458257904,-0.02494337023966194,-0.009682156195951615,0.02044363346517434,-0.08646075566859852,0.9921875
-0.03140070018339415,0.006796308469348381,0.004825378355794094,-0.00123854851201913,0.007112568187018377,0.006001094446907336,0.006367611744000782,-0.5245894511703935,-0.006373454814467788,0.555351347376905,-0.0048969431957287335,-0.002232749569322272,0.0033450052943924786,-0.01897649852152045,1.0
0.09050653757079402,-0.013978667810104326,-0.020031725440207152,0.009135167346058105,-0.02607259070683575,-0.011456601552899433,-0.014858233167130286,1.5044599002197165,0.020153642728070322,-1.596071815702826,0.01592125664358972,0.00549723911978895,-0.014424693381266675,0.051097075016439716,1.0078125
0.08431478283028275,-0.012918095557317119,-0.01874047610445368,0.008600531279287645,-0.02436596159454113,-0.010565520907792135,-0.013767824484427777,1.4002168023638022,0.018790108624494727,-1.4859550077293826,0.014851496873828939,0.005095705164583279,-0.013514095545483943,0.04750935461125919,1.015625
0.0009767679138543925,0.0012878416228581013,-0.0017372294416567384,0.0015040709692536165,-0.0016717911334617305,0.0013680027336843835,0.000748976951423805,0.012301923801706987,0.0006443919841603572,-0.014658472778324204,0.0006146574567681414,-0.0001913633596112234,-0.0013575320674240204,-0.0003920135324914826,1.0234375
-0.04074308982706322,0.008395789226655516,0.0067552372211722896,-0.002044179769205899,0.009679006198923621,0.00733942672461136,0.008006891892727028,-0.6813589833693336,-0.008421936237470057,0.7212763181068965,-0.006508495768650855,-0.002834033996040451,0.004722720269870121,-0.024374258877764676,1.03125
-0.06818066137415785,0.013071082500923661,0.012350824865020782,-0.004377968851039687,0.017162066645413677,0.011274531712597173,0.012781243857473928,-1.136861603219589,-0.014370739673793332,1.204973439903433,-0.011205558625031446,-0.004580371494938652,0.008711903512082475,-0.04021405974836146,1.0390625
-0.15443913823448827,0.02777766824081604,0.02996450759690472,-0.011721731323279876,0.04067718528886838,0.0236401003605459,0.027809676590078998,-2.572737846763549,-0.03313718863586911,2.727317541594324,-0.02595724409597419,-0.010063988343788305,0.02127766954173617,-0.08988304373460657,1.046875
-0.18517716461666803,0.03302136996239838,0.03623789597334492,-0.014337852788556012,0.049043484763949485,0.02804352707866757,0.033167241787277674,-3.0855682759235497,-0.03984487431599311,3.2702465181654277,-0.03120228721294627,-0.012011129248956556,0.02576241216091386,-0.10752313640860849,1.0546875
-0.002104925725827944,0.0018153797237430874,-0.0011280710309691617,0.0012493460449071714,-0.0008541765567880737,0.001807395463754395,0.0012766482163586803,-0.03866315427878559,-2.4505839587091402e-05,0.03958872684424776,0.00010430252937045935,-0.00037609418473118726,-0.0009112563417983205,-0.0021290839302511946,1.0625
0.25670489143821906,-0.042304036447948855,-0.05394013296714331,0.023282961665544107,-0.07136718978797135,-0.03527773606215818,-0.043808265693507764,4.270638902834953,0.056302294423758364,-4.528322421145086,0.044340534133592846,0.016059112081591782,-0.0386310163348106,0.14676518118725335,1.0703125
0.2832527309335021,-0.04683148739347604,-0.05935288256388451,0.025542052445169043,-0.07858110263102872,-0.03908015446622085,-0.04843283146132043,4.714026584375542,0.06210585371024964,-4.997688306418621,0.04886296899095439,0.01773722058499184,-0.042508265894430484,0.16197864563311637,1.078125
0.07165912415781277,-0.010763764357493422,-0.016181414987230427,0.007527525278631769,-0.020921558373369724,-0.008760008570166594,-0.011571910801150529,1.1916839608094043,0.01607547376951348,-1.2641108097951177,0.012687931832854328,0.004297496584535458,-0.01167739813825441,0.040224379161321204,1.0859375
-0.07678826862905705,0.014539184829425164,0.014101343286687495,-0.005110090521726295,0.019512566038365986,0.012512490289748901,0.014289665743817183,-1.2808551629541587,-0.016243383004640937,1.3557817760610862,-0.012676958931638503,-0.005124440694520443,0.009956389288017476,-0.045132273963689386,1.09375
-0.034307527501496654,0.0072947264088414785,0.005435777727867977,-0.0014918376604256905,0.007921516618049658,0.006426850435560533,0.006888378086503549,-0.5744278929751129,-0.007024230200150338,0.6066829040076814,-0.0054026207139335905,-0.002422450923450505,0.0037671803206617053,-0.020642623549749415,1.1015625
0.024560421153906564,-0.002742151603142202,-0.006565461669554723,0.0035212175196549914,-0.008120780437513526,-0.002009958928564545,-0.0033708597015997114,0.4062939075124026,0.005782106313366368,-0.4317996096562397,0.004661338196390795,0.0013137999855390096,-0.004810583898338654,0.013215986108880078,1.109375
-0.004444545371611585,0.002203582395149454,-0.0006383022944143723,0.0010497410020408944,-0.00020273181188436174,0.002143663150032088,0.0016814546373187735,-0.0756808026973125,-0.0005117200045271725,0.08006212141852569,-0.0003082714027846822,-0.0005348246734071114,-0.0005818378522750216,-0.00352765480010373,1.1171875
-0.021354404934807714,0.0050904089626997795,0.0028166845457492516,-0.0003937179064439904,0.004425058407984618,0.00456838136142479,0.004632331757476357,-0.35733049185461196,-0.004177780351866983,0.3784568031769414,-0.0032123789018359836,-0.0016151727931640403,0.0018836658856475857,-0.013309738771716702,1.125
0.007418995425229682,0.00018858084972904756,-0.0030572884157453097,0.002057402102373522,-0.0034129407296080165,0.00044885081809329297,-0.0003805129603332471,0.12126350476126002,0.0020794836742852652,-0.12910014321310218,0.001704808974085709,0.00021160181375016042,-0.002310691669540774,0.0032312434539805883,1.1328125
-0.009730837176469942,0.0031100693250552453,0.0004273504031923395,0.0006044833813075577,0.0012345683090839686,0.0029036699158958637,0.0025963313144896014,-0.16403431487705972,-0.0016621255141429784,0.17374450332270663,-0.001212040425859491,-0.0008689407056506318,0.00018810913270738284,-0.006599818331731601,1.140625
-0.06387459184310842,0.012334350970095614,0.01146044999819665,-0.004002464954317864,0.015960171911578624,0.0106540754787167,0.012021701541060002,-1.0652548247989126,-0.013446780402449812,1.129162942384421,-0.010451065821437552,-0.00429665688668696,0.00808308591642928,-0.03769461248485321,1.1484375
-0.06835169009077025,0.013094685692252004,0.012377766317413918,-0.004390849648273076,0.01718087808835051,0.011292532265139,0.012809591745611297,-1.1404460736114814,-0.014420411445878379,1.208119583372739,-0.01121610390456844,-0.004579694810721314,0.008742718278309965,-0.04025014050199842,1.15625
-0.06787442363056137,0.013016621732568423,0.012296062074533744,-0.004357988728336369,0.0170701751654358,0.011230570914563845,0.012736449128947377,-1.133285735322644,-0.014321470280216587,1.2000316971824716,-0.01114746269867402,-0.004557361377479656,0.008676383052750118,-0.04001056738633274,1.1640625
-0.1398089485454172,0.02528586357112518,0.026977067876262743,-0.01048081161126956,0.036676538864803904,0.02154622287726981,0.025265681724269514,-2.330963661382021,-0.029983795574788284,2.469888516987446,-0.02345052289666253,-0.0091299941233625,0.019157029257857252,-0.08142887517993802,1.171875
-0.17929861305673309,0.03202194059398642,0.03502273026151637,-0.01383683689064945,0.04742676132391258,0.027205202542982466,0.032139480314618794,-2.9882132473125145,-0.03857990049252198,3.166543493260756,-0.03019318073325955,-0.01163254291436756,0.024907591365808147,-0.10411374196058794,1.1796875
-0.05658086121563493,0.011101498140349048,0.009978041789020262,-0.003388703667337456,0.013990857743629823,0.009615224362672554,0.010767039606296458,-0.9452037150340701,-0.011866947723829417,1.0000060594380649,-0.009208950050737283,-0.0038344808574824214,0.007020234292481816,-0.0334456269712485,1.1875
0.1317198694166291,-0.021001209076987302,-0.028430985945897533,0.012637667397206988,-0.03729504587999255,-0.01736926158969146,-0.022024910647919494,2.1898173560001424,0.02912106416012894,-2.323665774954074,0.022970497638900488,0.00811792037381438,-0.020423842439619266,0.07488593576591916,1.1953125
0.21260483795938234,-0.034789604976656244,-0.04492070559716979,0.0195220892143898,-0.059316715867638335,-0.028955543742954365,-0.0361140521443909,3.536898753532223,0.0467241789551245,-3.7508164769248094,0.03678128164119059,0.013244248590703946,-0.032212326721354684,0.12134190104483436,1.203125
0.19092203745079425,-0.031088954192660563,-0.04049791270780219,0.017680008375151754,-0.05341242989602975,-0.02584445729334901,-0.032344742560925566,3.176221932926799,0.041997321204112904,-3.3675195647980396,0.0330710787816702,0.01186530072561903,-0.029051135788685914,0.108815119544203,1.2109375
0.1527231758749778,-0.024574738257150015,-0.03271867237487721,0.014432430397393881,-0.04301724246941874,-0.020372251348742775,-0.025696515035116708,2.540341384311774,0.03368418709043328,-2.693421943624272,0.02655097421405943,0.009446424140614454,-0.023484497712076714,0.08686855561259518,1.21875
0.09158920138972322,-0.01415875310383531,-0.020254844814720386,0.009228946228254382,-0.026364722968898913,-0.01161637799756338,-0.015047808749607403,1.5229881217347292,0.020396607929225038,-1.6152985168198346,0.01610845327541921,0.005568610746955436,-0.014580633109871212,0.05173894340888542,1.2265625
0.0030983946894540463,0.0009162889405087469,-0.002191454091327317,0.001694503660845797,-0.002252499108550823,0.0010619015261241062,0.0003670621126671064,0.05038879833117871,0.0011528350219251562,-0.05401182376832269,0.0009815262106373463,-5.3934456025733115e-05,-0.0016902432777350525,0.0008179155305169003,1.234375
-0.035509663138285144,0.007493023806157093,0.005699466714232138,-0.0015928733159421068,0.008261634934863031,0.006594091416532559,0.007091124530201298,-0.5925299162405506,-0.007258915144839348,0.6280074384903812,-0.005617437216136983,-0.0025080287480046797,0.003939521181243987,-0.021417487392661604,1.2421875
-0.016501567444981192,0.00425640358922653,0.0018170538595411868,2.4895148063515077e-05,0.0030722379194228927,0.003869655331594506,0.003779229260842585,-0.2770532001996962,-0.003142203314925247,0.29346675001486777,-0.002363309038866918,-0.001296577433217939,0.00117994175807146,-0.010472015322577086,1.25
-0.04720432283847117,0.009495638280984054,0.008064070748448417,-0.0025900636445872153,0.011435929163966381,0.008269807930042235,0.009128224859220884,-0.7887630623016376,-0.009825555288840373,0.8353332004465757,-0.0076115838121835885,-0.0032420648353501183,0.005658867696677302,-0.028124885014959328,1.2578125
-0.14993473975484353,0.027008410628111573,0.02902407392924381,-0.011336907115008472,0.03943439412511937,0.022993711508287433,0.027024842088396447,-2.498697980339649,-0.03216908896267223,2.647700662849273,-0.02517839309509435,-0.00976869706919623,0.020623908701666794,-0.08724081939435224,1.265625
-0.1993340068590567,0.03542691503925569,0.03912527730402012,-0.015542995420096557,0.05289577222646305,0.030073464767421277,0.03563153412914726,-3.3208724955305566,-0.0429199193091542,3.5193820035216774,-0.03362295322408322,-0.012909846390133043,0.027818927590408927,-0.11565522398817786,1.2734375
-0.1285607848946285,0.023362182606341982,0.024695655976027586,-0.009518549042895891,0.03360103182706511,0.01992743147483527,0.02330348073961248,-2.1430547544414056,-0.02753367708404077,2.2708823916120338,-0.02151627388721378,-0.008412469889909296,0.01751230047563845,-0.07489439194927534,1.28125
-0.028496725850077637,0.006306587047691802,0.00425865246266698,-0.0010004591508250558,0.006328050683330915,0.005583696360433431,0.005870556924087906,-0.47724228272150426,-0.005759125854258038,0.5050123291596751,-0.004407573112768825,-0.002052313050808722,0.002937435795101019,-0.017306318787389332,1.2890625
0.014270384668591932,-0.00098235690603276,-0.004489443849014657,0.002640371653132655,-0.005315924602593758,-0.0005424575286793379,-0.0015810482265257255,0.23554139709034894,0.0035672023159360492,-0.25047208060390647,0.002893941738306054,0.0006622729744805442,-0.0033000009379744824,0.007256621599451973,1.296875
0.02893418758730479,-0.003479789357710223,-0.007473948565550013,0.0038885578698998544,-0.00929508596307215,-0.0026354591326724535,-0.004131561592925426,0.4798620239456737,0.006765684352853812,-0.5096752670556522,0.005390846930140464,0.0015871224543667118,-0.0054464778172536605,0.01565107579813948,1.3046875
0.058697542622998165,-0.00854863107800403,-0.01352618274866404,0.0064218733556467246,-0.017400977029421786,-0.006894995833834421,-0.00930890748270091,0.9740131938009129,0.013220180802747707,-1.034308585981273,0.010481207221719567,0.003475868215054699,-0.009782958039141596,0.03279335320786983,1.3125
0.07450605706253487,-0.01124125702200901,-0.0167512116160535,0.007768706967464944,-0.021717001424519912,-0.009162751553199263,-0.01206135025224144,1.236026425522533,0.016638866771515815,-1.3125355661462277,0.013192037557994788,0.0044842864250506835,-0.012079246708475565,0.041930545962134635,1.3203125
0.05410405348063163,-0.007768166556285611,-0.012602325038626384,0.006034385877475736,-0.01615878419782844,-0.006244270015253022,-0.008513855808874171,0.897197699789437,0.012209865302644183,-0.9526162096719327,0.009703343480726835,0.003189006895799823,-0.009106608850825428,0.03018366903668761,1.328125
0.05149486432923971,-0.007328073426795036,-0.012066577754041094,0.005812741669665116,-0.01543072239369551,-0.0058700140760550735,-0.008062511277857303,0.8552705566258306,0.0116667787053539,-0.9070788979233889,0.009245247476593691,0.00301521928943624,-0.008734323514710741,0.02862456993591741,1.3359375
0.10420655638097041,-0.016310238180408314,-0.022800178040743344,0.010297806551463503,-0.029776439528823032,-0.013419176973998229,-0.017238442419679055,1.7327100311419639,0.023140864525547238,-1.8372417415306446,0.0182489343388363,0.0063559822002937725,-0.016418390172225877,0.058922226225244345,1.34375
0.13569184053897465,-0.021672839193195043,-0.029219074984488856,0.012977919167289891,-0.0383642089632542,-0.01793241585769603,-0.022718887079110944,2.255785021785566,0.02997909621778527,-2.392542651145928,0.02364127507830621,0.008360872969770814,-0.02100134448326621,0.07708192048493198,1.3515625
0.05409814156531874,-0.007770033435696983,-0.012596142412464234,0.006035965934993813,-0.016163469699866994,-0.006249790676702631,-0.008515056233041444,0.8977693750592309,0.012224657807401111,-0.9529227485931493,0.00971102165217598,0.0031923065732216683,-0.009107759640319351,0.03020346367673079,1.359375
-0.088710334726264,0.016561560974001462,0.01651863962488046,-0.006118267244648075,0.022728095578978372,0.014207611778939576,0.016347868399401184,-1.4777992974423817,-0.018831866708038433,1.5665258531010826,-0.014696766149825992,-0.005871305638517894,0.011699543977212883,-0.05195890639817605,1.3671875
-0.1516399312026166,0.02728602829522625,0.02936895737010539,-0.011478431767342338,0.03988962954854127,0.023230344960376067,0.027310308494360776,-2.524432130980374,-0.032514615395567735,2.676849626967302,-0.02546766025183656,-0.009875778818275185,0.020865176100855996,-0.08822518704489872,1.375
-0.09881966748414689,0.018291744330975596,0.018620206502207734,-0.006987232648187621,0.025527092201616707,0.01567184295406517,0.01812355696506738,-1.6462727036079898,-0.021034845990724988,1.7452601185734957,-0.016451813344700236,-0.006531847240402106,0.01316763785688397,-0.057868031766123276,1.3828125
-0.024639155894106653,0.005655830924927734,0.0034925205382839693,-0.0006733293470786834,0.005319539836878106,0.005045565191366974,0.005211411821562953,-0.413266219631488,-0.004918182628494516,0.4367368873911683,-0.0037680945974604275,-0.0018204597173439299,0.002361480567279064,-0.01514696820275891,1.390625
0.0019786853948928185,0.0011175213589746944,-0.0019571855753607722,0.001595926768736548,-0.0019597778166938443,0.0012261651140889152,0.000569938556913197,0.029164499076738792,0.0008616684691634335,-0.03302763887291448,0.000796119395023858,-0.00012040700494977894,-0.001513359906154701,0.00022656043186137983,1.3984375
0.005749227305609985,0.00046836310969884394,-0.002741374670157125,0.0019185131634214207,-0.0030097684396326635,0.0006806663377034908,-9.5345855854041e-05,0.09259607334547987,0.0016897378009273997,-0.0999722915411035,0.0014478285226940323,0.00012472817784382168,-0.002061348026080289,0.0024014760157335586,1.40625
0.02337133263169494,-0.0025378712810251764,-0.006328874029409231,0.0034155102066667402,-0.007801099197210606,-0.0018433971956052723,-0.003164130211696261,0.386616091699014,0.005538097545103246,-0.41108896047236254,0.004452561713084026,0.0012385548211481126,-0.004629978281243148,0.012495573355130563,1.4140625
0.04469492301078171,-0.0061687934135232474,-0.010665252925144024,0.005227352950571611,-0.013584264128880193,-0.004894428312114126,-0.006872716559669897,0.7415541522231064,0.01018399717623541,-0.7870294876545106,0.008084849836690194,0.00258349401325201,-0.007737908727509039,0.024717260375000317,1.421875
0.043219294490415935,-0.0059127807791222705,-0.010367443275148252,0.005103985064847226,-0.013175392233341361,-0.004681977942744323,-0.0066178825796763575,0.7169129129536879,0.009862825343795723,-0.7606233580995447,0.007829650627916,0.0024879948943379907,-0.007522925491409205,0.023852740226054017,1.4296875
0.016853589894661757,-0.0014185273589409615,-0.005006097564943629,0.0028655381276737097,-0.006010861390942773,-0.0009082972018555084,-0.002034235357645736,0.2783184393977669,0.004127762136059532,-0.2955016987583686,0.0033328347379073422,0.0008212373343561437,-0.0036814152019912297,0.00870668812810103,1.4375
-0.011514141347141514,0.0034139953415396472,0.0007730050526959928,0.0004521552842516924,0.0017038295012772658,0.003152712876225243,0.0029061050175597145,-0.19393458502956024,-0.0020436688348928825,0.20470688686994135,-0.0015062011286009573,-0.0009728785074783638,0.0004523051797302047,-0.007574429866146153,1.4453125
-0.029519592722954482,0.0064819758762407025,0.004459194160991068,-0.0010862655879138134,0.006620875379388793,0.005735150989526087,0.006052968746343534,-0.49438818614253777,-0.005968341710969898,0.5225615618855055,-0.004587446913776382,-0.0021182976684779023,0.0030783590109503467,-0.01792671636848891,1.453125
-0.0630550898394496,0.012200162776059096,0.011318991032859027,-0.003946113024617705,0.015776295744528223,0.010546873781020368,0.011901205939487456,-1.0531186332617446,-0.013276108862186862,1.115056344744908,-0.010331738805979854,-0.004255947749946676,0.007968111398595533,-0.03726409297720471,1.4609375
-0.12714737643822652,0.023127022333650306,0.024396135033534026,-0.009399665955298137,0.03323690799728758,0.01973375808186048,0.023058665612860164,-2.1196288642794503,-0.027226571782240663,2.2465366372878885,-0.021290142132247006,-0.008328723177792121,0.017307267091389227,-0.07417014977069752,1.46875
-0.15476802009475818,0.027834474287359124,0.030017327751909552,-0.011744876179393167,0.04074686051733938,0.023688496101413638,0.027861512434253007,-2.5788026378087996,-0.03323207590811445,2.7334804234281322,-0.02600125749455838,-0.010076947263741615,0.021327243226736414,-0.09002155686953703,1.4765625
-0.053886386002991914,0.01063529925264493,0.009428579732048735,-0.00315515000127163,0.013260138205534067,0.009228035716950458,0.010292318077921025,-0.8991697006225101,-0.01127048245508401,0.9521617435018995,-0.008750075306178873,-0.003666160683337209,0.00661989165911109,-0.03191617560473169,1.484375
0.14892264751990122,-0.023938216431574004,-0.03193688930111257,0.014107029508313745,-0.04197848639921282,-0.01983512274037401,-0.02502536610889777,2.4771861439136336,0.03286904582483755,-2.627468772026667,0.025909889150965995,0.009208243050402503,-0.022938108477921295,0.08476921987165668,1.4921875
0.3003178081966662,-0.049744367134790426,-0.06280790274558788,0.026993028236630405,-0.08321602183461468,-0.04152791688200982,-0.051393262378498325,4.997413212710504,0.06580838862559037,-5.298809943874952,0.05177882984427321,0.018814898073765206,-0.04499789538178722,0.17182523181217646,1.5
0.27678295347686166,-0.04572826536185045,-0.05800386036910666,0.02498942827747334,-0.0768143362891987,-0.03815321592536961,-0.04729653035157476,4.604822018904616,0.06067015169404951,-4.882651174948005,0.047758035466408895,0.01732055981311992,-0.04156144229897683,0.15827225447715604,1.5078125
0.10140708069527671,-0.015830904175814967,-0.022237138874070164,0.010059670593596668,-0.029047199569784847,-0.013021134176871329,-0.016751730610209077,1.6847217494952473,0.02250261328201881,-1.7875160105551438,0.017788274472027625,0.0061899175987200315,-0.016001260876763908,0.05739823325325609,1.515625
-0.0914908825844007,0.01704702867721607,0.01710275663236129,-0.006361714331361732,0.02350748580022019,0.014620029762417965,0.01684372659746008,-1.5254513361673117,-0.019449042757079538,1.6159577027644565,-0.015184888924469763,-0.006057010500542002,0.012104022793242682,-0.05359037044643621,1.5234375
-0.17627320915414407,0.03149335777836563,0.03439445574981744,-0.013578081104668157,0.04661074483476601,0.02676658372254841,0.03160479822093775,-2.9351498356862593,-0.037871136106086355,3.1115981842982983,-0.029682997512815137,-0.011443212192813077,0.024453853178528225,-0.1024146488423094,1.53125
-0.13926305867006789,0.02518418291797861,0.026844611765569133,-0.010426745649379022,0.03652090007267706,0.021459943192149878,0.02515497625929497,-2.3189948389324844,-0.029822059588124415,2.4589025045853337,-0.0233552845144376,-0.009092558017678196,0.019066004190000225,-0.08113472122221756,1.5390625
-0.07379317435286037,0.01402813769536674,0.013487020715568402,-0.004855189267353757,0.018673823780017373,0.012076838813382463,0.013755106224862625,-1.2306230586230251,-0.01559904976658869,1.3043261264019497,-0.012157336181033967,-0.004930583127036051,0.0095365330821653,-0.043436985640143734,1.546875
-0.05326398715263692,0.010530619289172581,0.009298882165193303,-0.003110362139070542,0.013085297405792498,0.009136955326121783,0.010186243249824783,-0.8898141199270454,-0.0111384772705266,0.9420963107278161,-0.008649077177702623,-0.0036262659933039188,0.006547052100679495,-0.03161477477692591,1.5546875
-0.04795727334569768,0.009625888744912388,0.008225153126526292,-0.0026589505430517344,0.011654725903304923,0.008380670573480872,0.009267174215358625,-0.8013869606757635,-0.009977940132558398,0.8479877830322785,-0.007749665450030832,-0.0032946259342998795,0.005765711539455068,-0.02857924235981904,1.5625
-0.011945078581177184,0.0034895341868994146,0.0008912764272401474,0.00040964465920055365,0.0018470048842252275,0.0032229914496566567,0.0029967073434237477,-0.20212760799803411,-0.002154126784823474,0.21252865054365902,-0.001593205903205358,-0.0010104775203628462,0.0005127904560100991,-0.007843681380220157,1.5703125
0.020345075082227704,-0.0020128099446796873,-0.00569456335403384,0.0031623792202875273,-0.0069637318276007335,-0.00140583853688275,-0.0026298922526093943,0.33488503895643834,0.004849489427938366,-0.3568068182421916,0.0039378967858091024,0.0010446877418562753,-0.004190253916841878,0.010792037382780475,1.578125
0.0030624039759020527,0.0009282049713757066,-0.002179607592989625,0.0016931128231900312,-0.0022647388488015114,0.0010663048189777766,0.00037425623517354487,0.047811342298109245,0.0010938945301105058,-0.05191660109103983,0.000989508535931497,-4.882443588432965e-05,-0.0016716822109207235,0.0008701909399978616,1.5859375
-0.024431344564401474,0.005607569510801187,0.003424260044982161,-0.000648844599173727,0.005236070577351913,0.005005565961119073,0.005159488810806958,-0.40839720515774386,-0.004857365838175366,0.43255119025288713,-0.003719795756371696,-0.0017993948269100783,0.0023281213952436055,-0.015002444152995854,1.59375
-5.3496885822220755e-05,0.0014537832560490532,-0.001540257235704111,0.0014228491298778978,-0.0013886356466959052,0.001518506113849585,0.000916907166375606,-0.002322740831538136,0.00046069611322370723,0.002167721226035709,0.00043470240829596017,-0.00025911596714639365,-0.0012282056638091088,-0.0010418098260926022,1.6015625
0.056713493141342386,-0.008213571994576889,-0.013115932474342945,0.0062529178007507845,-0.016853949003829197,-0.006610515245675598,-0.00896532533793225,0.9412754140752881,0.012793401969114675,-0.9989297470172738,0.010138823704507418,0.0033457679401377727,-0.009494341310628191,0.0316214747621437,1.609375
0.082638022335421,-0.012628881711133915,-0.018415254744324688,0.008459728287357313,-0.02393073421732645,-0.010329146992757046,-0.013480505252033205,1.3717625057425507,0.01841707752163079,-1.4559490379072662,0.01458035810773996,0.004999438276101107,-0.013262645168859822,0.04659293742175743,1.6171875
0.06575456204187351,-0.009755641156344155,-0.014979577689740996,0.0070226816953088906,-0.01933389213996818,-0.007917890795298145,-0.010542185306003886,1.0913295743457128,0.01475498085587607,-1.1583864948819138,0.011696437485229737,0.003930272956837298,-0.01080032254061889,0.03690239941441305,1.625
0.04030650429328845,-0.005420510467178118,-0.009777138392419223,0.004856255262523214,-0.01238328125270989,-0.0042710660455986885,-0.006109869046942707,0.6691172803055424,0.009240146399364598,-0.7098970345165565,0.007335005686640369,0.0023072475339491745,-0.007099411460596185,0.022212217318119686,1.6328125
0.02383847566459587,-0.0026094922625447743,-0.006403665771832357,0.003456470522681468,-0.007883255858758717,-0.0019031986341842824,-0.0032418337219933964,0.3956669659003646,0.005661988061674318,-0.4194401893796571,0.0045110624063835906,0.001254626719298289,-0.004708873921279806,0.012684854332367424,1.640625
0.00834781951822725,3.343390512728673e-05,-0.003251509971376906,0.0021420239557114326,-0.0036772544594325177,0.00031838672317227725,-0.0005476009033957453,0.13740143229760768,0.0022787480022846665,-0.14596069829203748,0.0018715839648476033,0.00027578278679704426,-0.0024529765063033447,0.0037984226936575083,1.6484375
-0.009277676056143507,0.0030336223514980426,0.00032404142402908887,0.0006430386516974896,0.0010975225588110357,0.002835162644647798,0.0025190985960286336,-0.15678669101198395,-0.0015684174470749367,0.1651882849939485,-0.0011251336466445857,-0.0008320575915454243,0.0001236957566419993,-0.006270637668961298,1.65625
-0.022707422899610648,0.005317297114939735,0.00305984601083131,-0.0005042555443517751,0.004749470607350846,0.004752089603948323,0.004860287611198128,-0.3806046191865269,-0.004489040414281841,0.40227045292389535,-0.003418251352029272,-0.0016817290956203338,0.0020895828292970564,-0.013984286010977467,1.6640625
-0.030813808671980268,0.00669681803935021,0.004726039654098092,-0.0011993544355091512,0.006973691936896411,0.005915380111904535,0.0062761174999254096,-0.5150016240836598,-0.0062398736185562955,0.545235845874088,-0.004815394737585934,-0.0022034765816053028,0.0032709281484796858,-0.01870185614179363,1.671875
-0.03628569734877395,0.007629193421074416,0.005847448499096496,-0.0016655917034800302,0.008474360215176243,0.006703419900961032,0.007229809345893166,-0.6055968466071808,-0.007422534479778339,0.6415335420601916,-0.005755811446678584,-0.0025551720799698156,0.004062490897600589,-0.021869734394670944,1.6796875
-0.035999772431380236,0.007582104840700102,0.005781369911739596,-0.001637596612998486,0.008387136115580182,0.006663042332880665,0.007178658348043119,-0.6014554905385681,-0.007373249273695987,0.6365495826690224,-0.005697443177972001,-0.002532460427330264,0.004018643700578936,-0.021651230309661408,1.6875
-0.0276490751325727,0.006163171545976641,0.004074905543749876,-0.0009235547768094752,0.006100730332812775,0.00546816542959081,0.005724293073860063,-0.46370850168651684,-0.0055808376651381355,0.48972751161731704,-0.004260881348558436,-0.0019978337780092266,0.0028036290526214326,-0.016800398083335003,1.6953125
-0.020689969646379494,0.004979245095045287,0.002665962166192142,-0.0003314796584124094,0.00420838739954856,0.004475776495975828,0.004513727840236478,-0.3481595824676471,-0.004074095540505869,0.3672257971670757,-0.003075026109492745,-0.0015594057341583945,0.001788481692421743,-0.012821736991379522,1.703125
-0.022695656677089938,0.005317725566269586,0.0030889236701339613,-0.0005056221963622059,0.004769646490834705,0.004765624488875627,0.004864882515084212,-0.3805915428837656,-0.004493394073026932,0.4023677275225757,-0.0034288713786433727,-0.0016940201161719248,0.0020773182878205954,-0.014036105317405158,1.7109375
-0.019308285398829835,0.004739503865863431,0.0024039819601595186,-0.0002204460375038789,0.003861030902993347,0.004279336857314009,0.004276590272258436,-0.3236002340344883,-0.003742482608115866,0.3426199354875522,-0.0028585183741741825,-0.001483607598922942,0.0015853409993430525,-0.012128782946170983,1.71875
0.00442080560989926,0.0007037089554238649,-0.0024397376466705092,0.001800443196350939,-0.0025983270316749475,0.0008797201542249819,0.00014332104213394942,0.07075703796557246,0.0014110964935370857,-0.07540469150567226,0.0011947912152249162,2.247256902268941e-05,-0.0018664655107092983,0.0015133151474569495,1.7265625
0.027291228703655395,-0.0031869882070746304,-0.007115910941049738,0.003752124182760747,-0.00883737964742066,-0.002396514558387815,-0.0038439755647970727,0.45087375980202765,0.006374871313720992,-0.47871406272919936,0.005109708533962701,0.0014785040353726207,-0.005198483189020771,0.014697646904131069,1.734375
0.017106592588040283,-0.0014592536827686307,-0.005053562597846105,0.0028885631240069495,-0.006079911210252006,-0.0009413875662409332,-0.0020749102241581128,0.2821184659780431,0.004171379978193345,-0.3000184869812314,0.003381356024390264,0.0008394321578249935,-0.0037218413239438314,0.008891804010414457,1.7421875
-0.007882666038012283,0.0027842874489223783,3.301157046461991e-05,0.0007597099579931779,0.0007183801743128771,0.0026328518565292614,0.0022760795968507163,-0.13262320026112978,-0.0012395414951413542,0.13974643384913593,-0.0008829402084965676,-0.0007421722250956635,-8.626270166084447e-05,-0.0054596333612049195,1.75
-0.0010972322097365216,0.001625594221468954,-0.0013495642790558146,0.0013337997856249064,-0.0011229592822852013,0.001659871228870674,0.0010965547732954685,-0.019717188229061388,0.00024227700510674502,0.020167431913209972,0.0002692451381539174,-0.00031431120002347826,-0.0010711006170768705,-0.0015959797678880014,1.7578125
0.031180345859149357,-0.003862824822926951,-0.007923414779723288,0.004080789920549574,-0.009904018002780632,-0.0029608763209779472,-0.0045220677986701025,0.5164227440734956,0.007244825657001324,-0.5483594724877726,0.005774121395780937,0.0017288849080601086,-0.005766212752099716,0.01692498377950765,1.765625
0.043008633861033825,-0.005870152429541827,-0.010330246325891466,0.005089182603921227,-0.013124491425129994,-0.004653873440607403,-0.00657979424920159,0.7127349725940834,0.009802398760448066,-0.7568790596689234,0.007795176090867215,0.002479310308208261,-0.007488382856562218,0.023750059357011945,1.7734375
0.03528184340244486,-0.004559274268586295,-0.008755652720577566,0.004431340026672831,-0.01102627895047981,-0.0035484169074445544,-0.00523232659545551,0.5846572936881264,0.008125869995785238,-0.6214402977916978,0.006483823640861754,0.001993104462015785,-0.006369373072228296,0.019374705514269095,1.78125
0.04316420333043265,-0.005912769029091218,-0.010359830270050116,0.005100499460324017,-0.013178187426850993,-0.004678961600461662,-0.006604735082466254,0.716448571875603,0.009846907466195383,-0.7610344410636997,0.00783694579112093,0.002494973662026583,-0.007522945009009321,0.023947096642917373,1.7890625
0.05175221665102878,-0.007378270397877063,-0.012098937169639147,0.005830769706529196,-0.015518366738884971,-0.005909729592725667,-0.008102561054799697,0.8593934497784478,0.011708283592802102,-0.9118867461562663,0.009302796723804905,0.003036909477747243,-0.008770075258889239,0.028862663314371637,1.796875
0.018028541006527867,-0.0016256388877429174,-0.005217669929227645,0.0029605330238270775,-0.006331904043201957,-0.0010786044770774914,-0.0022329761118926998,0.2980322296954164,0.004368818997631236,-0.3160587783438081,0.0035344230421445444,0.0008934706813021144,-0.0038484758504248305,0.009409583956819288,1.8046875
-0.043163488623041195,0.008808120367341694,0.007246680040869859,-0.002248694790119462,0.010340440878283372,0.007689786316385156,0.008422739133742096,-0.720350381474365,-0.008928116715032405,0.7634904160196865,-0.006928450925987627,-0.002990833364620273,0.0050690059650007335,-0.02583383573769007,1.8125
-0.08396093463349819,0.015763647799879262,0.015557617339987439,-0.005722055452877846,0.021463597832360022,0.013539056812201626,0.01553166349010796,-1.3998101124109428,-0.017793691836426106,1.4830081207093402,-0.013905171549113696,-0.005581287831409164,0.011008988190017081,-0.049315141224489316,1.8203125
-0.09710753258487266,0.018005438875763433,0.018256041542578146,-0.006839103090937635,0.025051670206807923,0.015425544282032532,0.017826008854922214,-1.619586630312803,-0.020673269400983244,1.7155687128329864,-0.016151131602259117,-0.006417767967288812,0.012922779508064964,-0.05685627817244689,1.828125
-0.08749040051985475,0.016365509471610813,0.016311003887472954,-0.006016356148890138,0.022423226401250624,0.01404591094927767,0.016148944435301026,-1.4597336380768657,-0.018605568316564524,1.5466631666155377,-0.01449887122350321,-0.00580534051866372,0.011523873392900891,-0.05128778011460188,1.8359375
-0.03308726789316042,0.007089832524611249,0.0051973552990594776,-0.001383781407260252,0.007586455219643054,0.006247788565148859,0.006665725753502494,-0.5531353440884417,-0.006760218806300015,0.5862409984991752,-0.005193123637835909,-0.002345839887262729,0.003596335626031927,-0.019979523624329167,1.84375
0.052283312175096276,-0.007462935656975447,-0.012244117558307725,0.005879921634509318,-0.015671170935094715,-0.005983746511325799,-0.008205630505123759,0.8687978927799958,0.01184520640942892,-0.9214582499112896,0.009392724423465846,0.0030749909292788445,-0.008848056919887827,0.02910074448161728,1.8515625
0.09623978135469365,-0.014952308554374953,-0.021207199567198545,0.009617086180867863,-0.027628562991177306,-0.0122780295457338,-0.01585344866712597,1.5998511516939682,0.02141608395611611,-1.6974530120351927,0.0168920385929703,0.005858975264626593,-0.01525505294440321,0.054347817564962306,1.859375
0.07181386364821726,-0.010784238223020336,-0.016199076824915684,0.007537251947099944,-0.020965143342115595,-0.00877655537726797,-0.011590490767599583,1.1917767588235815,0.01607354078079292,-1.2655076161678243,0.01271429480370112,0.0043040955822955945,-0.01169091963916144,0.04030607730138086,1.8671875
0.03447270186414498,-0.004419898443375506,-0.008572409501094074,0.004361950233527657,-0.010806069291274667,-0.0034308037927399493,-0.005087350461637912,0.5696781398888957,0.007924842095502227,-0.6058895372170832,0.006346540486687856,0.0019392984571099039,-0.006244559043069546,0.018895148537499098,1.875
0.01664257422213691,-0.0013881837167750441,-0.004945151852754351,0.002846780808440343,-0.0059627992751007785,-0.000883204345818612,-0.0019880506623784428,0.27400316100635386,0.004057319120138245,-0.29180104393828077,0.003312889957820394,0.000814423787168193,-0.0036490720267188465,0.008698991266674344,1.8828125
-0.0102399419630974,0.003187043614788148,0.0005339048807995175,0.0005574421067945746,0.0013688893599791698,0.002967974317758838,0.002690963143068609,-0.17190139044216757,-0.0017606786361311654,0.18162742473396587,-0.0012871729751158072,-0.0008955026803766083,0.0002596366648917443,-0.006790623002222254,1.890625
-0.04940482131324319,0.009864099534774504,0.008526510903778357,-0.0027790076292897896,0.012054504928543028,0.008588094127644849,0.0095128982307573,-0.8234777554447726,-0.010271468688185105,0.8726968365293619,-0.00799728271545721,-0.003390666983338125,0.005962454993627583,-0.029406627875192423,1.8984375
-0.06302181569227817,0.012192227089930917,0.011299207791684494,-0.003938991462613137,0.015762274544797523,0.010546575381718127,0.011884552609350852,-1.0512196747664295,-0.013253085571787908,1.1138298600154743,-0.010329475550470351,-0.004256019644493965,0.007952603723867576,-0.03728209381425329,1.90625
-0.047771358689345775,0.009596879367010886,0.008176312978519912,-0.0026398267732323758,0.011594057084190599,0.008358078209372491,0.009227344276741755,-0.798373675810737,-0.009953244539339318,0.8453215259332663,-0.007714303117741295,-0.0032807591070511018,0.005739964899855411,-0.028470435398395968,1.9140625
-0.030558288280987014,0.00666141082145868,0.004665084462410268,-0.0011743511708103979,0.006904459480007982,0.00588346216230067,0.006229765138757915,-0.5115780991515164,-0.006201670728955149,0.541352455957577,-0.004768454319952941,-0.0021855279821545595,0.0032345949347768687,-0.01853030222375237,1.921875
-0.011198711686286302,0.0033595180277640703,0.0007322268894942225,0.0004722088647797536,0.0016444068962312654,0.0031085760651442663,0.0028596008552710067,-0.18839129278269642,-0.0019723185850943426,0.19929924264303053,-0.0014674326878076354,-0.0009629619993264456,0.00040876538858842176,-0.007421367082741696,1.9296875
0.014237848952879235,-0.0009751984317456968,-0.004443936122909077,0.0026371777492873185,-0.005279765230688112,-0.0005311739221304411,-0.0015703859197062123,0.23532282752555445,0.0035645124075811777,-0.2495531448244819,0.002875207444531204,0.0006472522915314099,-0.0033020101280496115,0.007173063643280031,1.9375
0.028758169890922676,-0.0034485037381745804,-0.007415208011815028,0.003876487578183139,-0.009248919298769726,-0.0026122234489444375,-0.004101563562674259,0.4766118511874743,0.006713027247535783,-0.5057188516586412,0.00536618454263373,0.0015752769186380962,-0.005417440327464256,0.01556004661211839,1.9453125
0.0486958653465706,-0.006847876367322202,-0.011502860347538097,0.005577912005780931,-0.014696857290285468,-0.005475355180550271,-0.007576285056212288,0.8081364964891906,0.011045129780197796,-0.8579480411731628,0.008786954828198764,0.0028511821397474114,-0.008322247978762298,0.027106626469571106,1.953125
0.10918689673030472,-0.017161478819088086,-0.023844301714935734,0.010726591487719513,-0.03117570642010721,-0.014144089931239117,-0.01811027784508293,1.814972473515471,0.02420843977812675,-1.9257451060409758,0.01912611554289553,0.006692070804499221,-0.017138728125817175,0.0619231610688838,1.9609375
0.15567565728306254,-0.02508583897468866,-0.033304760697346905,0.014677385933220105,-0.043823305935529494,-0.020798833032295624,-0.026201355244457287,2.5886756592665496,0.03432367373167087,-2.7456950126239272,0.027058799336138938,0.009633530583282096,-0.02391191303442558,0.0886044809961102,1.96875
0.08245714064832924,-0.012601504745627582,-0.018354486776741105,0.008439005123957906,-0.023863419638588908,-0.010303193052876233,-0.013444564868330436,1.3696898389095065,0.01839089084720914,-1.452994925933643,0.014534317574521852,0.004978282961824494,-0.013236925761997101,0.04643245355460699,1.9765625
-0.07905515772942354,0.014932007010498422,0.014574974874187654,-0.005307314848801203,0.020128940912805576,0.012837095226157702,0.014683240994355445,-1.3188505991847446,-0.016750957374549912,1.3970444180616197,-0.013066118404187305,-0.005270604685763081,0.010300233886515815,-0.04645608225395892,1.984375
-0.16495335455513,0.02956952778661298,0.032073943142205456,-0.012611037963650856,0.04351045682273189,0.025142691244241084,0.029636807936911695,-2.7485330756974915,-0.03543995211907299,2.9122249275373076,-0.02773460780226527,-0.010715641841796221,0.022809033803534745,-0.09582179785918848,1.9921875
-0.11763766188983886,0.02149438665568874,0.022427932646875242,-0.008578556071947843,0.030614740473473172,0.01836443740942891,0.021392513183915246,-1.9606742508973902,-0.025143112116338538,2.0770734742183405,-0.019642402517804972,-0.007712292280516755,0.01590410731171791,-0.06860985044759808,2.0
-0.05764011653154876,0.011261015165188088,0.010213330476798456,-0.003475135766980789,0.014283780088081356,0.009768793360004349,0.01094678528271752,-0.9618077070461318,-0.012083363678719228,1.0187648229927957,-0.009394495330300706,-0.003910868264245172,0.0071614064121627,-0.034146445227389396,2.0078125
-0.06860576802662186,0.013133731303467915,0.01245777889740764,-0.004415118058279322,0.01728468166553451,0.011338464221509475,0.012861470863708412,-1.1444449596367623,-0.014466272336014904,1.2128144087061643,-0.011276521186257969,-0.004611040784709795,0.008769085943803639,-0.04048075935380028,2.015625
-0.0769800683658222,0.014572117007132106,0.01415268002273201,-0.0051287090531030016,0.019565618616291126,0.012537842126512011,0.014318049512029,-1.2839890841200374,-0.01629383184503289,1.3608831574199816,-0.01270927889511975,-0.00514051549767849,0.009997028027431165,-0.04528581794797177,2.0234375
-0.008784335133832512,0.002957728444668706,0.00022887358468997828,0.0006809062147897328,0.0009822475758569083,0.0027690263612133565,0.002434267742556747,-0.1485774382399443,-0.001460173801628845,0.1573167433698208,-0.001052758191330212,-0.0008083784976792021,5.7762227281103226e-05,-0.006042991935854347,2.03125
0.08212290201400581,-0.01253539002057606,-0.018318167709081318,0.008421004621292128,-0.023781866774365563,-0.010253694652074494,-0.013399720475214283,1.3650149227414357,0.018325169319735633,-1.4475388799016498,0.014483116155853168,0.004963599998624199,-0.013195609707727379,0.04625665884069493,2.0390625
0.11504143202398004,-0.018150949966493083,-0.02503083371433798,0.011218800667007945,-0.03274553109423356,-0.014969838776397149,-0.019125973954000255,1.9127258334673247,0.025490710293658566,-2.028981429219321,0.02010763906324691,0.007053704178512925,-0.017994061001824154,0.06520945715779279,2.046875
0.09517467564192511,-0.014769976985195452,-0.020970924409219927,0.00952338976467273,-0.02733416429521836,-0.012125586347414397,-0.015660158549486877,1.5813219729905297,0.021156409584459274,-1.6780381823326014,0.01671303128620133,0.005792179548039827,-0.015093302454541753,0.0537992494958839,2.0546875
0.06348272190344155,-0.009370575039102802,-0.014498894066024962,0.006827457075985855,-0.018708205453709114,-0.007590420522200965,-0.010144022399706895,1.053644394824541,0.014251154526473252,-1.1180621551139,0.01129983728184358,0.0037798239360794634,-0.010469033777889603,0.035568379035800256,2.0625
0.0259131484342693,-0.0029690015817494964,-0.006840380371970574,0.00363451640774846,-0.00848515292819371,-0.002214208594455601,-0.0036079807928895142,0.42891055743238726,0.006088754009282789,-0.4553756696365503,0.004884110718504162,0.0013974005110217686,-0.00499586678622608,0.013955686065624766,2.0703125
-0.012603238240107454,0.003592349827465227,0.0010039542611326596,0.0003578381065655963,0.0019991196925441402,0.003303164348272616,0.003099110078661202,-0.2117419230009686,-0.002274219957082141,0.2231875018359183,-0.0016933738496713296,-0.0010428890051626845,0.0006090995482500003,-0.008179766574405509,2.078125
-0.02033990000170169,0.00490984605692744,0.0025841766011626085,-0.0003023768160719011,0.004108693445867445,0.004417618933362058,0.004450741742371721,-0.34066698736303613,-0.00396318661951183,0.35944542768591187,-0.0030137589402403717,-0.0015327510222966426,0.0017320776526984986,-0.01260618741771619,2.0859375
0.00537695090691525,0.000530738659381564,-0.002645280431002136,0.0018858569143766564,-0.0028896884966098844,0.0007374558388762198,-2.7146010344750054e-05,0.08723205981602801,0.0016127896145674025,-0.09337580416026567,0.0013804099355066324,9.68998175636833e-05,-0.002011506886657493,0.002185920755273415,2.09375
0.014235815357775695,-0.0009744934304830957,-0.004447532375415986,0.0026406367141207643,-0.005299807982326957,-0.000534740577840812,-0.001572944051828923,0.2348344213684982,0.0035408749283941986,-0.24898226402169316,0.0028930678333282016,0.0006573366989217986,-0.0032964115813643377,0.007254138886871705,2.1015625
-0.019989663235505422,0.004859647977218611,0.0025209031696242215,-0.00027379130897660413,0.004028857466865948,0.004366980052365307,0.004388378129480045,-0.33485759795665826,-0.0038824110006159913,0.3545738044724273,-0.0029616823942224327,-0.0015169769070621669,0.0016899107857272372,-0.012480252985351622,2.109375
-0.05182891531597873,0.010286855827500435,0.00900924287416093,-0.002986477422800691,0.01272037926018208,0.008936861244297871,0.00993912582047853,-0.8651785464476061,-0.01079678155822759,0.9159405855216967,-0.008415624932117905,-0.0035445628646605795,0.006321391661661921,-0.0308467367486809,2.1171875
-0.04025958137296192,0.008318797548058808,0.00666053848985271,-0.0020009668619297384,0.009585877439528222,0.007289281703657209,0.007927285760690137,-0.6729108008898449,-0.008294926162329347,0.7121723393481327,-0.00644688199630343,-0.0028169223630493535,0.004629705325285873,-0.024207135341848134,2.125
-0.019042399635220014,0.004703609177321907,0.0023419885443204252,-0.00019113470184131995,0.0037972267250564024,0.004246915684412977,0.0042290114039041215,-0.3198463659597891,-0.003702390374494112,0.3384546832767403,-0.0028127049616059265,-0.0014672954686767506,0.0015418321506609884,-0.011958489447665146,2.1328125
-0.03475327427867761,0.007374088524241728,0.005542014647034057,-0.0015277244558966473,0.008050012397873067,0.0064861877084079885,0.006961895614701154,-0.5814382460475562,-0.00712692496694922,0.6157696913660774,-0.00548250034246128,-0.0024553806875929132,0.003840274795132809,-0.020944238675641807,2.140625
-0.05934892935201593,0.011558321892227545,0.010552631291200964,-0.003625520036738302,0.014738906055635685,0.010005857039291901,0.011246500428758783,-0.9908161120514042,-0.012467009494394873,1.0492881003161831,-0.009684595830405334,-0.0040141683083977885,0.007427587887965151,-0.03509884727850583,2.1484375
-0.031477421859043044,0.006810763866238834,0.004867030479299645,-0.0012560353248144023,0.007157997569880031,0.006019636515988106,0.006393917764571003,-0.5266788715563202,-0.0063937553651807,0.5570087072951841,-0.00493324802884638,-0.0022501450314572837,0.003361665103694006,-0.019106127804848577,2.15625
0.039423289080818325,-0.005264032669490061,-0.009599678494545934,0.004781238915315773,-0.01215038739127632,-0.004133619788289193,-0.005956197764805039,0.6534413235521237,0.009026485108476348,-0.6941415696545555,0.0071801101191907735,0.002250182532353164,-0.006972273740682473,0.021685462894152806,2.1640625
0.07644386459316234,-0.011572726198925137,-0.017163538175877426,0.007935494666529501,-0.02225008006016889,-0.009443163218950489,-0.012407098027870897,1.2693278336647396,0.0170711099759921,-1.3472463451558927,0.013519613470528694,0.004608854969287622,-0.012362308693823144,0.043043627033161995,2.171875
0.04268778016595865,-0.005830033742496288,-0.010285384464069292,0.005062069155987699,-0.013068618226021143,-0.00461502776010554,-0.00653025660048573,0.7078583053044519,0.00973506353056395,-0.7518116896496805,0.007762511520002471,0.0024723991245200966,-0.007441407478041647,0.023665081359476176,2.1796875
-0.007881880796869082,0.0027808546433755205,3.742407121897091e-05,0.0007566338072790945,0.0007145010793679848,0.0026290300393799165,0.0022753134043587845,-0.13239192730212201,-0.0012409446719935412,0.13991534501818229,-0.0008840160700950365,-0.0007421878650978679,-7.971381593251532e-05,-0.005458906439607041,2.1875
-0.01124262479419326,0.0033593862319712896,0.0007383815742956534,0.00047138672590145094,0.001648428810541038,0.0031153819827565423,0.0028603266027576037,-0.18747868875701673,-0.0019594466400176,0.19908471108867679,-0.0014707239142965293,-0.0009644214561530389,0.00040340211100119036,-0.007451531398602475,2.1953125
0.013651207776215313,-0.0008709178212672119,-0.004330699401103933,0.002591147147115675,-0.005125102329622837,-0.00044693191746155336,-0.0014714100969024655,0.2256569061223688,0.0034359847754186395,-0.23937870305172196,0.0027798265237743616,0.0006130623993315653,-0.0032198125979218894,0.006861473116552178,2.203125
0.008712212049038943,-2.3663304628614773e-05,-0.0033258989241895724,0.002169899138473585,-0.0037841940578233063,0.00026149981335991625,-0.0006056700520582828,0.1416057167533733,0.002334426438251663,-0.15143283908718577,0.0019422089588668808,0.00030321143370787176,-0.002492309166357641,0.004065605512620159,2.2109375
-0.015082517914415861,0.00402805100829398,0.0015242992185240866,0.0001432230364667851,0.002696271379388693,0.003669773466531138,0.003540297767855468,-0.25460296649522407,-0.0028413067384364444,0.2683209513300752,-0.0021209061715143853,-0.0012056548471557384,0.0009748278455721075,-0.009601631625043943,2.21875
-0.003161519199554936,0.001991237686599512,-0.0009006142461062453,0.0011569397787680137,-0.0005431948702080748,0.001961571977141999,0.0014624518702497729,-0.05500730119542489,-0.0002293208730543657,0.05759276121761725,-9.032455843446861e-05,-0.00045346968827545846,-0.0007664956128330808,-0.0027898310066775695,2.2265625
0.025983928126608456,-0.0029782618163011775,-0.006837937933483226,0.003636958020779236,-0.008478167384896925,-0.0022143706924556946,-0.0036144435635496967,0.43052774552574036,0.006113778470271801,-0.4564490258180701,0.004883895736749059,0.001392844370675234,-0.005011870019747498,0.013926022285100762,2.234375
0.01581182600386085,-0.0012458645415597447,-0.004773118541672928,0.0027718983455198147,-0.0057176178991393345,-0.0007591722419487387,-0.0018425513248701852,0.26051853340970715,0.0038864435369291876,-0.27671449585803476,0.0031500823920747995,0.0007518516516250076,-0.003525088718422101,0.008097420222679945,2.2421875
0.009262977272536197,-0.00013137229254416916,-0.0034589909761098777,0.0022171655829884,-0.003948538125486849,0.000176395330988749,-0.0007020816124657798,0.1509980522942937,0.0024568233400917116,-0.16180715494111025,0.0020410814152961405,0.0003448962447057589,-0.0025729890383748644,0.004397136786913401,2.25
0.07912203520182623,-0.012038335137902324,-0.017712840921945267,0.008164487562088311,-0.022978720368653616,-0.00983108050547406,-0.012867617721778794,1.3138752853832207,0.01766454653879922,-1.3953437131076838,0.013981815777256355,0.0047807119697287894,-0.012760103132294276,0.04460202569787677,2.2578125
0.1373855627096591,-0.02196728134049947,-0.029578232915972353,0.013121008933029839,-0.03883691606558057,-0.01817371085985098,-0.02301237549996706,2.28382073770017,0.03034609831796277,-2.4232511305220634,0.023931869908096187,0.00847211158650054,-0.02125234399029059,0.07807456291196019,2.265625
0.03418460868003553,-0.004375707378827052,-0.008515602690410526,0.004334667561025778,-0.010718643650269557,-0.00338673142426465,-0.005040767384809861,0.5663711666170078,0.007891636950685352,-0.6013586204343632,0.006290176418261425,0.0019168367613814586,-0.006208423026138619,0.01867540703350382,2.2734375
-0.16343809513022534,0.029309207070386506,0.03178192706618119,-0.012483184598007326,0.04310569129962568,0.024922868893251363,0.029368718631948117,-2.7222366206707953,-0.035101731883928226,2.886072799390206,-0.027481812282767634,-0.01062446390744665,0.022592950013150617,-0.09499947956188345,2.28125
-0.2396181468303791,0.042293989100298884,0.04730492859496401,-0.018962394634127574,0.0638499194770927,0.035836909611330424,0.04262923888072085,-3.9896177189943245,-0.05166882962004394,4.229853826641259,-0.040500477910541,-0.015457630596124079,0.03368878337836813,-0.13882214949031133,2.2890625
-0.1597068129255106,0.02867141715865124,0.03100940790842172,-0.012161865833399918,0.04208817174711433,0.024395568948094522,0.028715062272978945,-2.6599404081611513,-0.034282071660468594,2.8195457316644688,-0.026847621885745784,-0.010389339751049533,0.022036765620130672,-0.0928797088233699,2.296875
-0.07269472367697248,0.01383803354210897,0.0132764205841408,-0.004763570047248921,0.01839514942623302,0.01193420103049418,0.013571113985631005,-1.2128146553455532,-0.015359861435988739,1.2845828333894969,-0.0119788297593778,-0.004870352820269062,0.009360515084795427,-0.04282859087979725,2.3046875
-0.020772982584436904,0.004988790900189722,0.00269157146067583,-0.0003495562517716973,0.004248664081414422,0.0044881989400797784,0.0045341189056931665,-0.34925021262632133,-0.004072213301377828,0.36879690904818574,-0.0031000911271428554,-0.0015715522347339343,0.0018068379973754012,-0.01291720514352374,2.3125
0.07388536270417802,-0.011142669910352392,-0.016619963095507354,0.007710689421795775,-0.021546227200571654,-0.009083932990868527,-0.011955071848909002,1.2268265574300323,0.01652282508231659,-1.3017298399098791,0.013083181169968214,0.004442488165282763,-0.011981683112304107,0.04156958510660612,2.3203125
0.17372390928777806,-0.02815887181644303,-0.03698636169523189,0.016215134626604757,-0.04874320905286745,-0.023387800526789237,-0.029348617993749316,2.889522885827785,0.03825168182629537,-3.0639867264391403,0.030145570773706193,0.010779803524220422,-0.026539118865593618,0.09898815107104708,2.328125
0.16135165495669207,-0.02605051454021224,-0.034462693557871196,0.015163610355767273,-0.04536599546963526,-0.02160797940675216,-0.027193412480601083,2.6835863145929864,0.03556103420096856,-2.845819303914928,0.02802837645158112,0.009991686024071649,-0.02474454012234346,0.09185284304227678,2.3359375
0.07452984130056606,-0.011251849931522066,-0.016759441155474657,0.007771796249422854,-0.021718345842628085,-0.009167869108548264,-0.01206902992382701,1.2375721513935356,0.016661290645670627,-1.3134846884297497,0.01319400757234625,0.004483579701699692,-0.012088863901614521,0.04193505965306709,2.34375
0.047983469628298615,-0.006728143449449399,-0.011356233346764985,0.005514555670532366,-0.014502478304144242,-0.005371040429842038,-0.007448896989466155,0.79554645080691,0.010879163907308401,-0.8449436365411456,0.008666054625199805,0.002805836629859574,-0.008215017150443286,0.026702043886289474,2.3515625
0.07219349477084828,-0.01085719494381887,-0.0162995381553386,0.007580691277869268,-0.021102680000855526,-0.008843584316003187,-0.011673674508545118,1.1997976109782875,0.01615932721026829,-1.2725447086087638,0.012804438287819821,0.0043435743802881,-0.011747913722741372,0.040612728086438836,2.359375
0.041845924319058134,-0.005683445946103887,-0.010100665700967888,0.004996841725553542,-0.012815753673106837,-0.004493051768041621,-0.0063877922353109354,0.6956769960109722,0.009577237113596985,-0.7374000996609666,0.007604247874678842,0.0024088190290565397,-0.007331841612900989,0.023094072536678206,2.3671875
-0.026019600075310397,0.0058897054195758535,0.003756614310360897,-0.0007884277510412746,0.005696288985396644,0.005234142358062266,0.005445110400074976,-0.4349311589069588,-0.005187370227437986,0.4604081345552984,-0.0040087033491162894,-0.0019067499423350066,0.002562989903543398,-0.01597764003102647,2.375
-0.04679335022142739,0.009432908904084962,0.00800031330119981,-0.00256301956078999,0.011354051571147496,0.008212572575649604,0.00907316966138569,-0.7825653907084604,-0.009729899646972434,0.8276617664208269,-0.007556642025220885,-0.00322389027002772,0.005599931577607905,-0.027897144168596198,2.3828125
-0.060799796384505764,0.011815156654644754,0.010854097604252783,-0.0037526493732907775,0.015144712335901972,0.010220254598525358,0.011506698928381834,-1.0160099422912041,-0.012796302818464908,1.075253588664472,-0.009935023379110059,-0.004106890560216348,0.007641859017080244,-0.03591066712685531,2.390625
-0.14640840851822007,0.02640154811457361,0.028314062218309524,-0.011035051339899297,0.03845129676917386,0.022485016115332653,0.02640570403123656,-2.4396490071391,-0.03141503830396693,2.585781714786946,-0.024559396139965956,-0.00954040323167456,0.020111662618625993,-0.0851611188141911,2.3984375
-0.21370310205290483,0.03787350180870578,0.042044583385710134,-0.016764830334326648,0.0568003150748577,0.03212565045650172,0.03812674053173998,-3.5588294673958756,-0.046032794272412234,3.7728013942793712,-0.036073482380149464,-0.013818963416153601,0.029915249593408813,-0.12392364803112463,2.40625
-0.11932952138571087,0.02179360812554826,0.02279696831167465,-0.008735506862984733,0.03112010565340955,0.018608001070806148,0.021698344607110776,-1.9882530357369033,-0.025486609309188328,2.107077584136347,-0.01996285558485166,-0.007835875072630994,0.016160291812133538,-0.06968465553041212,2.4140625
0.06494061826408107,-0.00961276825541301,-0.014796701209354704,0.006952442473219715,-0.019073769313726178,-0.007786234497037898,-0.010395927706627051,1.078461070669899,0.014596017446391224,-1.1445862993230147,0.011527926105357415,0.0038610013928642964,-0.010698026026452154,0.03631118530253337,2.421875
0.1336486889984963,-0.02132901912289978,-0.028823693113411947,0.012808316286448997,-0.037819499784413894,-0.01763008935158726,-0.022373546955864368,2.222154360531169,0.029526476677682732,-2.3566809013256194,0.02328851453159231,0.008231393318703827,-0.020712352978933347,0.07587902409563793,2.4296875
0.06196579471615207,-0.009119654563218737,-0.014209930073659094,0.006708890375592726,-0.01832365192501948,-0.0073693414711951035,-0.009895443296840533,1.0291242530941835,0.013923955615268465,-1.091531626739858,0.011058011928920215,0.0036921725746682514,-0.01025971775778929,0.03470390088139891,2.4375
0.006007774538293208,0.00041321826280732134,-0.0027957714140103367,0.0019408246647929013,-0.0030836575047644035,0.000640246838791487,-0.00014511533089603702,0.09761690883450874,0.0017591281973735262,-0.1043166079385143,0.0014985978291591035,0.00014312320951567422,-0.0020991570050476554,0.0025414940765849476,2.4453125
0.022008284165959017,-0.0023097540172858726,-0.006055032516227993,0.003298920710610962,-0.007424073971158286,-0.0016489568572821323,-0.0029258324095349517,0.36384645234158475,0.005249198197943134,-0.3869746924464259,0.004221529918293576,0.0011526179552283963,-0.004432858750443485,0.011721158142324795,2.453125
0.030889050905158116,-0.003812774699861384,-0.00786208456279221,0.004056893921055849,-0.009832407643768287,-0.002915183171992479,-0.004472097097031518,0.511496958050055,0.007173269045489408,-0.543517685005849,0.005730038011123274,0.0017112679779118624,-0.005729309053007979,0.01679995561563537,2.4609375
0.03115748268000936,-0.0038508724430867136,-0.0079145953474083,0.0040828484337376535,-0.00991061540640093,-0.0029566721797673755,-0.004519019981760692,0.5156394798779522,0.007217442450906503,-0.5478856696651845,0.005780266165611218,0.0017317936668242836,-0.0057631730832091,0.016977838760304672,2.46875
0.08676001490806219,-0.013328911127035265,-0.01925502738754106,0.008814560440702432,-0.025057644406464255,-0.01093174243307878,-0.014199062133728357,1.4412516118865977,0.019318945143407505,-1.5292694716330926,0.015290103833279015,0.0052663229511207615,-0.013860972884246073,0.04901445134540277,2.4765625
0.1307970061864295,-0.020839991786677305,-0.028233125171992,0.012559497926992257,-0.03703813776328367,-0.017242304304116694,-0.02186528206087983,2.1751286981518883,0.028921836917470835,-2.3069914035681065,0.02281069722564227,0.008057589413101574,-0.020283122509258174,0.074338986005013,2.484375
0.04257516875178246,-0.0058056524849284825,-0.010228571998947243,0.005048827150470229,-0.012992880504633958,-0.00459398242652268,-0.006501755470190576,0.7072750513756803,0.009737200447682037,-0.7502072756915803,0.007720698343553836,0.002447750424455366,-0.007434780365861521,0.02351589776208263,2.4921875
-0.11154559297707144,0.020464290137311502,0.02121478259986952,-0.00806843348582739,0.028983760684215647,0.01749471827268255,0.020337676264405958,-1.858806602871995,-0.02381156979201468,1.9702685182770951,-0.018620150266649826,-0.00733795203639362,0.015024580669426246,-0.06517940992716242,2.5
-0.15790515635231947,0.028366397436335528,0.030664795260868235,-0.012012971270256039,0.04159830135283783,0.024135965318608336,0.02841194399360221,-2.6315974319334647,-0.033916068436937334,2.7888256026618397,-0.026532375460101783,-0.010274278580949597,0.021784684745468012,-0.09180256383260457,2.5078125
-0.08676589768227708,0.016239075602918512,0.016141919494140084,-0.005957858246927,0.022220274997727166,0.013939772237232372,0.01602295934035974,-1.4473360401213307,-0.018431631505879724,1.5330400922947574,-0.014371827721651537,-0.005755243606644971,0.011417664551218683,-0.05084757363326041,2.515625
-0.02307939499345736,0.005382037875151797,0.003150102580741697,-0.0005388909727650508,0.004884115764919743,0.00481474417170047,0.004930008834943761,-0.38620928125643766,-0.004557961868414573,0.4088125145254782,-0.0035000181427407118,-0.0017181976067670995,0.002135216306364275,-0.014267059271672142,2.5234375
-0.0025149688275579976,0.0018773535174430437,-0.0010370089962511838,0.001209920130138167,-0.0007153693865071202,0.0018694415011951846,0.0013470691629224691,-0.04374081585506556,-8.481763133523309e-05,0.04633493388765115,6.103972663120625e-06,-0.000417076816729847,-0.0008574465683202376,-0.0024964428050792496,2.53125
0.021786912231324947,-0.002262555910994826,-0.005998293552623004,0.0032795632879541697,-0.0073487589751486705,-0.0016133649553928724,-0.0028855495900568205,0.35980609480044246,0.0051863922837039585,-0.3820859992613853,0.004167998288688666,0.0011312890562589811,-0.004393430415182209,0.011515797857822268,2.5390625
0.04252096465819584,-0.005794626960258358,-0.010244860896829739,0.00504691521040834,-0.013008339887496041,-0.0045838885639819665,-0.0064965693395223146,0.7043181839983791,0.009692946392312092,-0.748423369467692,0.007722444657112472,0.002455236382236602,-0.00741751040545929,0.023506657222078453,2.546875
0.03373215184670102,-0.004296409542134595,-0.008456293834796623,0.004298965548126464,-0.010611125445330397,-0.003320268537754742,-0.00496539945442493,0.5583624310035087,0.007792232510413023,-0.5941029189320476,0.006217963934219691,0.0018961879909152241,-0.006145184379555545,0.01844672283163397,2.5546875
0.023431623647850418,-0.002542990654751538,-0.006337422342443425,0.0034205306714097283,-0.007798203000331705,-0.0018417487128205494,-0.0031701878896169683,0.38735088537556217,0.005558279195635337,-0.4124606503455046,0.0044521803887027445,0.0012366796924804262,-0.004648353862366225,0.012492257268387439,2.5625
0.019725478012341983,-0.0019154308328643871,-0.00556906704521137,0.0031065370646243943,-0.006792616107081832,-0.0013171453121232281,-0.0025261712366613774,0.32593097684968175,0.0047483152530796964,-0.34671333778705,0.0038263650397093473,0.0010025610406714854,-0.0041060000292394505,0.010395628981154537,2.5703125
-0.01821780620612465,0.004548522808990949,0.0021602996618746545,-0.00011807004222728792,0.003533896842877712,0.004108964761432808,0.004075905742953873,-0.3049471592616101,-0.0035055354917911657,0.3229369547190454,-0.002646061896127005,-0.0014000269963482528,0.001425215967775204,-0.011375560973421248,2.578125
-0.07208632038098273,0.013730172456673878,0.013137863197862726,-0.004700785614900961,0.01820921420552099,0.011825849572609962,0.013452863117187944,-1.2007409270153353,-0.015214517143006968,1.2733411297594661,-0.011853588421467698,-0.004819880881506132,0.009272614963189523,-0.04238489418925075,2.5859375
-0.062452743605364076,0.012090934029540151,0.011182649185089003,-0.0038840849817509604,0.015596460001843815,0.010454758664999156,0.011778406470879587,-1.040554854664804,-0.013116408048406622,1.1034083075258312,-0.01021874143483509,-0.004215301904116502,0.007866036873768184,-0.036910094800464685,2.59375
0.014838314947551725,-0.0010793994239036689,-0.004570402999248777,0.002690345252999935,-0.005452571108795444,-0.0006124466106226668,-0.0016747064708744043,0.24464620520241956,0.0036824810101767575,-0.2600842137270714,0.002986094190993245,0.0006887177325645574,-0.003393624480036514,0.007544960301890611,2.6015625
0.07841293356804487,-0.011911597712487157,-0.017544064339752835,0.008100567361596634,-0.02277607604530519,-0.0097242150004268,-0.0127434369668711,1.3017751001097129,0.01749645073060163,-1.381569273606724,0.013856389449104365,0.004729764724390026,-0.012649222942118959,0.044167438539395434,2.609375
0.08442241073628504,-0.01293220073220299,-0.018780801669859046,0.008612316767204342,-0.024414452207271713,-0.010590031318280126,-0.013792042761308573,1.4019759820766249,0.01880687388179486,-1.4875919608600912,0.014883742798897369,0.005113874377764022,-0.013519646023006187,0.047635794611751485,2.6171875
0.05046508919009129,-0.007142294656207205,-0.011848679020099563,0.005720113379321028,-0.015151645948070348,-0.005722520775300151,-0.007878000803371825,0.8374855261458933,0.011434552896890967,-0.8886190652951086,0.009068923919944119,0.002951780901273263,-0.008574126704480132,0.02804604998585077,2.625
-0.003079905998206211,0.001983651704798759,-0.0009142750365576596,0.0011595414619017237,-0.0005535863790905447,0.0019539930925177424,0.0014525975739595497,-0.05382929176872171,-0.00021238018291949576,0.05609953412187356,-9.267448510176032e-05,-0.00045387649120332165,-0.0007751411510673254,-0.002798054410299247,2.6328125
-0.044411900805690976,0.009025828115643678,0.007512163054708293,-0.0023592088198761234,0.010696429485221549,0.007874135975858612,0.008654584781438936,-0.742772593241643,-0.009220368311749947,0.7856337603799269,-0.0071511073706904665,-0.0030734927278277253,0.005251531672472979,-0.02654133753335952,2.640625
-0.03082148913975123,0.006705102495731765,0.004721769561111231,-0.0011995088893757444,0.006969579410319189,0.005919985840680643,0.006282672197974006,-0.5170696198636195,-0.006273776341830623,0.5460608309220616,-0.00481122518908206,-0.002200165669089826,0.0032767697238681713,-0.018660735084854954,2.6484375
0.015768895603081937,-0.0012406132353329014,-0.004789186755128411,0.002770620583775664,-0.005732940340725052,-0.0007584575397160772,-0.0018412886861269824,0.2594324339327191,0.003876513764401822,-0.27624113853932064,0.003159853797760505,0.0007605640357251195,-0.0035163975924731015,0.008145411542021093,2.65625
0.017993112663138466,-0.0016216380006943358,-0.0052312682536993045,0.0029623662257356274,-0.006322123241920217,-0.0010733401582793348,-0.0022320731157483118,0.2980154572115653,0.004384502509927832,-0.31603458063648604,0.0035302882874439674,0.0008941044850362754,-0.003852446708316505,0.009367962009874862,2.6640625
-0.03388299509254111,0.00722188554277316,0.0053632456397692,-0.0014542712897520277,0.007829996964187073,0.006364471079487165,0.006808885668468931,-0.5652203340004528,-0.0068962765511102935,0.5989981911519986,-0.0053470299636538465,-0.002405695304342039,0.0036999581750992066,-0.020502523072829928,2.671875
-0.0657995512483628,0.0126630871538214,0.011871258134986087,-0.0041725485386750714,0.016519415060957637,0.010938864695066691,0.01237314145003093,-1.0976342323425567,-0.013857365536226232,1.1623022069250335,-0.01079584218622002,-0.004428240989764223,0.008353223775021802,-0.03881187097261087,2.6796875
-0.04388167869962853,0.008925826995223079,0.007389895629067355,-0.0023058783150588843,0.010526321412329181,0.007797099670184463,0.008552177758810035,-0.7335186621502899,-0.009103565762048595,0.7758338419210977,-0.007035130233472366,-0.003029661537817432,0.005163306007446566,-0.026146978194958745,2.6875
-0.012054272005429757,0.003500131896150331,0.0008969949917619761,0.0004048305574892617,0.0018510508328913764,0.003235631282020919,0.0030022997045409594,-0.203017231957789,-0.002171982656069503,0.21432270756475041,-0.0015953945809110443,-0.001010073553341863,0.0005257439640414791,-0.007864411003639226,2.6953125
-0.0006521486605378921,0.0015591800278323055,-0.001417310230470323,0.0013735786559550744,-0.0012327201247227105,0.0016017652498016865,0.0010174392402290333,-0.012176200560171237,0.00032754185098155095,0.013044245527326715,0.00033717024331596473,-0.0002947873727289936,-0.0011363927330840917,-0.0013797331264077807,2.703125
0.007593044171370933,0.00015655185849958221,-0.003092865147980054,0.0020726093550452697,-0.0034590268130340364,0.00042018453654318254,-0.00041349061817973047,0.12532190909616286,0.002131256977032536,-0.13256692919318636,0.0017359300253647688,0.00022357337910929967,-0.0023377321960577273,0.0033393753537423808,2.7109375
0.02206848826721988,-0.0023109846395618864,-0.006056792926018527,0.003306743917398963,-0.00741229592979497,-0.0016552733965537318,-0.002936918700548055,0.3660104204017628,0.005275321931541824,-0.38805136730134376,0.00421772733222179,0.001147301353677691,-0.004447185239321414,0.011707455137829503,2.71875
0.02992879399644842,-0.0036513276511263085,-0.007676260782679819,0.003980503302655087,-0.009580886221081069,-0.0027833138185247427,-0.0043129012507903495,0.496360374795185,0.006970473975511709,-0.5266150446378035,0.005575118953374494,0.0016554087462996117,-0.005590452610666711,0.016271793221835446,2.7265625
0.02870430801912296,-0.0034400994458360186,-0.007425713234041812,0.0038748329903225114,-0.009259039033495415,-0.0026073928216371104,-0.004096734134829108,0.4748989227300013,0.006686105729988763,-0.5046659911083353,0.005369114655366435,0.0015813824988224357,-0.005405107943623573,0.015577047503453626,2.734375
0.025766556976308558,-0.0029357268747461415,-0.006808304998964994,0.003616216000863149,-0.00844413509845779,-0.0021824796210409394,-0.003571537019223995,0.42479468794197417,0.006035684472593528,-0.4525457136451974,0.004857011308118287,0.001389773229409158,-0.004970518584631513,0.013870657070955934,2.7421875
0.022653419200770655,-0.0024036846214595007,-0.0061588392889112865,0.003345853093743924,-0.007576186387715812,-0.0017318585904526668,-0.0030219819602099133,0.37286638442752235,0.005360031865473708,-0.39755630709932016,0.004312483385423406,0.0011842030691819874,-0.004517310859621663,0.012046923914254028,2.75
0.02091458865982237,-0.0021075467067315583,-0.005807403334419712,0.0032019145359136773,-0.007100781195869125,-0.0014821240053081027,-0.002725797067957362,0.3447186743527101,0.0049869238620043905,-0.36683384024351723,0.004013687748484321,0.00107233681139322,-0.00426809732704243,0.011029035520810082,2.7578125
0.01972880470174544,-0.0019065290687586966,-0.005579234897606929,0.0031076446326955775,-0.006791915420305809,-0.00131679463426249,-0.002527543063888309,0.3253167776171276,0.004728485560894633,-0.3458810649546996,0.0038229264335067456,0.0010039999076798638,-0.004096580455183028,0.010386038782713596,2.765625
0.006355138957507218,0.000368747048466464,-0.0028609334342695825,0.0019701118986868724,-0.0031566748166651664,0.0005932253599242491,-0.00019757363619282684,0.1026321838666497,0.0018251089552536249,-0.1102907872676557,0.0015489283701703902,0.0001614429897291571,-0.00214836561638528,0.002753585767137735,2.7734375
-0.0220111190870272,0.00519692944102922,0.002926681533782737,-0.00044751216645669896,0.004580110524996389,0.004654746399707988,0.004746311154199331,-0.3688537355741717,-0.0043240830556228,0.3895753488132778,-0.0033017992287654673,-0.0016421100084414257,0.0019804213163362107,-0.013571435467166552,2.78125
-0.04095130222877102,0.008422471909416132,0.006799493454728884,-0.0020602250855440026,0.009751593724722856,0.007370576195847053,0.008043130697510227,-0.6831501130764684,-0.00843036107585895,0.7237408212398085,-0.006549246415517302,-0.0028522880761827876,0.004735972074984377,-0.024535052890654982,2.7890625
-0.033977144215073904,0.0072380457106495065,0.005382180287000991,-0.0014638994955033478,0.007848615190009395,0.006374911614298818,0.006824857659634586,-0.5672953182001793,-0.0069274174553201505,0.6013271885491094,-0.005358207864649978,-0.0024110688474832114,0.0037212629453130222,-0.020544643579924853,2.796875
-0.020873685902696313,0.005009027696921759,0.0027012103819169337,-0.0003462837784467942,0.00426825103907031,0.004498671990068122,0.004542325317387236,-0.35002370238231156,-0.004092956936839205,0.3702335423011229,-0.003111163719993813,-0.0015736467681824935,0.001813445309507119,-0.012959852018235319,2.8046875
-0.021151876416704254,0.005054272395837079,0.0027468955838027844,-0.0003695535145605025,0.004344452662158659,0.004537889796300784,0.004590320602052103,-0.35422029215085543,-0.004139468116654005,0.37435680856216236,-0.003158640799336367,-0.0015892144201623889,0.0018487916225957367,-0.013106520295757752,2.8125
-0.021097545717824975,0.005040255003889622,0.002740026196240037,-0.00036541433503314526,0.004338315990771778,0.004530318861442402,0.0045773929017045665,-0.3520103555663238,-0.00410577641944088,0.37303068874669004,-0.0031571711997010394,-0.00159069060140712,0.0018361585998896506,-0.013128964354484117,2.8203125
-0.006932503702751096,0.00262585548664736,-0.00013739390467479426,0.0008396708133942281,0.0004766233018559613,0.0025014424800180214,0.002107757375376736,-0.1161624023591987,-0.0010327694525521548,0.1238255817933085,-0.0007363121170304054,-0.0006936177387490921,-0.00022270699420565544,-0.005006311023297411,2.828125
0.00512541144409023,0.0005746107535980476,-0.0026019610393488725,0.0018658224036777673,-0.0028221208641082732,0.0007734575913861923,9.046100615391488e-06,0.08327261355168601,0.0015660649521434752,-0.0883128191509114,0.0013327640555220767,7.764395519238029e-05,-0.0019712416207757107,0.001968768032017418,2.8359375
0.0031834339996044403,0.0009093995621967294,-0.002221428331300059,0.0017005073960264618,-0.002294508783803149,0.00105295843334874,0.0003511695747391352,0.05008908628112103,0.0011398460221060229,-0.05438927016183673,0.0010002978369329266,-4.167356923965919e-05,-0.001688270800818109,0.0008667543148081091,2.84375
0.0069074798909324765,0.00027912304356446924,-0.0029726878211072433,0.002015745398508542,-0.0032919037984702787,0.0005245675429702045,-0.0002913060543491354,0.11190244186735585,0.0019558116175069735,-0.12038280647195715,0.001625179930458033,0.0001891835010031157,-0.0022352281162224806,0.002969853493029879,2.8515625
0.030226665076130057,-0.0036900333346820764,-0.007697385948935676,0.003996871413261918,-0.009634103710359417,-0.0028130799724146024,-0.004345154702496913,0.4994418636008986,0.007013066112070511,-0.5312382642036533,0.005607399179682534,0.001663384401435122,-0.005629673046743884,0.01638600349201788,2.859375
0.050494452266052266,-0.007144744162495614,-0.011820762498890436,0.005720022130862133,-0.01516778658335734,-0.005722495769201154,-0.007872778316318246,0.8361414290531842,0.011401185461783288,-0.8883496977411671,0.009083436534092834,0.0029536976052288617,-0.008574295098278143,0.02812322211156678,2.8671875
0.04415904979399508,-0.006074308486605354,-0.010555442812540505,0.005182969203946599,-0.013456717538586533,-0.004825029231751846,-0.006776517851440839,0.7314961986625858,0.010035389315964639,-0.7771837096878221,0.008008956457194199,0.0025585435634895197,-0.007650800370463876,0.02452560459925924,2.875
0.021714304801260693,-0.0022582602912580344,-0.006002462651040357,0.0032753009087941607,-0.007336156725943383,-0.0016125790473511268,-0.0028757909125451927,0.3597340701650011,0.005189088873734172,-0.3821896226493043,0.004164163292843292,0.0011322268482567672,-0.004389714818475971,0.011561638920801424,2.8828125
0.0037030171663584976,0.0008121467771462969,-0.0023229979108961114,0.0017417088523552203,-0.002413951661024674,0.0009733256131939055,0.00026152845018263815,0.06057069173863506,0.001285788155711408,-0.06456311784203621,0.001074976517775708,-1.752044412506514e-05,-0.0017712765445685966,0.001136208854861942,2.890625
-0.007523276249004008,0.0027323448419188266,-2.0269607547461208e-05,0.0007849618839549398,0.0006421225779242331,0.002585732294766966,0.0022214793534418346,-0.1274317046054556,-0.0011744323896523883,0.13422821539251395,-0.0008380692336471585,-0.0007289793745221528,-0.00013095447901238913,-0.005305126314771459,2.8984375
-0.015963286413784923,0.004173149564120314,0.0016952025274950139,6.869539923059103e-05,0.0029224191506056147,0.003792321442476223,0.00368956903526472,-0.2689260507177254,-0.0030285876751609685,0.28379295782221303,-0.0022656923677930197,-0.0012566767893617803,0.0011056908526635018,-0.010109352644621896,2.90625
-0.021555343725650898,0.005122587771638267,0.002826125977537982,-0.0004041338214804054,0.004437696612639236,0.004591253951344266,0.004656473122366248,-0.3614882683526855,-0.0042391704233479014,0.3824845988481,-0.0032186652408727453,-0.001609739224011995,0.001919409127825394,-0.013337820101796396,2.9140625
-0.03089061831037076,0.006711384682824516,0.0047391036183467294,-0.0011991156952001678,0.006995979621535306,0.005933591163482369,0.00628118095284364,-0.5158832503761991,-0.006253602417513638,0.5468937524634718,-0.004826977524333887,-0.0022109015656201774,0.003271789825322493,-0.018777627575475183,2.921875
-0.04792629709253648,0.009617650952063309,0.008230073456763565,-0.0026518190830033847,0.011655221647717076,0.008381944388316069,0.00925523214580151,-0.7996679161164263,-0.009958654296549447,0.8474006171153784,-0.0077489637157474945,-0.0033003242922218868,0.00574859363514978,-0.02861407425724472,2.9296875
-0.052581021452365775,0.010415072773958063,0.009179932705776007,-0.00304838561994214,0.012921730480351345,0.009050496836691105,0.01007178589449553,-0.8783942775239508,-0.010988860063532438,0.9297519351815908,-0.00853951232898132,-0.003593252946547995,0.006428833903055068,-0.031247813163403495,2.9375
-0.023823867354223007,0.005514852347827861,0.003300972604171302,-0.0005987596895957187,0.005072017681630728,0.004924952174237773,0.005061700129266595,-0.40027048739134363,-0.004745914734808724,0.42237655059722923,-0.0036136131849837283,-0.001759248055966403,0.002244128715220256,-0.014637303639310623,2.9453125
0.019178789845834977,-0.0018164691113944937,-0.005476493259250585,0.00306168824695492,-0.00664689003235549,-0.0012419316881302925,-0.0024321209979076665,0.3165421491218011,0.004620051201646544,-0.3368609889867369,0.0037355229206641814,0.0009731033309017353,-0.004019960254074262,0.010108173709335498,2.953125
0.03751665382804354,-0.004944191044094165,-0.009207091376048662,0.00462020932603717,-0.011626409312062927,-0.0038703721509920942,-0.005625666048433741,0.6232685930805829,0.008632484245241259,-0.6610157093150083,0.006857567859881452,0.0021310829481500488,-0.006695414132602392,0.020609130276005614,2.9609375
0.02929274524150266,-0.0035427234792047347,-0.007518121438016706,0.0039188830817373085,-0.009372859477432688,-0.0026911052880646542,-0.004189617664071597,0.4867351048552359,0.006849720002369096,-0.5160364557250461,0.005446471374570058,0.0016043511082717747,-0.005500054203895655,0.015861372317243036,2.96875
0.022886810017818622,-0.002450163569097133,-0.006216182200506409,0.003375509291588307,-0.007641346710512031,-0.001774903706722187,-0.0030740691124734026,0.3791800955078763,0.005439211626063124,-0.4026468121274182,0.004362861080533233,0.001202928162197451,-0.004563607852893165,0.012226884742033355,2.9765625
0.023553857045172127,-0.002565034893765374,-0.0063693463345143655,0.00343485701527357,-0.007851744643419055,-0.0018733044582570516,-0.0031962299678872166,0.3892721631977846,0.005567230439436681,-0.413954198146729,0.004491046379793339,0.0012542843899498181,-0.004654233462848507,0.012649871639189783,2.984375
0.014058391374914403,-0.0009493095659270155,-0.004438250203977824,0.0026259012261493717,-0.00527355108735281,-0.0005109744204558725,-0.001546301346466881,0.2309599650113244,0.0035015097758566384,-0.2460703429412848,0.002866438337859751,0.0006514258974761256,-0.003267842145766447,0.007143273921285674,2.9921875
-0.00044373445522067934,0.0015227101313131746,-0.0014633686685381652,0.0013874304753030643,-0.001300522958793628,0.001574285013644074,0.0009844507491168439,-0.01027649074927367,0.00035388531102457005,0.010030322488324937,0.0003727664877081974,-0.000279398765876042,-0.0011578961511181038,-0.0012752861084793722,3.0
0.0030209706613839203,0.0009373021970601364,-0.0021516245306885304,0.0016797034579890987,-0.002220435692116805,0.0010839994994989795,0.0003885740082543614,0.04737911337721907,0.0011066370793683233,-0.051038736004557266,0.0009554193176231285,-6.709846700516582e-05,-0.0016667585202298294,0.000704845511680649,3.0078125
0.01970420464787994,-0.001901472863347949,-0.005560573494878477,0.0031026556869212553,-0.0067694885595676385,-0.0013076537232524126,-0.00251834708292406,0.32499513716828227,0.004729397140923141,-0.3455681910151746,0.0038126122905847446,0.000995981717045326,-0.004098437178659949,0.010354532316841986,3.015625
0.020179071340743367,-0.001984517833803362,-0.005681895590177277,0.003148660759386077,-0.006922871727676561,-0.0013825506176677021,-0.0026097793648930646,0.3331111406441159,0.004832947861453274,-0.3543159221839443,0.003906704053346191,0.0010361948831225612,-0.004166964055922841,0.010678919974083234,3.0234375
-0.0028555181978732777,0.001934238314239505,-0.000995800552493128,0.0011888603000786366,-0.0006590130071856325,0.0019122706102498504,0.0013992073994779993,-0.049926029973281834,-0.00016853165472547295,0.051721822123394885,-2.395622216406203e-05,-0.00042175200125690816,-0.0008110423931387239,-0.0025592825813289415,3.03125
-0.027069350544017337,0.006057539258093782,0.003957076085917726,-0.0008777901725671665,0.005953169142793618,0.005381735409844579,0.005624266531764618,-0.45277154129025204,-0.005426120452829475,0.47885659932401026,-0.004169385094270178,-0.0019647135414540802,0.0027168640412353457,-0.016515563029550352,3.0390625
