AF3,AF4,F3,F4,F7,F8,FC5,FC6,O1,O2,P7,P8,T7,T8,time
-0.3726161758203586,1.185092545141304,0.775510326630849,-1.5313145602863258,-0.0751549581624625,-0.4974235812027598,0.06943790953268394,1.7232974525448301,-2.3405476447397215,-1.0806678221108224,1.3971106600112408,0.876119045458714,0.1584900696100374,-0.28908695362333464,0.0
-0.12611800898506054,0.839310067686966,-1.5223958465066842,0.06585294180766539,-0.04779617623278976,-0.7646693651204021,0.6362021291177191,2.400090498861357,-0.7972977905667757,0.6215020386552711,-0.7006277282824968,-0.2621697221934066,-0.1993249942729041,-0.14398705113382995,0.0078125
0.5956436148353755,-2.437704754625839,0.14747472440083115,0.038378466820353944,-0.08382710690441074,-0.16980739171506493,1.9425882367189669,0.6577765627907256,0.322539690351401,2.699116078422439,-2.5949539819530827,-1.5603663752005636,0.0992501981528035,0.3442575369800413,0.015625
0.7853882968486796,-3.5959777495152427,2.4937290462710417,-0.8738177743474173,-0.06751065202963842,0.4187404518820922,1.4251900485156486,-0.6073301498826938,0.757016656714941,2.505067916022917,-1.5572571885951565,-1.5672675389600303,-0.5896194814641605,0.47582982163427073,0.0234375
0.4201046320426658,-1.481223362243369,1.2592910444926098,-0.46847547261517836,0.044572117852722776,0.2156639044280691,-0.40556256680268465,0.10260573762977625,0.7092297755019694,0.7289998429216857,-0.41462168490137474,-0.541712202148113,-0.28872478382740513,0.1223513855480948,0.03125
0.27523277112097605,-0.43074486551721786,-1.226893185680141,1.0153179980179068,0.07667725543506701,-0.08985993326655688,-0.4825407594970766,0.23508165151146246,0.44304637658786367,-0.22508862255840478,-1.2971249344478646,0.16661019713733294,1.6347345258613524,-0.09319061472446614,0.0390625
0.39334629991657044,-1.732105632210888,-1.0433932649471285,1.6110851143094502,-0.04110162242768082,0.197926703385067,1.082012308752384,-1.215406412077292,0.8070037520523604,-0.5445367241863837,-1.4387713323008846,0.36866825109808915,1.5451831752842402,0.009748424961474024,0.046875
0.18379521749248337,-1.741553520410448,0.36387633615521997,1.022449767041246,-0.11114455203149978,0.5052276130690081,1.2608034083982582,-1.8104433889455063,2.02532964349659,-1.6516861725145595,0.6441663871919981,0.7916071300670016,-1.472305436789064,-0.011328464713320774,0.0546875
-0.3555568204118109,0.8244010406750283,-0.1419866433832208,0.750483069641277,-0.017316415600747165,0.3709748523146454,-0.46415255288352847,-1.0938697176386076,2.402437027086457,-2.380280949271404,2.434258504919866,1.056048150595395,-3.202590268608915,-0.18392117071653652,0.0625
-0.7314663982621327,3.0676031978691456,-1.5910862421453618,1.1838406600223341,0.07892249906373675,0.2987656187196215,-1.7194135874210925,-1.2280397089298831,0.49821189471038996,-0.8435800306374973,2.8279637373360997,0.20920854162800487,-1.9601581772076768,-0.09112492744868722,0.0703125
-0.8667730908959113,3.582011483911317,-1.6234037939956403,0.9401511082882017,0.04602014003162916,0.344119724107966,-1.3841117007810888,-1.742824079138511,-2.1331925728502092,1.3768611335198258,2.928674658454431,-0.9426082011074072,-0.6931885276049303,0.16842493187777244,0.078125
-0.9354655775746603,3.6131358120838515,-0.7888717433419322,-0.5344683602622214,-0.015297008935058004,-0.15412559762914257,-0.38499187244169003,-0.363884271895161,-2.76241577998858,1.2903272895394964,1.868580394258121,-0.6458706692067924,-0.3042176320530542,0.11744452748850673,0.0859375
-0.6985396862830594,2.9276427752408787,-0.37844005880184634,-1.7417896184026072,0.010593390519483622,-0.8692788958157948,0.336889357772516,1.6535687965157753,-1.2188854234386022,-0.370762107159867,-1.2506120248598662,0.6238017420462926,1.1056031259550323,-0.13061950503396477,0.09375
0.0804300838787156,0.3466962569930593,0.1406685130631928,-1.3656481589416158,0.09693167367329189,-0.6759887880633991,0.09586282491542981,1.5312500075266513,0.3831352712000239,-0.37072271627024694,-3.5035365348973224,0.6068209139893799,2.718105288007067,-0.08490895560545263,0.1015625
0.8671422701066773,-2.352463788950686,1.0193488583513144,-0.29756512507087746,0.1664052947819079,0.15264138292753876,-1.2360971461482098,0.5441612946009593,0.657581433642605,1.4349099854862044,-2.3680498183304,-0.8568810052098407,2.118232388681024,0.15056894329739795,0.109375
0.9029171533593828,-2.5283207921481927,1.3747066311662337,-0.3336682294443212,0.13052818154515372,0.2176525785867148,-1.7351100040061749,1.3652751483892087,-0.13555297522330473,2.016227918445,-0.34095168682784965,-1.3995061042211225,0.3562137071828743,0.11025962081590941,0.1171875
0.3668856773304803,-1.4638710066568825,1.444799318706471,-1.4583387741774743,-0.06265699600188497,-0.43938504167848474,0.5062335712841161,2.410954822301803,-0.9854528233798436,0.4175956617739259,-0.3589447722417425,-0.14020488128442837,-0.13316034068591417,-0.10399206111668863,0.125
0.12444571628226896,-1.932957992088153,1.8514697060075147,-1.6182472437327324,-0.2546426245234744,-0.4110502480218863,3.201235839891711,0.8486772907043789,-0.6961858242018698,-1.052491737664967,-0.9535371439108309,0.9600650675874739,0.007052272214540001,-0.07398297083867104,0.1328125
0.35142209276292313,-2.821800930338231,1.3088255218059304,0.28710325977495577,-0.19963215666994844,0.41737303545224025,2.4028237793471714,-1.5813192755847172,0.9009461490384728,-1.0691286362213956,0.08618696229161496,0.6176885327860757,-0.7709609503881021,0.07022273190915078,0.140625
0.34404960609910407,-1.4242469328319916,-0.8186024489561191,2.2433691364121295,0.011366221261595717,0.6727020482940105,-0.6628037047777546,-1.4562828085402348,1.9152776900725226,-0.9316291691458298,1.6530310391553045,0.12093010359896324,-1.6040009486035216,-0.06303277183981831,0.1484375
-0.1682877074302431,1.0463946190509112,-1.904954981081858,1.691498197661358,0.04387692736450625,0.027120769118112738,-1.2244119344681839,0.2590229902308756,0.7954770741815561,-1.484912066091708,1.8136060475298017,0.6210361556538891,-1.2106616165579354,-0.30425987028893153,0.15625
-0.533112537319088,1.6211575669549425,-0.49882658870438734,-0.3552246030129647,-0.0802555670855128,-0.3610352242190598,0.684005324256208,0.3431870438184742,-0.7760257231808052,-1.6201933084855125,0.6901007247256885,1.1444168450259407,-0.027637443828361627,-0.22953860144352708,0.1640625
-0.3283515746224139,0.9297411734721672,0.25217204172612634,-0.6061751640689764,-0.02053158511087232,-0.044980965362530864,0.6148873454684408,-0.8930304105443241,-0.4405633340105892,-0.494777955660776,-0.5953270295020426,0.5173988173295639,1.0633805780058883,0.047506063147919844,0.171875
-0.04354092113603215,1.2975083497572404,-1.639953433512829,1.150696715541779,0.19906921439294706,0.1832291573415144,-1.7212949779683753,-0.954278539976653,0.7030199862196415,1.0737037670820404,-1.1097219184459328,-0.7115656078190182,1.4247667171353529,0.1491267342151759,0.1796875
-0.141193823550706,2.0512733567570938,-2.6943386597391417,1.717495034682037,0.2127919585338559,0.042469808198554296,-2.225419295394841,-0.13999619563491641,0.31844273302402193,1.905127086585272,-0.3465885226977005,-1.333676499606707,0.5049374509422857,0.12799922073171408,0.1875
-0.270179544104205,1.2527009250665389,-0.35826805469849626,0.06839014194516767,0.031527245927364174,0.12620038632217395,-0.5326589336436366,-0.43382115809385935,-0.6945615791745833,1.7317146992965113,0.7944299420706271,-1.1293224397802943,-0.8039136322077876,0.21623270907863643,0.1953125
0.01167249000456712,-0.44283770009266293,1.9449599218091747,-1.0541304454609823,-0.0009871726619046,0.4494832183203599,-0.0973738155301992,-1.2036160221020356,-0.24662891863188954,1.0713668735343245,0.6554802358052996,-0.6943826384209034,-0.6755074445775363,0.2815976641342123,0.203125
0.3551137129686947,-1.184832704937012,1.0788720062560062,-0.29822148817489114,0.06811286574205176,0.2987823775357909,-0.5922192503411567,-0.45328844377160715,0.6579369188750477,0.4638546784188914,-0.5186092300246625,-0.34467154905282343,0.34625377247623973,0.12303553913547839,0.2109375
0.14528955206957977,-0.7901519890583472,-0.4540299601397823,0.12167816434778375,-0.08963673520262948,-0.3699017206924209,1.300305124136397,1.0654599561385405,0.08039467939857148,-0.10869453745671323,-0.933453235945666,0.15245134598634705,-0.04086670877422875,-0.07874217256813015,0.21875
-0.3853448129806484,-0.19136557270600643,0.13661787962257793,-0.9268348000999087,-0.3373830782693897,-0.7108214853213579,4.062229242548929,1.1038527328601107,-0.9187504772787333,-0.7819854020678997,-0.31672581570268593,0.7710385292907773,-1.4183305886385735,-0.08694826972707072,0.2265625
-0.34543176848863166,-0.2589166174465602,1.2265248376290263,-1.2953452752367611,-0.2561713571683867,-0.2922558482964264,2.95932694703797,0.044823999708197775,-0.5493342293202396,-1.0763850188360118,0.2829446461938449,0.866412136615666,-1.280090753635262,-0.02735686632154451,0.234375
0.40290195450235683,-1.4188530452794725,1.0136255625997164,0.011338357574907474,0.04514968637859838,0.302264331424815,-1.0087051059588765,0.04214822348535765,0.2196049372767303,-0.7186164529346397,0.8240009676710742,0.301092927244027,0.0967001646107833,-0.11365570876276056,0.2421875
0.8227998710511577,-2.3608804003302124,0.6589628850794378,0.7010279936099394,0.11659996660091702,0.3491201366953922,-2.304415506694279,1.0166002226741855,-0.0747605863194319,-0.5550406570306533,1.3342100669333492,0.06607929972586488,0.48300487076290677,-0.2537146078262633,0.25
0.222820518101425,-0.8013811945450768,0.724767592609817,-0.3723725923507509,0.0007355535760043691,-0.050960112171621864,-0.4974568124516966,0.8897933550224076,-0.5034512958677343,-0.9412540495891084,0.6496715359930312,0.5717444161104293,0.3160444459334461,-0.2083118962183305,0.2578125
-0.5648831234689313,2.3705451533580364,-0.10030543225497196,-0.9383395812172027,0.08136383695803359,-0.1920550336111329,-0.34561167591147307,-0.6195466300099903,-0.010309601998919555,-0.5581888896572522,-1.0163581582741001,0.5730591834633999,1.2957700707850386,0.026364685649157955,0.265625
-0.4092352754295732,3.02370952790846,-1.4355777527397293,0.3688726317985875,0.28952533808561687,0.14500675731708418,-2.5921886084116195,-1.3241314261999138,0.42159656395659806,0.9994305244607921,-1.3053359671490699,-0.5560430508885268,2.1929643225879207,0.18388156648435,0.2734375
0.3452172396929876,0.26995016262066823,-1.4088863442537136,1.469520725617111,0.2414668364780553,0.3057760021497301,-2.9089707295564833,0.0038666788325679683,0.11627139307662944,1.6745902878539043,0.026628772546869142,-1.252963610729035,1.0442397854562584,0.07567045853013993,0.28125
0.43629297078620877,-1.349723336511746,-0.5477543880390012,0.6831946782203102,-0.015313909058402351,-0.18314343679546935,-0.1203780782617141,1.6342638349217025,0.186666061350779,0.3986828331421013,0.12645282721198858,-0.3908073922680514,-0.7331117073350945,-0.12434516767755231,0.2890625
-0.36012668117475155,0.9313818438406436,-0.7018227484347256,-0.6255436140056648,-0.10710674233226529,-0.7328420005504661,1.9716997338656213,1.2938293030844406,0.9939234502836739,-0.8444751004009651,-1.6399945973246037,0.6995171528984352,-0.7729404816952665,-0.10631863418113961,0.296875
-0.951489664019104,3.4130719907325138,-0.9905068745395934,-0.9611991547225089,-0.00048362232309401103,-0.5469088578703235,1.2832482155673075,-0.5852147176813992,1.1030808328218258,-0.5846917576073154,-2.1377136284210083,0.6590662281144039,0.200067232693831,0.09787351906994406,0.3046875
-0.5305411133886303,1.7979065771772893,0.4275558681855526,-0.7172306770129464,0.032308568590893226,0.17522112039193305,-0.04965447746672119,-1.6120066796974826,0.05185154833268131,-0.021592519999287144,-0.01380923089929234,0.11287278807179718,0.170490462419113,0.1750745496130151,0.3125
0.4112204825841499,-2.3036171354314394,1.951902037900984,-0.06897600417178872,-0.08191483046298445,0.6500305812004655,0.05665024972614875,-1.0335088502762984,-0.6930034261174502,-0.04090181863867917,2.0931600225567157,-0.1476519202022343,-0.8537840865238611,0.059648200277867436,0.3203125
0.8480635144660563,-4.236355528159616,0.8196204643828742,1.515964388725621,-0.198090897763591,0.619390544662649,1.1804323586597156,-0.4269952125342048,-0.49933470210640535,0.19488110125855332,2.301652667298341,-0.43747196131413496,-1.6684869321196654,-0.013671019136469969,0.328125
0.5074217002423731,-2.8275013886451856,-1.4629282763042137,2.7480817402084443,-0.2306902510463308,0.3714252996611568,1.9354821855173654,-0.6106396851752357,-0.510809026679733,0.8246480866870869,1.7462822896630674,-0.7862206275868797,-1.7430588518976557,0.03784491770168196,0.3359375
0.019602714863596656,-0.7411380225546915,-1.0523562309374812,1.3410655729590513,-0.16925237193450873,0.10212623517767128,1.533998333612982,-0.45075366733534183,-1.1150522188796257,0.8941698822969624,1.1726801391155617,-0.6146557946248292,-0.9987722441196742,0.07773110204758046,0.34375
-0.10885590102251815,0.09547211289161198,1.5779146146822765,-1.732378036174079,-0.04244769308403168,-0.1879299421225613,0.511608911514593,0.5287319510105569,-1.160782258621516,0.29573655169964547,-0.21363572207670475,0.028354077728355628,0.35511754605518314,0.053299381167717985,0.3515625
-0.10703423073077306,0.41633568542528177,2.1226046826127307,-2.712367774599078,0.03959162951247821,-0.43515009188942483,0.1524764236929901,1.0947689885173983,-0.2609117296738816,-0.4680388357678261,-1.7951743866982668,0.6281295957901133,1.3417605732720637,-0.01618976694125184,0.359375
-0.2436034374990211,1.1819959908808564,-0.34791473094833913,-0.6949439443988562,0.04670234347661817,-0.466977879860043,0.09582736444749124,0.7335015469045615,0.6354725734815395,-1.1669499824584988,-1.606833396106104,0.9144827589993361,1.0679621426095656,-0.14826440109770886,0.3671875
-0.21143122968165284,1.6171550465286513,-1.845094164106673,1.048142631726332,0.1252718076337993,-0.15809712749128405,-1.4024726971789778,0.35530407753564697,1.1782490473548257,-1.0524448662380852,-0.027834117700303092,0.521208312014574,0.06249103592409713,-0.21030171511321472,0.375
0.18885999539366788,0.7616154274673257,-0.21811295376466172,0.4058072994165949,0.28739895601417775,0.32099171289635836,-3.4684896344326077,0.13843447174700196,1.6417767789728703,0.35330790209847224,0.3256557633987967,-0.5381659280543587,-0.18546151852187368,-0.012878015342165946,0.3828125
0.4451184854469954,-0.41692272620497844,1.4952211738568204,-0.7790762042758466,0.29275325302823674,0.4695849793733249,-2.9831719710151208,-0.40355453780226236,1.3985851792278476,1.339650432987106,-1.0465987964260797,-0.9746066640514178,0.9373280628428325,0.22686667217322026,0.390625
0.11532608901562659,-0.12115121447285669,0.5481419223498741,-0.6197197548591777,0.08507884808002973,0.012990846623683994,-0.30507421570319637,-0.45018539560066634,-0.02069101127823255,0.18962247402422902,-1.7300008929338662,0.08086784622908928,2.122387304110423,0.09272894370633376,0.3984375
-0.42895143101808847,1.490146483312929,-1.137205026194874,-0.12294044527914963,-0.06792317843898475,-0.5622472524852299,0.8737969638644584,0.728268974563078,-1.278659790479545,-1.404784834301561,-0.41382653840068145,1.155939108850124,1.423914189952181,-0.2563806662172999,0.40625
-0.5876089974977599,2.1584772723521457,-0.8420962918493504,-0.36640268126951536,-0.06173355013520407,-0.505655480417386,0.11610990280788552,1.333757730553481,-1.1657748505409056,-0.8723349461082792,1.3915671242692176,0.598228728707753,-0.9489456619348307,-0.24846913415515678,0.4140625
-0.2572724178561643,0.5477186910282961,0.4224802638162267,-0.19791150027667545,-0.07110433267591874,0.16292491071823928,0.1480290314277342,-0.1979128564060577,-0.5481679862018362,0.7807384124328768,2.0139832189994187,-0.636579800910145,-2.2717150831075488,0.10471294119710803,0.421875
0.25047491167183483,-1.671174653482079,0.3954068478710458,0.9980799884000796,-0.10098310594568068,0.6231436408686102,0.7710666050891036,-1.7202975342635607,-0.23267183390878257,0.8767922648081817,1.3439160845929188,-0.719237279332716,-1.0291799755217959,0.21507323220111035,0.4296875
0.4399897029766492,-1.8107454931408042,-0.4173754837029458,1.3724593403321486,-0.02082817095526231,0.3485173176770956,0.22619721132693923,-0.9216240334650119,0.3862767657709671,-0.38058155414775036,-0.059239658526474066,0.1405164627168099,0.7169201048020694,-0.02018124650027953,0.4375
-0.029208256558469908,0.16946659736265957,-0.4136440950930653,-0.0529699811138057,0.00972051836795209,-0.25271976861687195,0.42165707229843524,0.30094192792445856,0.8169086595455339,-0.7743917461976827,-1.3125614459522248,0.5727321494185521,0.6253380376490828,-0.08135831325335738,0.4453125
-0.6927407221304084,1.552913020934648,-0.11570784171602903,-1.1103142614404995,-0.18543002696251518,-0.5021240646745188,2.960663631963631,-0.3246709036171237,-0.37664153147437923,0.1490460305462854,-1.2954439448130848,0.24826358498276482,-0.4698159296595639,0.16160918563983,0.453125
-0.5771690441802867,0.6458001268652549,-0.6112857988045928,-0.1499242002712419,-0.30679744030242856,-0.33114414117483504,3.894573092610628,-0.7522376548234995,-1.733218229474656,0.9892836055756306,-0.1938187582876705,-0.3032548252917105,-0.7999653627143429,0.2289921990707663,0.4609375
0.36851467506117047,-1.3269766646553667,-0.91407995854971,1.0839838892951927,-0.06718090107855983,-0.10446785915445321,0.4280998655074072,1.107719115195365,-0.440228233239506,0.9589399372355933,0.40937738127458384,-0.7135232256402936,-0.7525643145756489,-0.037236047396189256,0.46875
1.0621980225073513,-2.6207676863040614,0.1146633225274582,0.8515350932623922,0.19365402655565722,0.09333631114320654,-2.764701661968742,2.5232522175402163,1.8876951569300724,0.505565042556356,0.1775293756038924,-0.7751465725076592,-1.0479316578425908,-0.20063702147568077,0.4765625
0.8807993526116085,-2.8136265593224588,1.2228669366028182,0.3248143611334728,0.10483594828239987,0.4044106868354546,-1.6548952550126397,0.7334026379766089,1.3093052375018968,0.11600209681419395,0.4456586846944218,-0.40245882024175783,-0.6097547549489925,-0.061959943372898584,0.484375
0.3459245364575731,-1.8213598951645906,1.049168721242063,0.5248490750501248,-0.04170877256809364,0.6580228703384399,-0.053920439085414586,-1.7633029649843022,-1.022828182470289,-0.35495140355801774,1.2674701797945638,0.1781531278445867,0.990739931429732,0.04284010120184752,0.4921875
0.008019371027692998,0.17995143954917955,0.6537115435625293,0.14806302386130984,0.10350985965745885,0.5422793407774381,-1.6312338588755957,-1.6721506937968171,-0.7644931526962232,-1.0319748202791277,1.109151895674895,0.6311310726543023,1.781287685513935,-0.05763881838018335,0.5
-0.18444112481113115,1.7915535659339337,0.9387329277859674,-1.1197752228176021,0.27791504865738054,0.1524022341851986,-3.1100955193782753,-0.15186178876862724,1.5057048772826511,-1.2645636058081666,-0.13175361740372818,0.6928536371603453,0.7128042998362627,-0.109519981005839,0.5078125
-0.3673666682027612,2.0494382100079425,0.525204491034694,-1.3649120747110626,0.16892751139542694,-0.19943964171877274,-1.4137608818723801,0.3661279181213328,1.6171986829884566,-0.5189231531593327,-0.9899355226168457,0.3326050961983912,-0.2016192612561567,-0.0034468602365839442,0.515625
-0.5896833012258095,2.12311415093566,-0.930321662079304,-0.4811507172133971,-0.039555931047135694,-0.4511125225044877,1.0298113569655922,0.06746284714724317,-0.5410711524343109,0.23647660377809604,-1.0144519121912536,0.10578943396933778,0.42825082194660025,0.057142541469469996,0.5234375
-0.8678974302839714,2.657925917252394,-1.0651808803608733,-0.6625096488878828,-0.13957201134220854,-0.5860296462880449,2.079999816753358,-0.182230371628645,-1.715760441815412,-0.1844835377730153,-0.672318160867906,0.5263439060368612,0.7939969066923787,0.018711815800583894,0.53125
-0.7983666359591838,1.8440581808460954,0.6183599112043957,-1.5875404213326938,-0.184002169818491,-0.4017269425980201,2.3502714628209374,-0.3778223078553986,-1.2180480051082383,-0.7583069051354969,0.018651615869217264,0.8092378040524547,-0.3446765005708148,0.030174979754936795,0.5390625
0.04627411072252306,-0.78325808023572,0.9920451914237745,-0.5521486417273362,-0.09717610508952423,0.058269370778621064,0.9473200881648137,-0.028456318808075285,-0.3663140298365765,0.3680053454790962,0.4923490582268023,-0.2236536939449206,-0.937529023795031,0.08433722352989889,0.546875
0.9641145218917361,-2.1777010450609544,-1.0801034000288816,1.8684221574720783,0.18889442034114687,0.3082528984298964,-2.303458812419778,0.9781904604684747,0.7892826532804669,2.3394351476850193,-0.4248622676461178,-1.7921548268452334,0.25182177093045244,0.09113742251518778,0.5546875
0.7483205956680317,-0.7186180660947538,-2.456762513947752,2.1961631154932144,0.2865654693743968,0.036295938052555016,-2.716501371130024,1.1767296044402002,1.8185593263432147,2.502475837451512,-1.9622259158974062,-1.8429936584154252,0.8256914390989839,0.10758871851322523,0.5625
-0.27630964791575513,0.826710146631273,-1.412732264546849,0.32644185689718846,-0.07253748400920022,-0.4274553473545481,1.7481706135377264,0.19685809858005082,0.9194171035619684,0.5848193684756186,-1.783840240259997,-0.24649355950097057,-0.49959297702628797,0.11512445427356979,0.5703125
-0.5981290018816072,0.3144853503775028,-0.13771406017708934,-0.5162426270654009,-0.36596490788810543,-0.4948366257559517,4.283425778431107,-0.1813857204953182,-1.4823537872608836,-1.1564410167636425,0.27991587912163657,1.0411930260085938,-0.9305480934397463,-0.05871142061406221,0.578125
-0.01128228273609148,-0.497222915294555,0.11893457195851705,0.24335453900243093,-0.12488649112490605,-0.01476250770437033,0.3531368345141727,0.30987787604614814,-2.3770658311148054,-1.5367017773108749,2.123706309338325,1.0265490459815794,0.6968512135782089,-0.31172761118313863,0.5859375
0.29259109479368184,-0.33123711564800906,0.7809047888484278,0.32981696791619114,0.1641096158129614,0.5186801191001481,-3.2653171971511594,-0.014055757287488374,-0.8667354231404928,-1.317187368969491,2.7417152210123765,0.5638101721346216,0.6977389752618175,-0.29314248197495013,0.59375
0.08492282364180574,-0.8720974586552398,1.8592426795925179,-0.4329519549117161,-0.01967896593195217,0.5274097146463171,-0.7001948535239524,-0.654737235994828,0.8581302432598443,-1.1208293410104455,2.501913851268929,0.3772701178278097,-2.348349803114579,-0.0588157303924051,0.6015625
0.2526872075981647,-2.490949499370701,1.5908214376667285,-0.2939346730759284,-0.24184715920659872,0.12565939399706264,2.342056706545714,0.20599712017194843,1.3093184654719268,-0.8934071594779872,1.2876695969598166,0.3283672805485705,-3.497601334244763,-0.025779509445998806,0.609375
0.6949018728201599,-2.6747051954204335,0.3955993216662796,0.4469860902946619,-0.027335387206906085,-0.007608246615932285,0.31182131745348884,0.9700017390456651,0.8994614652357683,-0.6202952203920074,-0.6290552852770088,0.2859613860999033,0.10167043473863673,-0.14819069467510423,0.6171875
0.4458652426758142,-0.7597646138505068,0.30937950202438236,0.2367650958427858,0.20850359896584758,0.36613834921659716,-1.8446968864413948,-1.0622874539952958,0.27648069968523536,-0.03609078729255967,-1.6577160254940908,0.1090960303145784,3.360394435446176,0.04902813943677965,0.625
-0.25364247270307566,0.6099550831727081,1.0131591970948028,-0.4156098618602226,0.062284562989776415,0.7001277467803091,0.24070916933605324,-3.7687727101330717,0.07522125660904162,1.0894286198318694,-1.2319762116717508,-0.48575160180841837,1.8662823211892592,0.49996174331848814,0.6328125
-0.30935318377480087,0.376112228736798,0.5388701067194837,-0.1792058758357242,-0.059620889539887534,0.4682646811463782,1.572227994797606,-2.869326960744015,0.6549271388377887,1.8574742121517946,-0.8815935910841203,-1.0863419113960326,-0.6367508450300808,0.554315569431974,0.640625
0.0884078871902202,0.8014112161585085,-1.060115205913979,0.2838849077858623,0.16134351747643969,-0.20217810709865608,-1.3603416709797354,0.9415419818847904,0.864199819993306,1.4125612578529652,-1.3417689270771598,-0.9314256139842019,0.25725828429284725,0.084593222768024,0.6484375
-0.12832541656127416,2.7924188940964765,-1.9593710762459444,-0.21160353068314694,0.29902406224168937,-0.7707662417456643,-3.3181483719076583,3.131447451839567,-0.49209543166564595,0.8438274319499526,-1.2162341578923876,-0.4535501537411684,1.7251189710861632,-0.24185135806526148,0.65625
-0.7763411745677068,3.822221236285294,-1.5493339760411118,-0.8970131428300626,0.05757217060260353,-0.8385565002588061,-0.7730074427936473,2.1985712662022943,-1.9986318610164646,1.2399371004306032,0.09914714004860896,-0.5495432828833008,0.03732082130501148,-0.07219583730159959,0.6640625
-0.7589428816690783,2.2456464760861232,-0.9198351147010154,-0.5362865757944439,-0.17305974717449712,-0.5533632781708607,1.864069822877179,0.8085225672272237,-1.473057619473027,1.056737761180995,0.764245735438166,-0.5068325679445483,-1.899256874756088,0.08128334947226605,0.671875
-0.07986059463273024,0.03705244527144291,-0.8769666648736697,0.2611873253838408,-0.08732084052361928,-0.44019908890599885,1.1492558364377452,1.019785063122893,0.33721901427789597,-1.1253241034047166,-0.5071503510799882,0.760893952556795,-0.2420017793289391,-0.2068082666792462,0.6796875
0.28763085940386085,-0.6082424841688475,-0.7738516219071884,0.22434587714073012,0.05549910920443491,-0.5487095174583344,-0.30227197850521903,1.7384759102234992,1.0241124208883519,-3.127448124110833,-1.7007312716437477,2.063327638866788,2.194884270216972,-0.5272352012066949,0.6875
0.09315825758650888,-0.47132683200042635,0.3970121972556994,-0.4176618888568731,-0.01662081811991731,-0.2700204620371745,0.010559240248510657,1.0004799443305021,0.2498224654709182,-2.501555983278338,-0.07009997970301408,1.6163223203570447,0.7540954339505052,-0.3745578793020386,0.6953125
-0.07201160176310706,-1.2264534867245476,2.011085882146823,-0.4938752415127449,-0.2040227912177596,0.48013132671905,1.1944027619659672,-0.983566331030689,-0.492329629420636,-0.8609215621830685,3.214042352107169,0.3283660914365602,-2.896814239947282,0.0014870297964234957,0.703125
0.08597564428095102,-2.402251521532856,2.127271331268324,0.284302656976992,-0.28634297399427294,0.866258731806993,1.9912456949215422,-2.2180169069255267,-0.4115152518408865,-0.5769607306091014,3.8750034201014865,0.04931232756417782,-3.508055122980735,0.1236274748685196,0.7109375
0.31435396534259274,-2.305483399384514,0.509041144875704,1.0670063989224445,-0.15165392431573604,0.5954021748127197,1.5987648058957755,-2.0473656703558167,0.20423881449547282,-0.2807612274726024,0.749402295036617,0.07016424701735058,-0.4507244857815955,0.12804948824613263,0.71875
0.3611526760641397,-0.8121624303875289,-0.487690105121858,0.9611797060348285,0.13010251734871958,0.45719697490553235,-0.47514420838818777,-1.9005123943904219,0.8412618154043552,1.7790412432579847,-2.163563290179703,-1.0711881786090836,2.0154986991231354,0.3658507500884062,0.7265625
0.25842724492357616,0.26154976349745,0.5813791872726878,-0.008950224998475441,0.2954641491939428,0.7474693931290566,-2.4318121165145206,-2.2615558259570974,1.050388113721478,3.3793015882153847,-1.771034664499308,-2.170150350327734,1.4593076530714684,0.6115099407740052,0.734375
0.24409745291547255,-0.3795447778022489,1.8362561579998264,-0.7878005625738248,0.18416650828363954,0.6867472248550722,-1.9099236363918384,-1.5017988371753936,0.7225987763325227,1.946721842631352,-0.1424957740462378,-1.3447329103827743,0.04741686033975671,0.3989673868972406,0.7421875
0.3916644480875687,-1.4544727781258078,0.8970757364964084,-0.38485151766737724,4.1703954333097414e-05,-0.052183260845178936,-0.2467312812900732,0.9780000009438276,0.006620782317859416,-0.7507051751405402,0.008715198465370706,0.44855041819325253,0.3241884083146828,-0.1665297732690644,0.75
0.3177116212215723,-0.6222361556498825,-1.612495605921567,0.7278631186691124,-0.028132429178750362,-0.7643862321931179,-0.13391682414959352,3.140448671925165,-1.1531654568002674,-1.5352185199812418,-0.23005279214604585,1.0488480238286786,1.3894180595110788,-0.5459068088447631,0.7578125
-0.22388256945097337,1.8065815985306977,-3.1043975735405955,1.1342912195477046,-0.004249254756013351,-0.9244598980251894,-0.63198108744559,3.1704543255840645,-2.2395201232918263,-0.5083192866068106,0.6294531624157996,0.4248285546241111,0.9591065160672666,-0.4884995271175301,0.765625
-0.6567146220208803,2.7758836755964653,-2.4170500284214267,0.5307891568009151,-0.05954724389078798,-0.691882964141022,0.23974654030287196,1.6744006359472199,-1.638322929111604,0.15960500779103362,1.0038721928347265,-0.017275991663043805,-0.6990031964007245,-0.20460868912210003,0.7734375
-0.4202844156342903,1.2260586225565109,-0.7564262881219997,-0.11451197098121964,-0.07375619549886714,-0.3489971451245859,1.2205972402223237,0.29164175929671626,0.8977076428716528,-0.2831234227227408,-0.42686366954153115,0.1976141387224624,-1.4127336048599028,0.0024154048502727904,0.78125
-0.06645104521320254,-0.020112442023551284,0.3438164740681123,-0.5401643472232344,0.0064366273805851505,-0.14193713640769884,0.9149010787211018,-0.23273915256333386,2.700992548085762,-0.8276936604323114,-1.9104489489038783,0.5092982257791246,-0.7947396744309057,0.057931919179845824,0.7890625
-0.3056773285842474,0.9455049239528147,0.804309034335556,-1.2932854657614195,0.029106759982415957,-0.15892168835801648,0.6183977357577712,-0.4006801057212387,1.8632989317505424,-0.37722542768731737,-1.7192596823072754,0.3312326973360937,-0.47006671014550294,0.1334381589965781,0.796875
-0.6194230234067993,1.9247359774768098,1.2723417785941777,-1.7998796418119491,-0.0026103480567493346,0.0012221178797618938,0.5796051834634357,-1.0565838817070012,0.15900652439510557,0.8861459650901556,-0.4563870909834447,-0.3954708933417991,-0.8074545622195747,0.3158222426946723,0.8046875
-0.20718980352153785,0.6622497730575716,1.616503453895013,-0.954198034650263,0.06175823311512298,0.5715877204829098,-0.797839511048618,-1.8975885103172963,-0.5160244830162283,1.4199543765594758,0.8597988720622795,-0.8995043670696815,-0.2755117847931166,0.35650941026038374,0.8125
0.4979192302774335,-1.4733357913075973,1.3052392636835193,0.424949082180768,0.12654183179814626,0.8586431932704618,-2.2522820544129787,-1.5539487481893854,-1.142441610795118,0.3760866592808858,1.6561111705055822,-0.38327257124551367,1.4916818153932516,0.06809715612477256,0.8203125
0.6201121484063332,-2.2207262441192497,0.5662062597582477,0.6423511107164063,0.003970193186946093,0.31961632748303664,-0.8978133042631228,-0.005844100944345359,-2.115945475655887,-0.8604668161609231,1.1078866042767734,0.5723168918326701,2.504108085689784,-0.23496451164165028,0.828125
0.2571145616144099,-1.5746394082840314,-0.03825247194550772,0.1369991280678144,-0.15522214457601147,-0.2954591656573263,1.663464626739962,0.8231245997340352,-1.3843900825504591,-0.973573264459412,-0.32375556135275985,0.809135076315397,1.2667958908349877,-0.21013942546474584,0.8359375
-0.010506378115815153,-0.6086190526550197,-0.42464327589710954,0.38033013107895247,-0.12185878122994481,-0.18414187273340477,1.6403248640231933,0.1552308979471022,0.9720819406791619,-0.891757311730632,-0.40319849321428153,0.5383121501579036,-0.9651552935774474,-0.0766352477083503,0.84375
-0.06694438907945101,-0.03074031236668881,-0.5933299138265719,0.940429596809087,-0.031003346034683438,0.15123335574556954,0.058134571628201,-0.354483804990651,1.617981170250296,-1.2354275816121674,1.1018923249332873,0.49606076722006354,-1.9322069566693107,-0.12300604916175255,0.8515625
0.024714558174732757,-0.28477231308408907,-0.6072778031709577,0.7872366476015316,-0.06239431278925976,0.006311825072538042,0.17484119872567724,0.3724773701446621,-0.006621581948176449,-0.3968207534964093,1.2764145599664165,0.08760562533510623,-1.2485393421119775,-0.1236360340158381,0.859375
0.2697408054121704,-0.8333631287401816,-1.0311886844677556,0.6672733807240456,-0.053479278158602976,-0.27836064058864823,0.8169058709685288,1.1915160630753363,-0.43773046355709266,1.8444287299208708,-0.8061013058913874,-1.1321764937135939,-0.31865439510542704,0.10181604121723299,0.8671875
0.3738534897043455,-0.3721385421306657,-1.7299280002356179,1.1691417981859031,0.11042617946621006,-0.17998913716444045,-0.5226293634755195,0.9635003063858066,1.1882856963558954,2.426689217795433,-1.9795929309183495,-1.6085811515940946,-0.036504024793638505,0.19726367048373322,0.875
0.04629183554585958,0.851834774588083,-1.1875144378197438,0.8993910437853002,0.18416874579962147,0.08574081084746522,-1.865812368797309,-0.012320081410871169,1.685906154553595,0.06014506929897544,-0.5047644075051487,-0.23414409433059155,0.011815424839000358,-0.021903893935457025,0.8828125
-0.392219351419179,1.2408768196402538,0.885534399417026,-0.7879919278423253,0.03392967213773024,0.16682608194209567,-0.6148990421206739,-1.0015219060641842,0.14045928254035203,-1.829519529161122,0.9058410800241787,1.1604725362451127,0.2083092952074729,-0.11634834711325705,0.890625
-0.47235929227159756,0.7952163892726648,2.243767796493048,-2.1389116758354634,-0.08538353762162892,0.08022554872016636,1.1633262687637145,-1.279871984401412,-0.9243988730174504,-0.540107096015111,0.09503209800095169,0.6084380055758659,0.3085153586519391,0.14740479654907052,0.8984375
-0.25914379420115685,0.6843740645620248,1.649040191418653,-1.9762781355671757,-0.01672355764533282,-0.08307688846017951,0.7065947079361222,-0.32598996212705683,-0.962578671649427,1.5383254692637187,-0.9600189687856241,-0.6867920752903534,0.38155496263687244,0.3110885820875576,0.90625
-0.044131009504555896,0.6547500139356522,0.726349458774907,-1.185515427255598,0.06343833513477166,-0.18606912260709946,-0.8523470826783794,0.9542588630221116,-1.564055644132998,1.1785610972094163,-0.08763145062655196,-0.5776094763439458,0.8636586376267263,0.056038962330178896,0.9140625
0.059068050229390434,0.2928572329760595,0.3114298625510197,-0.31347685589647944,0.06469398545932964,-0.04371505436838388,-1.6082002517457776,0.9099630409224784,-1.9874407300961636,-0.6795775114728679,1.3765738346880914,0.47400966218426543,1.3997112593914374,-0.25549824854461056,0.921875
0.014547088030138303,0.4921012549095181,-0.8462887114935939,0.9424310710014174,0.0870268268184034,0.14601669120601846,-1.620344954894872,-0.10447533403962342,-0.5445180035227838,-1.183709482078258,1.2240425922111011,0.6402671738941074,1.0007633523373685,-0.24707399888097262,0.9296875
-0.02875080514582751,0.6671873091999869,-2.196504462910096,1.8099713271189117,0.06778318242079913,0.013901723116759588,-0.629408938894926,-0.18905270072369915,1.3278274543898023,-0.09780088297015468,-0.13446826874908624,-0.1353484948135818,-0.4176190740337247,-0.05818849019905779,0.9375
0.22285000497233864,-1.1909101872410697,-1.389988956287681,1.2879522924255353,-0.11568783303593506,-0.21535428637733395,1.755310478471386,0.624081232154312,1.5852650975815332,0.5430586302313413,-0.8863382774982534,-0.4788484532886336,-1.785020361748401,0.04246064689330264,0.9453125
0.5210448457967042,-3.4058699718148513,0.8235350299489763,0.18195049420296935,-0.26608808354718005,-0.09516404671514336,3.319064926621642,0.5276758355745332,1.2989642194186959,-0.21264319493388031,-0.6618121637736263,0.06415859410378404,-2.1303355372295667,0.03584121121504494,0.953125
0.20937166785207031,-1.874322636514344,1.247668731038417,-0.3494519704901967,-0.13680240944607913,0.10727769284247562,1.8764421234104829,-0.5015346347002255,1.6363737017698907,-1.1623890907911767,-0.45632012117394166,0.6710515187555258,-1.2767145940960223,0.010794363382742641,0.9609375
-0.4856888389981693,1.9598319691179606,-0.033391357768711584,-0.599791909398665,0.08304586484835469,-0.0389532979717914,-0.43695859149107835,-0.8555134722590162,1.1473779716717392,-0.9781349236450545,-0.6635399947097258,0.6679646854346197,0.22227526539665451,0.011324730131663938,0.96875
-0.5408000223352458,2.358233046791427,-0.24443501836447099,-0.7366978118838524,0.08002046334542849,-0.1403946314305376,-0.5564643620438132,-0.5763981245581037,-0.584147146428186,-0.08470115427708481,-0.5408942256838688,0.2571568595338385,1.2602641855544015,0.04727530669726428,0.9765625
0.09515235783359438,-0.6029689871301482,0.5547455122683562,-0.038743444484938286,-0.02914648380906858,0.23908545004122383,0.16300043637107461,-0.8414643009139955,-1.3309930055793473,0.27898927177809324,0.35501949331081906,-0.07101822725566441,1.1583646449766927,0.06910874525206846,0.984375
0.35353933660843656,-1.264064039938438,0.15258881643743866,0.9674391207109746,0.026275832961665066,0.5270253768905945,-0.8199357886374689,-1.0572942082403378,-0.6660061718419368,0.2109109471709139,1.126850438902193,-0.25786206498045233,0.6765213031769484,0.025341698557649794,0.9921875
-0.03746219467554003,1.0202763606612373,-1.0590878526533523,0.8005047503980052,0.12470157090723372,0.1263945322367836,-1.810790524429377,-0.04552956193491853,-0.9057108173765046,0.7555170071647748,0.7667487588042844,-0.539243881969869,0.8185464408239003,-0.01389468794057878,1.0
-0.159634888747391,1.1601204366377522,-1.0368634217393724,-0.040086184069827176,0.013288802488937445,-0.38405499360755424,-0.24529126612161434,1.166086684458449,-2.1006597620793235,1.6183424217045643,-0.14765660664608868,-0.8271919117340724,0.9514640211199802,0.03129521437216635,1.0078125
0.29064466569056974,-1.5328904049192948,0.05203738041640669,-0.037611920239751614,-0.15114092239605123,-0.26984578836692874,1.6764148936276344,1.1525820308323589,-1.4856300270283587,1.4139389842934822,-0.3086321738188929,-0.7517386515427008,-0.1181648197523204,0.06969687493092501,1.015625
0.4246975679265821,-1.8931700843309092,0.831284550572609,-0.0648288669417788,-0.05627064150789346,0.04247068686147675,0.4633356340865738,0.8518501310926911,1.0374293896788158,0.18749871795886672,0.24009985690755506,-0.304255302658962,-1.7539805774739117,-0.004242318212944646,1.0234375
-0.20824181414693294,1.504505630000883,1.31935018926408,-1.6363848216767896,0.1789691303214582,-0.11093160397208572,-2.2189378590599875,1.29657057693729,2.1425225989912953,-0.5831685907715274,0.5034359252014616,0.12135700624443232,-2.2224218658850035,-0.08470505681098744,1.03125
-0.7371959782260084,3.49619355291993,1.6703358603017506,-2.877055570658056,0.1893739029573125,-0.32600956385888125,-2.2322255658929473,1.1265487060187056,0.636930840159913,-0.4936040149066366,0.4029509774057811,0.3340030000579618,-1.146581868212641,-0.04437784939964161,1.0390625
-0.31843774960448595,0.9240184140515111,0.8595388620882584,-0.9847030512216497,-0.008964840856785608,0.02135049875579202,0.033644048222409816,-0.5771335840111477,-0.8089944649488685,-0.5738820645789277,0.36165386480870754,0.5009359103702283,0.568094812163804,0.0007455697601689165,1.046875
0.476736129854953,-2.2459710806685056,-1.2097142328965556,2.4097318506792873,-0.07436731214312475,0.4867093247370781,0.8322307600008847,-1.9377763976579,-0.19327018125971437,-1.254109742220044,-0.020030426891237494,0.7565338012786157,2.0732006800894562,-0.10076289736427464,1.0546875
0.47351245473376763,-1.4186848789606235,-2.5691185830027616,3.1599615598056046,0.05285092201571292,0.32993748921797655,-0.2958463849162774,-1.454216254758753,1.2131150012819094,-1.7374584069075598,-0.8833326538026239,0.9641247798394305,2.384056620680806,-0.2185933641573907,1.0625
-0.2134138852149262,1.231519966963872,-1.6832179473524902,0.9409228200547486,0.07936338945763777,-0.14615959666186504,-0.3256387364919739,-0.39785888780270035,1.4661153201020292,-1.1846632509208723,-1.1417797745199978,0.7334798899858312,0.7598105410632988,-0.11887011485203532,1.0703125
-0.28031321345401233,0.4078298440522773,0.5034599124974896,-0.8163915066304823,-0.09872523167945133,-0.16879293059022352,1.5036226986603436,-0.059089905522133314,0.5097809540291127,0.4267569025202099,-0.40273404349722847,-0.20699019098363625,-1.4717390954813303,0.15222041912477072,1.078125
0.5164880587601458,-3.200151865920297,1.883963508409193,-0.5605909026343295,-0.2254994066058608,0.19629858625554558,2.544177985698094,0.01828113185779093,-0.4826687581044052,2.00471478544429,0.10944693211261683,-1.2640221102071159,-1.8614649458185413,0.3208436566221967,1.0859375
0.7619957807283215,-3.5280852635601416,1.4591492325655797,0.02896141291474655,-0.13044836502391904,0.30798696893967353,1.3864533356682667,0.014929713385349312,-0.7151371147815718,1.899473976520438,-0.09169009734366473,-1.2129345253077728,-0.42426357769141376,0.24486249477194785,1.09375
-0.18065908769527392,0.7572757828118788,-0.21719236634003963,-0.039741220540286025,0.020539188775260564,0.006097539576007769,-0.15429003340318162,-0.4001210944821626,-0.3003381690882702,0.03618871951565042,-0.03284461147847837,0.03525004268594443,0.44332932176556594,0.028125961276955703,1.1015625
-0.975093741441586,3.7929192654992674,-1.8936299039302107,0.17356188675525902,0.014612813743769559,-0.38467889647191633,-0.03195124814778893,-0.34057535698639413,0.0010797525789096925,-1.2690804494952894,0.35593634016534187,0.8885533693116874,-0.18921577872352038,-0.14152952833662016,1.109375
-0.6539369743554728,2.228173388984477,-2.2829996274137097,0.6349105634126606,-0.11821611939711055,-0.6296494892256922,1.418593227869352,0.8538678827084221,-0.4608633375071136,-0.4534264725215307,0.1493878933677675,0.3820781788734776,-0.9198383843567546,-0.14827689347897374,1.1171875
-0.08453583110492598,-0.12877480707376396,-0.7685448721427781,-0.09326879371005142,-0.1722022728209264,-0.5964897647947094,2.000462581507529,1.6512025955939669,-1.2790236709963207,0.8065511914303627,-0.34062212715173973,-0.335883584468613,-0.6261887350200888,-0.03372183820990532,1.125
0.018611601803157705,-0.07605116791569333,1.5186568584839084,-1.6510378316725227,-0.0017638337212133638,-0.18997874836107287,-0.04382526048119577,0.905831812664356,-1.2885594000629907,0.5936588724977632,-0.21637883157597299,-0.1839845454623662,0.5765950396541124,0.03738856263624474,1.1328125
0.242540854664395,0.36775032624374265,2.285007691098842,-1.7518960992415955,0.29987200629817773,0.3425192225660248,-3.725864371053872,0.16564699762963733,-0.3021598257682131,0.053102091353878236,0.14399887921669008,-0.04256617611505011,1.934665956180378,-0.01233413276405973,1.140625
0.7102254012429235,-0.32560943043085677,1.0780052021095947,-0.2110453999331429,0.45009843435594,0.5440191954210296,-5.7012783659070285,0.6672846914698399,0.47556567551245654,0.6799359945509182,0.3381042678102682,-0.7028622962694071,2.0728137103165247,-0.07454340283253942,1.1484375
0.6016114865840233,-0.48680018178122003,0.10294505353274719,0.5699559999959619,0.303208706310741,0.3867085048546536,-4.1700668305901285,0.9592441297260319,0.4398557015748993,0.9757966144027036,0.922338010952973,-0.9546348011547977,0.4207172225089025,-0.07116157521809716,1.15625
0.013692105105954215,-0.00542668109992759,0.49422179551702683,0.1015169058817658,0.03937778178971369,0.2884738919549424,-1.0532954804483332,-0.25840555881534893,0.441579568929214,-0.5735284487868075,1.55381208937313,0.14059974418676333,-1.1140835618311014,-0.06951105717934049,1.1640625
-0.11204436646747383,-0.7226369444189772,0.630542144438966,0.4264686097867401,-0.12104788400344968,0.43702353634235164,1.172553949726883,-1.971293216666711,0.8556415143115189,-2.0369137533294017,1.1570371596374824,1.1666100292198487,-0.8245133334557856,-0.057466567488518396,1.171875
0.05195720791193103,-1.6906749865521715,-0.07836387405607488,1.3632251628716214,-0.19492193103496616,0.5387700713782071,2.472998399185807,-2.837488537498844,0.9197003477507605,-1.3748644533869838,0.24704008269623573,0.8095556073129967,-0.31417433654514426,0.08812852617791847,1.1796875
-0.31723905693800564,-0.5472429034226457,-0.04774122181679728,0.503256172218157,-0.2528181768497257,0.23757678976274083,3.5409733930949656,-2.517062786381972,0.6996194979962725,-0.17828029052644162,-0.3700475231556896,0.194642400932827,-1.2198724304280488,0.27428229193007353,1.1875
-0.801390869281222,1.4549781966937574,0.11111222059798391,-1.221504497908016,-0.24093161928454007,-0.47443008240125756,3.923329527528721,-0.8491936578537242,0.910558664664087,-0.30135249455103524,-1.6338982478170492,0.4821009553734675,-1.581322422238532,0.2208951621699355,1.1953125
-0.5284917774747143,1.5650449330849363,-1.9669387572580206,-0.3755270682586502,-0.15596799569296363,-1.1418181724578067,3.220464450012972,1.6051170424970922,0.613524658338512,-0.3094422437934372,-3.275974607689265,0.5913745091905326,0.2159753956076269,-0.05750384869010303,1.203125
0.07966292263253137,0.38898674423384416,-4.24776463483213,1.981449889691524,-0.08929236366994424,-1.1454064343121275,1.7085761114323068,2.9263336368788586,-1.1645432885199272,0.902884637236203,-2.5160149043670392,-0.2898189270486486,1.7007186289074359,-0.23419282310984987,1.2109375
0.2456201023000174,-0.17621127982232393,-2.253543759288533,1.4848021576757067,-0.019210185054571255,-0.43691101819055056,-0.39950769236850264,2.1546808175873333,-2.1905150291876945,1.0828310385460906,0.5580009793836366,-0.6562783767761337,0.8173568373772971,-0.20968120845576466,1.21875
0.2947382222546044,-0.6773822642110283,2.1381110673180803,-1.1851935185968,0.1184906310534911,0.26962111267419336,-2.322551409000052,0.827009019420691,-0.24561753769799316,-0.7240883624414824,1.7638921981422075,0.27189064294140597,-0.35969531803681515,-0.169702834532808,1.2265625
0.6564692712894672,-1.7825781115247445,2.8436515987711095,-1.2979768686547173,0.22141146098183298,0.4831480313308387,-2.850051267188419,0.3447975404138293,1.9115501067680531,-1.0603126352922707,0.23338069918605178,0.39632034027070007,-0.0008343543533988675,-0.10046870395862034,1.234375
0.7864585230414008,-1.8201777331339815,0.24900527226239288,0.9433851774343099,0.20143542670066436,0.564483027271579,-2.529041213662714,-0.06801579496051088,0.6157383812415582,1.873758756346582,0.07153111214552219,-1.4584756914010146,0.41116887064286806,0.15822038937486801,1.2421875
0.2637254443259274,0.0018864081513776498,-0.1033899410686038,1.0098461741909681,0.15605007594424858,0.784261889186551,-2.670656667334683,-1.102230566652412,-1.9469106109268306,3.837126451116948,2.158397890616827,-2.6398057990595087,-0.14755665393067113,0.3999264774469231,1.25
-0.3459880838202283,1.4659992592075275,1.876310292686511,-1.2662141667495654,0.10264722128049189,0.6058148196608785,-1.9934683606010306,-1.4497061425925388,-1.5931822715494082,1.331110845764521,2.4242955758882556,-0.8994246334855072,-0.5127268391737367,0.25486155315148334,1.2578125
-0.5269276415215505,1.1460965422075644,1.702229821299804,-2.031881228427311,-0.07416536172371627,-0.22695592479292676,0.9880828080659785,-0.15949534717141675,0.26283283335868546,-2.057798242409372,0.04072854026181144,1.4657050234038438,-0.4166733054192736,-0.11270421552049271,1.265625
-0.5540749398280846,0.9126352667701936,-0.5164686793167974,-0.8249493258372191,-0.24148949863117078,-0.8221362424158212,3.297869291735918,1.0174805012189476,-0.13653207886984536,-1.686401433065399,-1.0678275449919792,1.3641298808565507,-0.5555650775070522,-0.1877890828247776,1.2734375
-0.6891670783952364,2.1312419428379963,-1.2232002288138415,-0.10283881348355664,-0.1275462291091553,-0.41859407055235204,1.5947433428743767,-0.03476221145756816,-1.501642698981699,0.42908736562776145,0.12225914687530856,-0.03636322335669179,-0.19171959981731151,0.048684056358491476,1.28125
-0.6111638978005256,2.5372427892839116,-0.3874067803536111,-0.0015810310244930945,0.10440758855801448,0.3213046057060154,-1.0610452721353687,-2.169263624092683,-0.42694136933989896,-0.11901489297100276,0.44031119971836785,0.15107225846087882,1.0876948753226878,0.13545122225459583,1.2890625
-0.06338155003185368,-0.0629095375156664,0.20615992310686002,0.3487675432539927,0.050062859156842124,0.36385084641684967,0.02544995598578556,-2.203351484882626,1.7799198760488952,-2.3814292214831547,-0.9231902353093003,1.5040232857134324,1.4213040580932628,-0.0651791745397532,1.296875
0.6029285728272089,-3.416871899767966,0.8953140164337331,0.13448847629180968,-0.174289777189074,-0.11452652769750644,2.501809201623991,0.2757107894008365,1.8716282968561533,-2.585190818728798,-1.5388632266092275,1.642343395074041,0.14106538402966784,-0.23674669893792807,1.3046875
0.8760402023106322,-3.667644299848888,1.1339183207248396,-0.24561254050549683,-0.10070054713800569,-0.26588109443026925,1.146267746592802,2.141148805017848,0.8576012645370512,-0.8369839421021059,-0.9679727019530417,0.4748378198641508,-0.32103729110204937,-0.224474192473698,1.3125
0.6914014963259419,-1.055229930156151,-1.1515544810285763,1.2191021594729754,0.22107023208622342,-0.05157074258224987,-2.4983534835288856,1.63335134939246,1.4020973354776192,0.20610233942295744,-0.9556466672669359,-0.3608966032017787,0.8876234713579704,-0.18598863136602725,1.3203125
0.33116389204630786,0.8370251192738775,-4.024269182570881,3.2075267222079162,0.28614070309461903,-0.04793061443529982,-2.8921210626849514,0.6769166095596267,2.282177406753943,0.3849840131537005,-1.2347636994547113,-0.5726451765532288,0.9276863730560198,-0.15984556866950478,1.328125
-0.014536455837276753,0.5779364722988659,-2.888978433433593,2.1310598118074946,0.0005797330600183032,-0.20297935593683208,0.07240110183539902,0.676004784315775,0.8116541332294193,1.1876388651431258,-0.04836252762798414,-0.9485483232611213,-1.3639843225613921,0.010873282403703673,1.3359375
-0.2943530233742078,-0.04913212618796225,1.2016664065919247,-1.004732755893843,-0.22747164770097028,0.017006623076228806,1.990519879628349,0.07049743140013354,-1.9630277295740675,2.343009082336292,1.9429122437793762,-1.4431494672524137,-2.8989370590920918,0.3150733318577917,1.34375
-0.43278359616520146,0.2749904836453286,2.668705638909142,-1.955186657629283,-0.1928568049048833,0.40984228165556663,1.5606864625126797,-1.5205781535663387,-3.0501049203387307,2.635452996872046,2.2907663783793186,-1.490899220535007,-1.6910555020531568,0.49309487335872315,1.3515625
-0.4250202218073474,1.087629181364207,0.7787790234003816,-0.8383450977371574,-0.07100906479161753,0.22083930376772892,0.7245314258666774,-1.4238299367952347,-2.224347780781001,2.0036377779809613,0.7857853126440535,-1.0575627807107288,0.07734593343005126,0.36123953726206526,1.359375
-0.353440257174053,1.6219752787302575,-0.1094120461594143,-0.963645925685942,0.020805814223570397,-0.3773928079928878,-0.09856572363566865,0.7978897876317166,-1.226619747508792,0.7879099811753798,-0.4087302509279292,-0.2859742709824422,0.5555122988754932,0.03815407029410373,1.3671875
-0.14885676451345575,1.0949897218523126,1.235223838870255,-1.8713359505944993,0.10913711149271266,-0.35817803362497785,-1.3168998346055343,1.4392813249859207,-0.38624387175960523,-0.9928353105909158,-0.3314237023860976,0.7689807082633429,0.9535041487723807,-0.19695786468066476,1.375
0.23322121435478257,-0.7671180191378183,1.8034578564018844,-0.8824102754376925,0.11417700853000813,0.30280510338236993,-1.4138025645302725,-0.6321408472223272,0.7048205108375631,-2.5185391493744795,-0.04158587528148056,1.5803478473687769,1.7436989534910976,-0.22730804975842955,1.3828125
0.41458178185654454,-2.073892685751024,0.41300188112480757,0.897254121138112,-0.02874874026953604,0.40257618443287807,0.32319246923536055,-1.2990643698192188,1.177291832847454,-2.4576464693677047,-0.043046429061086945,1.4463781222827115,1.026167299043102,-0.19807428377327724,1.390625
0.09038070067855097,-0.745421792663855,-0.9944747363950864,0.8266003257227855,-0.12339584835329889,-0.3168330466374525,1.2498427534082126,1.0898628807615658,0.5215859940326139,-1.0469184461450036,0.20781623121367562,0.5744564239965616,-1.1085596533579214,-0.22589545763046973,1.3984375
-0.25483132349527343,1.3742532551227626,-1.192946011772821,0.036807284760249165,0.004775253331642372,-0.5394069606751216,-0.2374437817207955,1.9262160225529836,0.23867241715037513,-0.05864163661621947,0.2673947889673897,-0.0267726846082974,-1.363080132977946,-0.1757714832763817,1.40625
-0.07894578530740437,0.9673831685619495,-0.871875550095506,0.7687300873921832,0.15853856944790565,0.26187888048049884,-1.3487945920647597,-1.3243188347738457,1.1506025896813525,-0.24846385338919988,-0.781287521679228,0.10307323162011055,1.1893554088552718,0.055234250782515884,1.4140625
0.18185118433102543,-0.7063980282242597,-0.700200671182096,1.6501150458048583,0.0948237587555152,0.7689161603290169,-0.011633046347185634,-3.836991475883711,1.4118506582809986,-0.40905676520707973,-1.844582510182776,0.3012960388772908,2.8513235977869567,0.2507899283284374,1.421875
-0.03194034577255209,-0.24643138272029322,-0.3254059347803024,0.4980424953509395,-0.03963186909303216,0.20916288439775382,1.0475119062623028,-1.6602379595379362,-0.12711231798446868,0.4871388024197469,-0.9992953812849492,-0.16801410422291077,1.1540097330152015,0.20312054638915036,1.4296875
-0.19339633897008157,0.9108558960587102,0.7543250229760718,-1.2733520158961051,-0.00677190234637089,-0.2565547067072771,-0.42342004707223885,1.489868758598918,-1.3766916876686082,1.5504790029648718,1.0225921918465886,-0.9477601358259936,-1.3233629684630988,0.07283442913308284,1.4375
0.30930386009433514,-0.7275161905471742,1.822206443533911,-1.154013402531229,0.07302472223083607,0.14628315345886803,-1.7073290855361962,1.405802436451092,-0.5832644525091049,1.3140420024577357,1.612933749999154,-1.0162879342951834,-1.5349585212639967,0.03966876896074116,1.4453125
0.7702923635262954,-2.9811061135366095,1.1708926036293938,0.19970185252230407,-0.013484875020700017,0.24018692913243592,-0.2085929455945185,0.7038562991444731,0.5911052044986914,-0.05753391676492402,0.2778441612616198,-0.1529949987566139,-0.47404180546494085,-0.06568908918741596,1.453125
0.22656792568939652,-1.1614715336640777,-1.2906202676899112,0.5686438189697133,-0.15779412736797357,-0.7603404798090443,1.8995209767153547,2.5431359979808157,0.2820002217819723,-1.0540543986920607,-0.8870316230294715,0.7092762155340164,-0.5871637763093271,-0.33058003488807136,1.4609375
-0.8085645517788655,3.0279978617356478,-2.899319555669738,-0.054146699146350896,-0.15674821491168342,-1.425626137679307,1.902917219858004,3.547956729479142,-0.3812336331153636,-0.8600968435837589,-0.434838844164121,0.7116192423596319,-1.7854803916380397,-0.38467585590850834,1.46875
-1.0380602531605951,3.807797024427662,-1.7006640404411004,-0.12764217944229142,-0.04707533575201514,-0.4764823419094644,0.5699358335932636,0.25865588954927776,0.10621000534884459,0.03254220898716804,0.7900430797475273,-0.007580718957128018,-2.169182860947588,0.0018112669722606938,1.4765625
-0.27003319878221493,0.6779425808570352,0.6119142609478407,0.40903102029120597,0.05070965136536214,0.8837542509464589,-0.5540259544954038,-3.3708423849551465,0.7274161996313788,0.8287109966716958,1.132378346539007,-0.6915375817446618,-0.8204763463899057,0.38596696814905146,1.484375
0.49228901631905947,-1.7374163042827564,1.4802466419774276,0.2912265084712375,0.11017106715340683,0.9286160389989992,-1.249701918740964,-2.4577984105122015,0.03173056283526687,1.0314155362443465,0.1623446050678673,-0.7394985616669828,1.3545666295810532,0.30230973726244603,1.4921875
0.5453632962030371,-1.4769055745713455,1.062049649700321,-0.5259317559286876,0.10029088281510164,0.11485467852333736,-1.0778833300187862,0.34388061250935886,-1.1992852752522756,0.6461080202342874,-0.95726684906005,-0.2476748962907349,2.653854601665876,0.017770171815287127,1.5
0.2455150340751224,-0.7772964149618742,0.8403269701070728,-0.7314164973818029,0.025042827964108352,-0.048470680736876125,-0.044882249778571026,0.17493118566182872,-1.216800511500342,0.3773803330092286,-1.0593531593489671,-0.001542517035651308,2.1825496286975605,0.03212563898828816,1.5078125
0.20395855089703116,-1.0371557699709215,0.9610274962725952,-0.0365664446675836,0.01107682407351353,0.46947453216781193,0.1483459301988402,-1.63781312706497,0.1449932588605839,0.6252331153866739,-0.3716443733067599,-0.37603703391038545,0.6600988948390996,0.23317617627411938,1.515625
0.2731675059365471,-1.0242650083304878,0.8464923117802228,0.35388150562103254,0.07156015346767645,0.6237605066818291,-0.7813086641967005,-1.5579589597135735,1.2843864361259922,0.4348730853705338,0.29142184320177017,-0.48400282638717834,-0.5291318729967112,0.19657338967742632,1.5234375
-0.08798358490996527,0.2049959293115984,0.40701906816724975,-0.04340160242125809,0.023211421073381235,0.2061906433086654,-0.4284471610136771,-0.6253777506690554,0.8042377553422764,-0.9064479019230506,0.6674699261832874,0.44885406397641936,-0.6262108176640565,-0.04345064478074078,1.53125
-0.6361206361616305,1.552643158636417,-0.4086890795422895,-0.2623464494311699,-0.1315345814233584,-0.2418348246066466,1.4760466394202865,-0.6664654108414559,-0.6812680032494272,-2.0803222558626127,0.5077953338341,1.4913918572961362,0.26405530466676225,-0.18286415647235152,1.5390625
-0.5429860072105858,1.4141154997096674,-1.448796956017675,0.16746300176070272,-0.1586885876138633,-0.5986049305141669,1.972905791168134,0.35433120517683225,-1.270922140931955,-1.8130148446134673,-0.3375511063714993,1.4391754756787571,1.0875642992973154,-0.2656122419980741,1.546875
0.12776353724833964,-0.1142022072140937,-1.756201520007134,0.46148577621036624,-0.06618376164191932,-0.927844414371823,0.6262964346117544,3.2822317965229666,-0.505212259038649,-1.1409426555991762,-0.6948200096972524,0.8098328479944157,0.35207313045049277,-0.45522819902847544,1.5546875
0.42217758324456,-1.1985742374807375,-0.8096420131239468,0.1743749109378803,-0.06295239665362146,-0.8419881783976574,0.01972710413116776,4.324608147717355,0.1994223269876437,-1.0384522689910696,0.42730691397104165,0.4995179303153788,-1.60225658673783,-0.512973346265762,1.5625
0.1361194921761778,-0.5795711823346535,0.3484409450627796,-0.21710018833357,-0.04709723886890605,-0.19249326115182783,-0.12401880147982668,1.7160646050783694,0.2930448011600869,-0.26522578540078934,1.269913113883222,-0.029791618301620294,-2.135969513222945,-0.17022505692013667,1.5703125
-0.021827487806665918,0.8595393683796169,0.5469765118394039,-0.40180476820103184,0.17950519718592975,0.3441235316384944,-1.9076021254307527,-0.6665112213607199,0.6893746468350372,1.6644392946115876,-0.03464147379916741,-1.167790507823569,-0.35028888697625976,0.26922684719411744,1.578125
0.05572911328661142,1.5219725335487335,-0.05794141824060666,-0.29875921035587344,0.3385370554203525,0.2883150715878215,-3.2226663673779012,-0.4565527957830605,1.1801770905762308,2.584904752377493,-1.3920485379785514,-1.713620948039019,0.8199092818684545,0.3535515544149064,1.5859375
-0.1463722676277006,1.0925812791352927,-0.7463400995439445,0.4822967413457816,0.09951155429417424,0.17208745593871355,-0.9274867673198125,-0.6259126010592009,0.5874219839572778,1.463277324401358,-0.07801740494462321,-1.0249164254489185,-0.5625245963359159,0.213962725611912,1.59375
-0.40627654611786906,0.17363519983347492,-0.9990215808568711,1.5957297423437806,-0.21547932194122454,0.49332778397436045,2.2228604692880793,-2.739591917395369,-0.3471771305685066,0.3901828557493315,1.7880050024796155,-0.35353062644705346,-1.8432797682779953,0.23927822596913134,1.6015625
-0.1129240362701687,-0.8363112046185168,-0.21237982214468157,1.3783842271856073,-0.15961337238815454,0.734925196371293,2.002122382085427,-3.5175638619813143,-0.07132236553219858,0.6285810613807717,0.7031746036479292,-0.4332284038216723,-0.4607547624274748,0.3560444993363658,1.609375
0.3612499336107175,-1.4977784269607184,1.6368914448969658,-0.7675993286570961,0.045702289036337225,0.3593026535484887,0.21220930489071446,-1.3299838884936588,0.34676597613486343,0.7603622485015559,-1.6963955448740764,-0.33340039575382235,1.6296720339503599,0.2727519654802675,1.6171875
0.2865840853867964,-1.2645644412016255,3.047519615204852,-2.631456435977413,0.022431670559708274,-0.08640744380715767,0.19485844930705432,0.4862535304531408,-0.7772202471368026,0.11737758866034093,-1.5979229809125768,0.24648261264427054,1.8655539343432699,0.09022650497940136,1.625
-0.027927030234867718,-0.39759928032261155,2.405407958401011,-1.9928371118509436,-0.03954325095840816,0.04856912349923135,0.3024571825143503,-0.21140045010852282,-1.7404299696474512,-0.2963470091926277,0.1430601797623418,0.45101032787618367,1.323761199113475,0.03134887095784758,1.6328125
0.04506337426831839,0.22367795139264168,0.2209673105378289,0.04731756046965006,0.10365899874119272,0.22553006780261953,-1.2909406444431766,-0.6676468682570195,-0.19462440791922964,-0.7475524300229659,0.14038864202735155,0.4794729636597038,1.4889136097563282,-0.07468681946531756,1.640625
0.20642980543949627,0.3613215505559536,-1.4934845103871734,0.8820804798101308,0.17717706084541546,-0.32586118283066684,-1.8082691835941658,1.4505296330587079,2.0810173613427234,-2.136889893802569,-1.0949258619577862,1.1946862399571967,0.916337591772316,-0.4108479966642467,1.6484375
0.01324696895332392,0.31510161535671743,-1.8399518265356936,0.43057129538003186,-0.036784314643156756,-1.0461047912105077,0.3114759156380382,3.7984706383891367,1.8473495170755276,-2.9440416907948967,-0.5449885380405881,1.724508587304785,-1.3727474384025486,-0.6572227805831276,1.65625
-0.13893909810528382,-0.08926911736758204,-1.572346551568958,0.5823930150936448,-0.24285433697336536,-0.8848401494413338,1.9231758474905292,3.3255604421605747,-0.3995625840161997,-1.3898486020988465,1.533622157422834,0.7609914078574209,-2.9373703231213395,-0.47153886185051386,1.6640625
0.06867107935518876,-0.897913987740928,-1.2519822090817079,1.3689483153743043,-0.217308908798544,-0.1299795548789721,1.4901482503887788,0.9207381679117961,-1.9695490613997508,0.7536953142586441,2.1748268693682116,-0.5679643335931233,-1.6484613499976077,-0.09353203211819734,1.671875
0.10172053885951791,-0.9239669328077849,-0.6053979284026133,0.983516969419785,-0.13789955192325587,0.16274782816445027,1.2990640342809594,-0.7991123678347094,-2.086984889552926,1.0547194442841612,0.6614470559154771,-0.5529014660477556,0.7329813433529277,0.11138042585232738,1.6796875
-0.34930082888524183,0.8026930205715953,0.11414487700637349,-0.4593178626843849,-0.0659208026844493,0.041931339461089706,1.3699673863941095,-1.5899038782584776,-1.266606007905806,0.8193852089523745,-0.9707501321339209,-0.19720881558358933,1.494003282968563,0.2582235387608574,1.6875
-0.6257090681535533,2.7810482946147577,0.030775596174703157,-0.7404356370817529,0.1519487813187962,0.28617819938629735,-0.7435186724641588,-2.37733797450434,0.33296728759144756,1.9515171639376432,-1.3019293245636405,-1.062879008988008,0.8271231594300016,0.4911330201133845,1.6953125
-0.22542347065657872,2.4062894587890136,-0.4554545887734865,0.39756688264063134,0.3552667349894332,0.6983816976847752,-3.5215432712454997,-2.263972647781538,1.6227224306675618,2.4171884177801246,-0.43891009359478217,-1.7311544862683403,0.28023400239866064,0.4594539245309253,1.703125
0.3289587632632561,-0.23026077214736865,0.1858560563003579,0.6887016491867025,0.21262987642424463,0.5270775958474215,-3.0286384669127124,-0.30383665763033413,0.9949290057466782,-0.03991512838077388,1.2672162270155378,-0.3222629071463031,-0.22667861056414745,-0.05331085841893496,1.7109375
0.40165306259244044,-2.1031798546668226,1.6872060026087692,-0.42827840960874636,-0.10191505339563992,0.04638796862246371,-0.3110352694873818,1.5278994690619114,-0.5397602421723189,-2.682200779070197,2.7501814338613975,1.4681942087100628,-1.2296211025413475,-0.4857294857217909,1.71875
0.15436073696411245,-1.3963744723544884,1.8185494168905023,-0.9316025130070027,-0.12232331672057922,0.006899180185264699,0.5013176468842526,0.9147198203237267,-0.19404186345488916,-1.70976375365079,1.8524228660113597,0.9558720853417629,-1.6003359681498301,-0.25076836924117557,1.7265625
-0.004936614279978326,0.2802134368530968,0.2709612705121664,-0.3135452556704813,0.09365916554270681,0.14925063526196447,-0.1778167553646046,-0.8322182178962272,1.8146855321548505,1.2339069598707944,-1.6196488363863109,-0.8061425409104858,-0.3950791988832616,0.3055488259225622,1.734375
-0.08873611876132562,0.5948117917383806,-0.3934832433199334,-0.38954992300444646,0.08358213318530741,-0.12171283821421991,0.9887667217447438,-1.072466579918101,2.179275714460875,1.8077149180207635,-3.987925627863573,-0.9288373481483572,0.8793954577681011,0.44889958628521165,1.7421875
-0.1213657720462126,-0.5897793622494689,0.8200582955165797,-1.2764828592485253,-0.17386272873849132,-0.4131626754455968,3.054823969077417,-0.048458021804592695,-0.058422111024659565,-5.0802592523084036e-05,-2.3506136676056024,0.3750650766244724,0.6399626428129128,0.14282812457861194,1.75
0.13994726302812013,-1.6984347512352216,1.3736269090729538,-0.9079364746516838,-0.22547719549801443,-0.20321073948498955,2.168026396248567,0.7050374144669719,-1.805847828070424,-0.717044146747055,0.5944025042616546,0.6457350710515545,0.051108141591901614,-0.11951913378814362,1.7578125
0.5020522359367913,-1.242798659614268,-0.31628194904016915,0.6988602097670213,0.057395299459779364,0.020637940371304033,-1.2360360665234655,1.2101794302416353,-0.8374053097370684,0.42715676427977606,0.5928164351474631,-0.3698552585048021,0.6379279556001792,-0.14467620280762192,1.765625
0.2516116899671022,0.8532387854702385,-1.9159608952748461,1.0958349655008424,0.2585997786992672,-0.17096533195747915,-2.645008242903254,1.203907839457168,0.8688711047566599,0.943132373648891,-1.2830338970187098,-0.7006020361656707,1.308509710481782,-0.06798512003974147,1.7734375
-0.5393160509647328,2.4880842109200074,-1.2299289036555605,0.02415901691705236,0.09052611020140748,-0.2111127088312734,-0.443339738371655,-0.4983664157159525,0.5387579008657218,-0.2946777145970442,-0.9652623750631063,0.2938995576824322,0.7312290908653689,0.015994553700453423,1.78125
-0.7107930207063814,1.3177610988357138,-0.010870690079278333,-0.007251449690091614,-0.18396920685467105,0.16061028512239525,1.9299287084567003,-2.2514117075666316,-1.1110264721441527,-1.7323260404579048,1.3154347759799048,1.2513873933663073,0.053218924811503525,-0.020179264350588005,1.7890625
0.1210418216979583,-1.3652094292762411,-0.6686407525891084,1.4622500847854478,-0.186366470887625,0.16630465422628565,1.2370691010449792,-0.5676833803374711,-1.4657634567135158,-1.8582712056173587,1.9656043681638784,1.1276506706663294,0.31921345402919077,-0.2875702935554954,1.796875
0.6867937236460582,-1.6538280071254314,-1.7867666697205689,1.7303267714351853,0.0308573052600862,-0.390789267131732,-1.2473595826317418,3.07050682856583,-0.3575163750968274,-0.7385047710812354,0.7769888610859621,0.23873407048780088,0.13159503294483646,-0.49230196358994366,1.8046875
0.10053439271510328,0.7652410837614017,-0.5904868488425182,-0.22877499731536696,0.11765455390062274,-0.475813902140785,-1.9732617277289652,3.0529890729201536,0.11867855742505347,0.513930712401643,0.7598254295700367,-0.516623357275431,-1.4128024409964852,-0.23255012203930342,1.8125
-0.656754370117877,1.8128884789351498,1.8230170850820935,-1.6942692204291194,-0.04414228331767291,0.26455706901761716,-0.03273686009778948,-1.0217146616415642,-0.5837863399165462,0.6767740636492473,2.17230491296244,-0.4784813880129103,-2.4726989965498642,0.23430507106646692,1.8203125
-0.4688948727922604,-0.04540480256632803,1.9142874369684075,-0.6293063607450776,-0.20536807112874889,0.7136631925657477,1.9620551225859202,-3.307837375869893,-0.9169092364527398,-0.2025626582184612,2.167949707544973,0.14827269884899072,-1.4311399476290638,0.3016710483642709,1.828125
0.18471285552265554,-1.4991529073585115,-0.3031564657959435,1.0517222457468718,-0.131902190057371,0.25199139644200846,1.6134067580202764,-1.3479017726201377,-0.21510827181455794,-0.4733183234117742,-0.04954606164119865,0.3321226065683269,0.5544779886634144,0.03286581661335684,1.8359375
0.404839514134124,-0.7160459939161823,-1.2091655621158708,0.8313110841370668,0.09362445229423956,-0.20385118621332157,-0.3890381901089765,0.7874030392006772,0.7151877257509186,0.7797952211564632,-2.0902551987660822,-0.4484813302869815,1.4367673243928336,0.008824112897466565,1.84375
0.3095361723493361,0.0288818765890013,0.23368394808045764,-0.3823408276733247,0.2273263804143675,0.09620328086463321,-1.7182245833206025,0.14994443082108763,1.4778993342030404,2.1931055471046204,-2.176115821435395,-1.4086779259100433,0.6680431584453129,0.30091387383984336,1.8515625
0.2742339032245304,-0.4168660904798331,1.1220816078459088,-0.41295336511466085,0.17937973133858795,0.5181695250063243,-1.4174634382571045,-1.1193835196904678,1.904073946775811,2.2819845465706394,-1.072332934116364,-1.604299886997619,-0.6783527624466951,0.4415854950986124,1.859375
0.11152963094125802,-0.20429788741509844,0.344760765098031,-0.001385813882019668,0.0681525218407175,0.2533708508172155,-0.4814336501595713,-0.5523574866465933,1.180428093732691,1.2303777701062009,-0.38129370439670207,-0.9034007821309857,-0.8975064973781801,0.23292149351343866,1.8671875
-0.2397077660406053,1.116400736053626,0.28833427137129153,-1.1678962843454976,0.025935705969103377,-0.428355831905845,-0.12930420846740148,1.11700515496534,-0.4129035321128742,-0.4384302491448103,-0.6260741831605342,0.44822338613658375,0.5547737697402364,-0.10817475381595787,1.875
-0.3925280219959897,1.6616307678329738,1.4922322248681972,-2.749470460325784,0.04919308292934274,-0.7329585806855674,-0.370319433114542,1.8729101411529405,-0.8553286319156764,-2.292135421114788,-1.0647366088506773,1.8191847341429608,1.9091910547700082,-0.3467652078685353,1.8828125
-0.25418464170809474,0.9245397098489931,1.2751735306093477,-1.8666825312190198,0.04272116633124173,-0.41459386019712263,-0.2545782892264406,0.8512896319881872,0.3447236775140854,-2.780783248930182,-0.8616762554618901,1.9611927388762211,1.356896416869879,-0.3231608638147433,1.890625
-0.10806162627495011,0.05060076293918961,-0.8370589263681402,0.9109165375130608,-0.04448134726125008,0.09431849931508397,0.7430222307966466,-0.9954059489081607,0.9189858722183254,-0.9711198467244023,-0.1509017660451264,0.5615503749261603,-0.13574255330508425,-0.03548667266966768,1.8984375
0.00759939434054241,-0.6879156806785804,-1.9597193217677524,2.314449702325939,-0.15350298549937014,0.28572749871714165,1.7743812616032102,-1.6146980703405096,-0.3083457790147385,1.0017366409189028,0.5385553361468713,-0.7146791425833245,-0.6607585874410611,0.1772838284476529,1.90625
0.18320777620642553,-1.337372340833767,-1.179179557488837,1.6661821688394736,-0.18101089568601805,0.1303680401316031,1.538266519771495,-0.3448851681025656,-1.5549722627351568,0.8647380818263293,1.2606702465754294,-0.5868890186743083,-0.4935081151293214,0.03335817614208891,1.9140625
0.23493954827543206,-1.1737231908244088,-0.5106561064249666,0.977358843020778,-0.11252549449479197,0.011069720565638546,0.3591625880174001,0.7453227836217329,-1.39497348766311,-0.1675737240232893,1.8005051787049413,-0.0012764833501153871,-0.5882350675222001,-0.18023850219277016,1.921875
0.05919502327221596,-0.3812067845053214,-0.43924229719220104,0.7068446577292025,-0.051174913139683725,0.06936862571915516,0.06939207517228999,0.048211683679712285,-0.6411747245456669,-0.3694679398579186,1.1253905086972793,0.1573050874092031,-0.2431122053014624,-0.1103925131251268,1.9296875
-0.0688750858411023,-0.17567648278002201,0.11502846471010783,-0.06627030211724012,-0.059158256279127096,-0.008809121218471022,0.8889497706150382,-0.6168898240427759,-0.26070780181381603,-0.7525872335855428,-0.40226124072747416,0.60028440645452,0.8321970366071763,-0.025556703065908334,1.9375
0.043700542766202374,-0.41222582646904204,0.36908211732689283,-0.505894220741026,-0.04855161832494679,-0.2791150156730402,0.5384360166108005,0.7649989655509062,-0.29591475815014995,-1.593324865010774,-0.35082502624680323,1.1283749597322499,0.8795041341745028,-0.2395242165375926,1.9453125
0.21769745274212793,-0.06602408809208106,-0.7550872914878648,0.5742920850948441,0.05371220438066313,-0.2405274985891846,-1.6556418424908832,2.2868635320022244,-0.5666292344931615,-0.41466384811118145,1.6922579590886444,0.04158564451262815,-0.8261915073864453,-0.34272370955815046,1.953125
0.22915935875277052,0.4605384151009805,-1.521609080244718,1.60150420058688,0.14910307373264875,0.24807467602757027,-2.7430746820899072,1.1060239225180266,-0.30732125645943337,2.7753474108195384,2.266545855614643,-2.1841203981078805,-2.1741312686781358,0.09444828651425048,1.9609375
0.03459543728033093,0.5745403189957173,-0.18794535773953477,0.4159233483531,0.1494676923965059,0.503821275205488,-1.1966314252654366,-1.3170814065034835,1.264973707427263,3.75319833106438,-0.4594878159452283,-2.570074940625115,-1.5489376535314001,0.5852903184829144,1.96875
-0.26940439276607603,1.130976421875956,1.7003335853611854,-1.9673445230339446,0.1422269743502087,0.12524629125858858,-0.05467337154679943,-1.4506547408954236,2.636884625977534,1.0206873755010302,-2.86144978905271,-0.5197017634595281,-0.08272051012075142,0.4507726520718374,1.9765625
-0.44366076053137327,2.022287116701453,2.1197566296590784,-2.8558802386414204,0.1648768212710546,-0.24825949257117605,-1.1785226761314043,0.22342623248651217,1.368121976102385,-1.4530699329086587,-1.5122420740060287,1.0989058870121942,0.7284487017067222,-0.034418880861699835,1.984375
-0.27239992415439257,1.2545116434065504,1.4490323643805125,-1.6015835184633653,0.07907500159600314,-0.028129452998083546,-1.435318707389065,0.2905640628196465,-1.3163040762157177,-1.0812826982664652,1.026596841384093,0.7966024967343597,0.9969967820019187,-0.1594609123735429,1.9921875
0.13003390888246413,-1.1986915334356232,0.5556888404616536,0.26157671166362834,-0.10631702633475289,0.31057835425764063,1.0000480888709458,-1.3190975925637274,-1.5727610008263628,-0.17645407036073107,0.5342462741339778,0.2424326641943624,1.290246649867853,0.047714588438635186,2.0
0.4025629395934297,-2.487184272405194,-0.42190637406372,1.1291128103646808,-0.1573436941177539,0.10803148484244907,2.6963722360847906,-1.3872289922210481,0.7152528721652393,-0.7328349463830539,-2.0173542358350995,0.613521271497139,1.4792514894337525,0.05996628411492806,2.0078125
0.32031877364925176,-1.5177109345451143,-0.6857433962813709,0.5341349326257909,-0.06674962095988826,-0.34433138509318595,1.713208530891242,0.44783147279989105,1.6406413673968563,-1.449991825203355,-2.5041711072630957,1.0233076141608843,1.0405320274184264,-0.15052738681127198,2.015625
-0.04600214899471717,-0.31913033123957507,0.35347766638647227,-0.5819763891679458,-0.09704364541636705,-0.33082343968015593,1.1355679528793585,0.861588013295664,-0.013907288873920325,-1.1436682096077226,-0.23107058170701072,0.8108586837256995,-0.23207383001964327,-0.16522296923296123,2.0234375
-0.40071266023201,0.06912920554177818,1.281133594348882,-0.8526656360793973,-0.21403114271464532,0.13520329894349944,2.0398117211804636,-1.0882183302947377,-1.1551545676592625,-0.34933112723247606,1.6002050525597975,0.3007680164582117,-1.4621489004689543,0.09640901296976749,2.03125
-0.4048604196396884,0.650696897095182,0.6543760609803002,-0.33542252571906783,-0.09926045831000029,0.324717352604635,1.1486610599077849,-1.8514141583767005,-0.2863001213166256,0.6155370914180329,0.8722579590792381,-0.3689200838883982,-1.1896103187212492,0.27005347767064647,2.0390625
-0.04525003881220692,1.2935155630959765,-0.8600941444436305,-0.02007029610113142,0.16273637303133592,-0.1964031175388995,-1.527053940381987,0.8631694029565726,0.2882469198741629,1.5100797539337736,-0.938487757151989,-0.9547463908336736,0.3293492588451664,0.09533027207911539,2.046875
0.22588608270290483,0.9313736333408735,-2.294024165360499,0.5317040718542998,0.15247282492017053,-0.8727539915853549,-1.8313697206564912,3.8722455134862073,-0.7488303541753267,1.1408190460073393,-1.0466396038508277,-0.6880150916648977,0.909849156900682,-0.28292710319112463,2.0546875
0.047626898330085134,0.44221241427797936,-3.4301908099944765,2.2295266195750565,-0.06676110636349948,-0.6769295915213749,-0.1337652644540392,2.7599644432841304,-1.5084809783123598,-0.6065724336420498,1.2528157522550762,0.2908536498764505,-0.11226208253848169,-0.48822720538489306,2.0625
-0.26436802124596087,1.071788218720156,-3.0873700284310797,3.418726740266974,-0.02547979663487441,0.4683884925118433,-1.0754630997411543,-1.4672689268207653,-0.673609349653941,-1.5149803934951516,3.6555577498706717,0.5717811376483976,-0.7813585923079298,-0.29598266275060875,2.0703125
-0.08799833776931551,1.0885251035517431,-0.31411192628614815,1.8066373033245973,0.23335973278809066,1.2508759033563603,-3.748390889289125,-3.287018516953455,0.474998112083033,-0.19383091765946828,3.330910666804269,-0.3586523061516372,-0.2867569869155344,0.0915920834442369,2.078125
0.575472698176328,-1.4656093855552714,2.5040135519633693,-0.9765667819324864,0.2015959654037229,0.6901475198704962,-2.560320819096986,-0.4789528615833591,0.7654227387893263,1.6065529944831645,0.4379634030984922,-1.2419328254002941,-0.3201473635662396,0.2613222384887722,2.0859375
0.94989577460857,-3.9985165675196757,2.205395598247059,-1.44025865178595,-0.12126896854863269,-0.36617953951075677,1.7839242623396105,2.7009645161230775,0.6019456563051944,1.7424461836225582,-1.8647028466928375,-1.0571167682590603,-1.2612098151230466,0.12311392866483997,2.09375
0.4872992316223173,-2.523796118106691,0.09225020202904216,-0.20040410355244892,-0.20228669505270652,-0.5934655248171812,2.769571812581279,2.2173726698948997,0.3687205969667783,0.6040855749951413,-1.6441713814175325,-0.2845529786749151,-1.063144164521244,-0.02830459029402391,2.1015625
-0.29937683462452674,1.366384976182767,0.019490127678321416,-0.6529923361628327,0.06419317339357673,-0.13805532185989158,-0.3675593268287353,-0.17288022874570497,0.12050032602471993,-0.28270250196731544,-0.7073470635301463,0.30006977652051886,0.739589514852767,0.01045543964497546,2.109375
-0.5149583723283856,2.4106415663448173,2.176779146177459,-2.5767022056287963,0.2184551696521745,0.1546175488323848,-1.7873213042264158,-1.4079229884073292,0.4845044336611758,-0.7095166334526,-1.2473531000488214,0.6883159936460191,1.965506021168264,0.14453599218995636,2.1171875
-0.21309291079849138,0.19080087426611891,3.206375073946427,-2.733441004039326,0.06227629058793597,0.24905107001062232,0.4257327128453251,-2.0082943871157375,1.3770040611663177,-1.3141874505086413,-2.126495347696756,1.1099420539953626,1.5645178217454787,0.20967784416362395,2.125
-0.23423916798861477,-0.6168801234670062,1.6496531884402652,-0.9836018082950346,-0.1393621663719218,0.2571169624777646,2.502259354742732,-2.579959794162669,1.029339382641762,-1.7969419506536204,-1.316853667024214,1.3577569480793048,0.7312701141204563,0.14130689095172244,2.1328125
-0.6762265955718103,1.1634994827904297,-0.46564757259283696,-0.06575576427423739,-0.22633442365537426,-0.14637168309624654,2.837093487685085,-1.5370570824011833,-1.1424523287084523,-1.0973905670207245,0.1848966710117784,0.9651249330480094,0.18421425754604148,0.02337561340848287,2.140625
-0.6537507074599209,1.5409105901320628,-1.1891800000695036,-0.15065138867127834,-0.24611312791472237,-0.57480006238448,2.716755537315902,0.49250033738874893,-2.6725986914848914,0.7287474459058638,0.5033534647765716,-0.13867542610240494,-0.38426167551255674,0.027900102162102765,2.1484375
0.06367060225553399,-0.5160607761618836,-1.1191206122583746,0.7651625893038174,-0.14918621653159875,-0.2555525393901214,1.4320052761815742,0.9561768481844642,-1.7234463952380359,1.8687194816484904,0.472370694737113,-1.1190314643266115,-0.762914559189211,0.08761105433823925,2.15625
0.4749329338325607,-1.0157082713044514,-1.6336760624326894,2.032326326187809,0.058861568442604394,0.14957306311577528,-1.3822278375939236,0.897783881704123,0.018888956169373698,0.8249771786174548,1.2178329321429304,-0.8353809558146198,-0.6942905055749529,-0.11222897831811364,2.1640625
0.07700564547607604,1.0543101549531573,-2.1831404385974746,1.4929813468958788,0.1560374624406804,-0.28971278835731723,-2.633317464334873,2.1898123608421187,0.7356503011651412,-1.240732795859976,1.377735867802576,0.4445366387393226,-0.7157842700615882,-0.4640673067083792,2.171875
-0.19095026089470554,1.541880429720029,-1.3336924046976448,0.3008436538241486,0.10294695850546236,-0.4735878073324324,-1.4678096210567988,1.9761455861762616,1.2884138890266295,-1.6187341632874939,0.3844179124426286,0.8351203685030748,-0.9604665585762622,-0.3850433563043736,2.1796875
0.32008609802572535,-0.7491145841196742,-0.0890286844942689,1.0275341505085684,0.12794006245217093,0.546461467800252,-1.4221893310931468,-1.0897145074361847,1.9936280557021477,0.3244783008196548,0.1918998901005585,-0.5243826375430253,-0.7746960730761898,0.11658920538038041,2.1875
0.7325329317340017,-1.770132510666637,-0.6391457308596722,2.3348719418208472,0.1942199618816343,1.0133967768872378,-2.5213556408541686,-1.8092728081246356,1.0040529474947535,2.282434964954652,0.8228012999662057,-1.869732857882057,-0.07492165585413524,0.3018556329000272,2.1953125
0.3733141843800976,-0.3721077049290616,-1.5955586545590617,1.2848799093092504,0.07818532333572994,-0.09475053542563343,-1.1471246619224527,1.2174424978922624,-1.2462617591174885,2.213916179089047,-0.030503886211530343,-1.4406230428805926,0.7189106100047779,0.042233272402069734,2.203125
0.12646715196591385,-0.27259172970658696,0.11584226762467127,-0.7173727466533781,-0.014189010714504059,-0.4199769364462166,0.4607039553855828,1.284085229508398,-1.2678573500629324,0.604604753443658,-1.300895433533354,-0.11825430284325238,1.5445774619014725,-0.02599296697869254,2.2109375
0.49627370984138663,-1.7561668060614368,2.5299204070225545,-0.5176876367003425,0.16751614584864075,0.9462880753082403,-1.8879890923284515,-2.467285690547168,0.9499222806867315,-0.9740863386536994,-0.0029330563504372928,0.5142725755104534,1.8909830560813963,0.107462277744626,2.21875
0.2506058192431076,-0.572699548648563,1.4131692617628993,0.22695534889908814,0.18535933558314435,0.8870146033703425,-2.694883229583939,-2.0532738454468804,0.9434520691277802,-1.6185686488948758,1.502788046994608,0.7503093995971117,0.847451122245171,-0.071351931327677,2.2265625
-1.0295514180412804,2.8431139530249214,-0.8408414454672323,-1.9309702083645957,-0.28212772706985983,-1.442279038750729,3.595599866819521,2.7266937240662332,-1.820572615265997,-1.046431035388481,-0.867792471813842,1.1676918310244397,-0.8262858927328675,-0.2487226394596276,2.234375
-1.3823572298861142,2.8796193115991264,1.0751821565554105,-4.7014032605056615,-0.49306991035652625,-2.047420105725352,7.257747499963908,3.1952325950855873,-2.1667562691371516,0.1567937402242729,-3.466949940511133,0.8915100140974552,-1.281825948544647,0.08258513925209532,2.2421875
0.11441463201098875,-0.6590062507666411,4.327408231829491,-3.261876648981733,0.09808321032563165,0.35879130245743873,-0.9156463482406538,-0.42567462170262027,0.9510890820762735,0.3787257946631328,-0.31462818535514886,-0.21390097387113188,-0.6999165003879665,0.2625993824555661,2.25
1.1038191267822568,-1.9175709949331352,2.405134356354698,0.8355636012842798,0.5147404375789754,1.5652246927215174,-8.109847245451608,-0.5458218176848623,1.7659561781791866,-0.8116364401838083,4.504682480863876,-0.41457731362508127,-0.657721751091711,-0.23624406567043024,2.2578125
-0.04768955936810719,-0.2152936180525916,-2.0724826818646966,1.9750816025456508,-0.16308610621854808,-0.1803647870509272,0.7364131390721926,0.8488712940409974,-1.3417818041015797,-1.3807222853067784,2.4168054861493937,0.719303144264196,-0.9071585587354187,-0.38581015133221896,2.265625
-1.187382859032272,-0.6126531829203409,-2.1098603416912045,0.07299038723798608,-0.9764341884979322,-1.2928848829080901,13.756439955383573,-2.248150906638161,-2.1987647483159836,-0.21406943722828303,-4.360189423714877,1.2372818380010653,-0.27771436698821306,0.41370480043895985,2.2734375
-0.36059134170233964,-2.796314912281596,0.2851152960397523,-0.10871751928339835,-0.6421758152471491,-0.13829351494608536,10.712836339870936,-4.811296070469384,1.4559931776492097,0.5363818683664608,-5.933182855674415,0.4388969179748935,0.5651594593556039,0.7986456528699756,2.28125
0.7409954919999459,-1.495370480852007,-0.9457997752634686,2.2336124761091383,0.2817455167378731,0.7397428398848042,-2.959249276081249,-1.2641488736869027,3.348416296867202,-0.33902765849543426,-0.6621573554311716,-0.248570913955356,0.5725415548826367,-0.0012213591173729022,2.2890625
0.41063313420111247,2.196030516266457,-3.266743304640541,3.400053620975657,0.5899444260219726,0.6252818043316649,-8.838671753631237,1.3333054180467607,0.4881421503828769,-0.14309299020363345,3.9745665894470035,-0.731175729919189,0.46393707927214894,-0.5020390375961888,2.296875
0.04872123004287964,2.3279034437894386,-1.230314474907369,2.0968727749256812,0.45734409950249044,1.2178269805650057,-6.968874772139179,-1.834147075668235,-1.6185556477298038,2.392289193730881,4.158640964081885,-2.0268189447044636,0.8451202157603621,0.1343673612854615,2.3046875
0.6949794485589973,-0.10560031063076336,1.947687160590387,0.28705993937077307,0.5459451333620031,1.5885678494349913,-7.446526886594699,-2.0014158796348647,-0.15696561866382067,3.4153505526126136,2.6865724911890507,-2.69496080582733,0.827906079032631,0.4126455017050418,2.3125
0.6394826745954401,0.8195611053136935,0.7165237593517786,-1.2191532577072042,0.49699881828109316,-0.3364704666869293,-6.954011391950508,4.926879072595864,0.3238548138846165,0.49194965795001816,1.118130691453322,-0.6923654090112598,0.12238120136067905,-0.4537977464722321,2.3203125
-0.7999331478198255,4.025497679096623,-2.2246020554305166,-2.4896019419194366,-0.06696223889457106,-2.6308234121195904,0.6583688521379977,8.329760072011274,-1.585236018965724,-2.371297125771292,-1.5122846349714871,1.9436831575684659,-0.34712190050519226,-0.9324917386191827,2.328125
-1.3302425656088626,3.208844448223878,-1.7012261001201903,-2.0935344261136373,-0.4292340453101618,-1.9563963718652086,6.508934099219747,2.553138475829518,-1.084884304712454,-1.4777226679262008,-3.4176995710519766,1.7371116919994842,-0.33942096924016596,-0.1820193916017798,2.3359375
0.11018747374093735,-1.5836841120635183,0.9360130214615976,0.2927926782780222,-0.0887567378616568,0.636826275358041,2.225877242802805,-3.347420911577238,2.2014726080428257,0.43571490131335205,-1.7426731620857798,-0.2640376205535205,-0.27503616758719474,0.45978857947134943,2.34375
1.1570372851242334,-4.20995167417317,1.8055356055527965,1.698742289895914,0.16082632563359558,1.5301657606458758,-2.267484905604414,-2.9986960846389743,2.5342143672774866,-0.03447910764658995,1.1668469558819083,-0.5432253982518824,-0.199246269318615,0.19859865598714596,2.3515625
0.11212640027040341,-2.3976376355010385,0.8472768787422599,0.15810589259003832,-0.33567412574007144,0.07933372609659857,3.733752007961354,-0.9975081470372652,-0.8923396800568798,-1.1201683926205759,0.494665657866714,0.8409699712586154,-0.5120251704862319,-0.011223040095826682,2.359375
-1.183173683889909,-0.07584840470612735,0.08456923108599543,-1.8989219505943606,-0.8557476378977571,-1.3186547426789286,11.368493507016906,-0.5060073969487409,-2.6028851935380244,-0.5686461222397459,-2.4711314468960373,1.3102190488141399,-1.527013006140948,0.24496270039933668,2.3671875
-0.5030754208776609,-0.9831769578101853,0.7009457796507947,-1.6627820712686678,-0.5520491967920328,-0.9421668236094296,7.372781466675766,0.5957285983331687,-1.1213501524655036,-0.02875992101751639,-1.9412974406288444,0.5788645373788928,-1.6751064730624359,0.16268505153064575,2.375
1.2227505401624201,-3.805824470896979,2.537818886209035,-0.11329118848623645,0.16633211843561033,0.640548225438019,-3.3310701671786314,1.2499883221109689,-0.10138759340180929,-0.7190437535304902,2.0472525845887035,0.07031712832762693,0.4177405772062333,-0.2798205222447094,2.3828125
1.431129418321518,-3.521408771532989,3.188966483766837,0.47027580639011984,0.4489113459732041,1.605109715648187,-6.98031322587244,-1.179940636053801,-0.2254748041227354,-0.6332491676434906,3.1326776833920653,-0.15734001710465692,2.599294135610665,-0.17555826221745416,2.390625
-0.21763962191024555,1.815522666838615,0.3404103305557885,0.2124637079752787,0.30524523067458836,0.9351609390424992,-3.018913073734348,-3.59104059358988,0.6812838217160612,0.9272407381423432,-0.2805490589000543,-0.6326481060922293,2.150859659741814,0.37589850648305506,2.3984375
-1.3565216031980085,6.35676871174968,-3.3741880478836777,0.5392221420506672,0.24110140782356945,-0.25076530345559256,-1.1834475674180265,-1.9439298363160096,1.7155666013545559,1.6040235151788096,-2.1586018850502096,-0.8792599960990393,0.30944871483496283,0.382771245444017,2.40625
-0.48098660269820304,3.7008108317791035,-3.284150051057904,1.475547948053667,0.2581935743447616,-0.30953498879360625,-3.1387519834690494,1.173932262951219,0.8008563499050706,0.577882725059432,0.5039799557728081,-0.5997584392838263,-0.5284340441037886,-0.14996572828695154,2.4140625
0.7360595959004258,-2.1909257319062165,-0.5351467291679062,1.804059772367982,0.03560088348841554,0.3269377738922051,-1.9565473940815714,1.324941220771672,-0.6289211490956054,-0.17147008311514964,2.800933209874641,-0.3182856864879431,-0.92636612523476,-0.3035106451533811,2.421875
0.19769279298763143,-2.1697008610965356,-0.006126719968318443,0.9230194374007071,-0.2739776740768517,0.14074297860791204,2.826303357708095,-0.5769850827254277,-0.5535827296000199,0.12377756743188269,0.9720541081513234,-0.12493996303119335,-1.541254759483099,0.06036429860712283,2.4296875
-1.1000094883196299,3.061750108388461,-1.6283597581510763,-0.36718150883956446,-0.2023253402136144,-0.6141741767936432,3.486743993816613,-0.9620406564554813,-0.014596944231405274,0.17759990035995563,-1.5787069434716459,0.2519732333079984,-0.7198151558667316,0.20818502163415473,2.4375
-0.8371823982724566,4.431006204492004,-1.5050159773408793,-0.8584522906624477,0.20240738616087647,-0.6306404952731636,-1.843009473659291,0.9691695495460961,-0.14752723882877886,-0.3286657893729509,-1.0325992030162572,0.4110938978715518,1.293604267438934,-0.12450511123425109,2.4453125
0.6181847394102143,0.059966993105272405,0.49326037569212844,-0.599972089250868,0.3741450556319593,-0.17170055051227445,-5.238309048061472,3.33129755196436,-0.07656232623174718,-0.3875943645190598,0.6642388432827361,0.010537097624530627,1.3521521471836357,-0.43104162476380053,2.453125
1.0329900181198965,-2.992297033054884,1.5801944950664257,-0.84436666449019,0.09233704903103283,-0.28818660124833445,-1.7768851157091416,3.8239405749155817,0.3017056504940165,0.20901619550367342,0.11029998214896071,-0.3416423941928103,-0.61402174216995,-0.29499503110984937,2.4609375
0.1510889069337256,-1.80804660516376,1.5885469991044525,-1.7077258576714685,-0.2381902897280623,-0.5368758424368941,3.408561346326441,1.3666343906569847,0.017336260944613702,0.5852273504752794,-1.7612731193851368,-0.10839977291684981,-1.0810434141609095,0.12372104656407693,2.46875
-0.34670335711420347,-0.7441116513891781,1.6762782473008804,-1.379076786825219,-0.2791869774596079,0.042920198395067194,4.309500978038977,-2.3146736883634884,-0.2189201520357059,0.010060580805119344,-1.6746553044878822,0.3952981579956694,0.15694952523615066,0.3674926895804795,2.4765625
0.06909668078399848,-1.9364646979571876,1.0602968088336135,0.8278158420587217,-0.17899788339981038,0.8555060857604916,2.15568884105563,-3.7489216688662803,0.5747051506760114,-1.1826534905101074,0.7290241311064081,0.6941816945682823,-0.11727781443095545,0.19905455784630782,2.484375
0.3961535825009073,-2.4162397250702914,-0.5526509007845427,2.4626769552461045,-0.13547311278296365,0.7396795916226557,0.6763177825529256,-1.8468530698283698,0.7793540456628525,-1.4783268058572878,2.427829038229279,0.5326491980136616,-1.4652428631366647,-0.11952540995063561,2.4921875
0.16160231948469694,-0.5540219604132868,-1.2109192305772252,1.262083669287404,-0.06088240054203751,-0.07659085093585288,0.040763167188676626,0.8264904637644764,-0.8114221938039649,-0.007546893150901464,1.2281399156223471,-0.1171059364731285,-0.5123498322603554,-0.16749526222550448,2.5
-0.13469370943618306,1.4864471842296099,-0.2925462991225379,-1.1605217603974534,0.10546579538032168,-0.5816788363624317,-0.8423903353471872,1.792931630292405,-1.6533859739977996,1.5222550990269208,-1.4732453973664394,-0.6471767218883354,1.8528840443472971,0.02713245619699234,2.5078125
-0.1320413687051763,1.6265201499024222,0.26411769198485735,-1.6832360847345111,0.1898236375479898,-0.5194950356554721,-1.1500695786923925,1.3196020885508586,0.20528284710029923,1.1026857642213146,-2.7792207479637008,-0.4061204459836289,1.862940523107127,0.10034600863859486,2.515625
-0.016248207135104636,0.4478832476841674,-0.19698545061942208,-0.3907129900681629,0.07900930039541881,-0.25651016775904967,-0.12017007382270552,0.5149974479245669,1.7169970790774929,-0.13551178962119048,-1.8153061944411997,0.11058863243757927,0.044931256954923206,0.017226985456974063,2.5234375
-0.15309525447625189,-0.02960667507489809,-0.13848832538979913,0.22337074870347584,-0.09601428069008155,0.0511980764542,1.1860634324648145,-0.7868759812922688,-0.1470548347379135,-0.21506716981760154,0.1487465289915802,0.18044745240109797,-0.27497344146890074,0.05102389580576385,2.53125
-0.5551071015199146,0.8429774461318346,0.6551805546389515,-0.12071957536716255,-0.16067001696985544,0.4822402642770278,1.363703707843191,-2.8335038855309307,-2.472129259934597,-0.22633241822878478,1.9583751378997243,0.32595742171399456,0.5719433609511704,0.1675898442322413,2.5390625
-0.5749123912382355,1.161946518707697,0.540653555247793,0.6698655323790755,-0.058138096036682387,0.9550508089315652,-0.19003657022095916,-4.049506415657795,-1.181021605340036,-1.5002257026492003,3.193683136691192,0.854870176415989,0.10143428289201915,0.07578393074081408,2.546875
0.23141069471235035,-0.3836457285429511,-0.7731972515537072,2.497243750235254,0.15523068378439844,1.0285305214561813,-2.9825947215707216,-2.109772842617497,1.6472700410743506,-1.7272103031819879,3.2645646627278393,0.4686981038510305,-1.1315967585889797,-0.18529378934628907,2.5546875
0.9647103617060215,-1.3598419606715242,-1.625021339425291,2.294338469754329,0.3102703017802997,0.22780234694437307,-4.705055106296498,2.5870284939794974,1.5850167270760278,0.8638982044713085,1.5890836287258705,-1.2113050437380832,-1.2293381253749123,-0.29199306846062045,2.5625
0.48194767989890935,0.6036578371866621,-1.0377564937740236,-0.7602858698716506,0.24855365723330033,-1.017708199816321,-2.9981616255406314,5.7118764270396625,-0.1384181967657314,2.9622713435436174,-1.2466454372310394,-1.9548223748211175,-0.7030372357504366,-0.15256332853020385,2.5703125
-0.549608057853684,2.602383361715851,0.27405919912120585,-3.015054032780199,0.02907141750403889,-1.3291118746165336,0.9349959033633961,3.5123806621622635,0.46054162178426583,1.3390168905403002,-3.277245235777817,-0.4440856015908839,-0.6017252775493721,0.06297397824772931,2.578125
-0.5845889944067136,0.6954909249702996,1.2308487736804854,-1.80110274644962,-0.16341942345582816,-0.2838923572865592,3.4919787465564,-1.533226517891846,1.982988827277328,-1.2750397204566128,-2.7763753452244333,1.1366930981408752,-0.33682041901513016,0.2159371544591131,2.5859375
0.18273697144010534,-2.7542360414238876,1.2831026741133649,0.39720296486538753,-0.2702847982509644,0.5705773407475805,3.6580090954837083,-3.18259241054407,0.39131625849598933,-0.9624914836749202,-0.5491831438433703,0.7297526707073563,0.274943119517753,0.23157436198621828,2.59375
0.3443416365837313,-2.6701956440554766,0.5199344021284366,0.39728554453498155,-0.28623149727842867,0.07627453144540673,2.9625011779505193,-0.3925354048498148,-2.4951515949710634,0.7305430980631371,0.5165838775240722,-0.26173203520177557,0.4701699424504188,0.08871612833308687,2.6015625
-0.11166861385516182,0.19120645846601073,-0.370724449076779,-0.5026689618862534,-0.11371242715508977,-0.5519507657831969,1.3262087987810476,1.3932364316627253,-1.8557335272401283,0.29606984244080503,-0.4910060497503202,0.08835474089757998,0.7914297411763,-0.08834354564542456,2.609375
-0.11039292594377192,1.3579304828772478,-0.7864032217453266,0.2739263555420891,0.1961700432329922,-0.00597340111841753,-1.8574937588843763,-0.36473427531177793,0.9808130452297263,-1.3354144851783303,-0.9862370508213238,0.8560969081842946,1.940424336535357,-0.15722528457076615,2.6171875
0.218046608013992,0.646769316918014,-0.790718612020559,1.3916154104673033,0.31479974302236124,0.6302346567558239,-3.8514454381980614,-1.4117817975150122,1.0334431699836186,-1.0606369024043252,0.48526757315150965,0.4177630840045574,2.1136722005768744,-0.13563432285228658,2.625
-0.015553792253493183,0.8594518350634653,-0.39404408151559606,0.2070536412934427,0.1034382975423616,0.028777952944515205,-1.9404261491480717,0.8352642717415428,-1.0568308696858062,0.6792213143495386,1.4807817718984364,-0.5473099755982939,-0.15926063459137516,-0.08051920241964416,2.6328125
-0.4194489143757164,1.3642589100592297,0.6794904024716791,-1.897151560090566,-0.09714772817412955,-0.6984974327700404,0.8738782776587332,2.462771489604206,-0.9711941518888222,1.1202037848597344,0.4627313304043009,-0.595337921222279,-2.2944193456148754,0.00924680649614494,2.640625
-0.07097049237606239,-0.04083442234233423,1.5708256340281952,-1.504915699666283,-0.0180212702413077,-0.09655096014150531,0.329726030348542,0.5391781544478378,0.7790158413217154,0.14109892067188146,-0.13795984269091888,-0.10068016464269917,-1.4701309663976134,0.0803292114313746,2.6484375
0.5012514488516918,-1.8993429970750835,0.7385630092705244,1.01702072061129,0.06484627221769307,0.8157553880057151,-1.0706251691044166,-1.8639494460825965,0.6850590159412336,-0.13912414490177663,0.9059787337963116,-0.15537746726020166,0.31200579350423,0.08827295008054849,2.65625
0.29315560478874053,-1.8514084237493982,-0.9770289188911545,2.087362621193709,-0.1444222648535757,0.48156432076783917,1.3807282425004834,-1.694509492923059,-0.5024013352137079,0.34091352640274236,0.9295220454341616,-0.3266404354202438,-0.11307560120997776,0.09539966844624724,2.6640625
-0.19050826739101065,-1.0734515700884493,-0.9064151876947948,0.6786868384605718,-0.35332750208395397,-0.34945741441875705,4.574707807338761,-0.4059791269605867,-0.013458348508910289,-0.3884637846148154,-0.7281510484805007,0.41429331384944146,-1.315455061272777,0.05522809035717643,2.671875
-0.03153748029759339,-0.9385355494875908,0.5697285726288209,-0.4242720790553074,-0.1577773323892131,-0.21871942056668017,2.1566577647889025,-0.024607970773761804,0.9349506899074485,-2.0678009917642655,-0.710893554188609,1.3921311330872623,-0.32312160681893515,-0.15722411900135047,2.6796875
0.20727481073832454,0.18812723327833403,0.10657025704048806,0.5468097486637417,0.20894164168117052,0.3991457400160383,-3.1599034207344308,-0.3183112681050405,0.02546432332898202,-1.8398104494673615,1.38336977323373,0.9659216575239099,1.5945191467294466,-0.3073623713475199,2.6875
-0.23989004296837546,2.4709047967432842,-2.1509593612400293,1.6150156463609786,0.24776080358164215,0.3154503963640414,-3.4147309061830082,-0.7416704284083222,-1.0468298451637321,0.8375030475084191,1.4077222780610052,-0.6744413793191845,1.402982649671066,-0.0266174600483327,2.6953125
-0.570635147687318,2.601365960082245,-1.9599078568511021,0.5113862820347065,0.046807960367626945,-0.1654153566696182,0.35209792918320487,-0.8110814611883048,0.02233082851471418,2.6629333955909957,-1.3087168423402158,-1.5533559777774588,-0.22063863639049877,0.3948508563948699,2.703125
0.010734827214471948,0.09134797849560401,1.2619710432506939,-1.6465153330614068,0.05360204473641381,-0.19823123319024402,0.39854313660774593,0.48572457779278305,1.4263847676186576,1.645800011281232,-2.1948127510010798,-0.935378696504582,-0.7119176635364588,0.31260038588486755,2.7109375
0.540670250297543,-0.9547851680040568,2.788127535465508,-2.2284469835037184,0.21879410378396094,-0.038923858146451024,-2.990056725604686,2.413223291911542,0.6286445693041176,0.08691753586285624,0.16857414239829197,-0.2022802316190159,-0.29976525201519805,-0.1331231584526016,2.71875
0.10895458468782379,0.6135580385394201,0.8409031342161898,-1.0399948130041732,0.14302089901506154,-0.18222510706192363,-2.678811730825945,2.3647156093444277,-0.9908821269822033,0.22368626146147927,1.6773069146347073,-0.2794024555267795,-0.5798218935791402,-0.22327251768542014,2.7265625
-0.36205171926837054,0.95188725908351,-0.6682139755547106,-0.06021419788533435,-0.11140693021420509,-0.28436289337643356,1.296005135465384,0.28626652486478754,-0.7971497036837608,0.6330919436974304,0.22972522457721098,-0.30071309005473124,-0.8729087506317305,0.05986410033223611,2.734375
0.009837034591494074,-1.0351056354015822,0.2765669711865568,-0.14091489429684834,-0.15352829736240342,-0.09096796938813753,2.5071127060040888,-0.7806902873878414,0.5316861370735556,-0.4614392000743066,-1.467166220814578,0.4663164989149232,0.2445037250576089,0.0946052026766818,2.7421875
0.3859492083534279,-1.7623343378694019,0.7786674674499962,-0.22026959191065265,-0.02285053449945319,-0.022504361900678265,0.6677754062273716,-0.09113218342836922,0.5374829833815744,-1.772038898565282,-1.3754562818598257,1.2415568704403073,1.8237898634362824,-0.1685969414450811,2.75
-0.00038281839397189644,-0.27055915037918205,-0.5565735239638036,0.4570481342217658,-0.05339828845112512,-0.10503398457776461,0.7588386438662723,-0.3870022884788224,-0.6568172809338308,-1.473145896133091,-0.5348881882051238,1.0998735751260122,1.9009348427416912,-0.17906550166033577,2.7578125
-0.4378174778225175,0.44023377465972924,-1.2322317237142766,1.130232118665648,-0.20236767214058576,0.1319728652632896,2.693132701308374,-2.3523801458698035,-0.804314427878624,-0.3218264584578635,-0.03346361079176331,0.3850691358970463,0.46403673282548796,0.14083500545813085,2.765625
-0.31153851567871843,-0.2126823750185988,-0.26019793254239854,0.7572072288613801,-0.1939836769655551,0.35106817647328065,2.6246687152812966,-2.6349878912239846,0.3074750730967092,-0.013176691164922842,0.1293212558568667,0.0498126206848199,-0.8489425309727803,0.257892696352793,2.7734375
-0.020111409291973182,-0.1652738062646365,0.30850446260443337,-0.38135115949597476,-0.04505848873830115,-0.17098293794159575,0.47693527545268205,0.6915399776320496,0.5554140157261959,-0.4551914627083615,0.08787580612798514,0.24402762655261467,-1.0548911194181703,-0.07036037694936328,2.78125
0.2266662017064913,0.24069568484377443,-0.18219265068079135,-0.7846415660996415,0.0868362133957554,-0.7665743928296385,-1.7302197411259752,4.228865684174207,-0.366006637596159,-0.33027124897607824,0.508110700112717,0.11345987402579559,-0.820957571118391,-0.42387611172359063,2.7890625
0.4992851214589908,-0.24692319684484088,-0.32696271117825726,0.27517480111021675,0.19418557917462506,-0.18568604366976843,-3.5076078584818964,3.3447510816109776,-0.31083516287972585,0.7736686054209181,1.8824612628635702,-0.8507456590103218,-1.237613427045991,-0.3033355468539522,2.796875
0.2983446724138828,-0.07462412241213612,-0.15248172974863827,1.4557760490339717,0.21698402813738948,0.9218840931204983,-3.4281985702205975,-1.206558330208317,0.8157591038080096,1.8015958291561966,2.551713844803289,-1.6730211245528734,-1.7277147288316903,0.20077508916855719,2.8046875
-0.3996489940504283,1.3474767446142581,-0.7969429509508996,1.271715237388209,0.04737570711490352,0.7961015251645975,-0.24593526302701554,-3.636185094883907,0.509232291592188,1.5459454874064786,0.6474934947819247,-1.0976776661188368,-0.44656837754774664,0.4574083714756481,2.8125
-0.3767145696832265,0.873164186989685,-1.4612931112393024,0.41807303486540087,-0.12159823364163586,-0.3236994112260203,2.399016232157931,-1.0724559474619801,-1.063275853739355,0.16508764296754647,-2.0436848060124393,0.3073978915055729,2.1801259688960695,0.11840082044965733,2.8203125
0.6249857774179525,-2.0742951774084104,-0.38739306708436755,0.1531090161939073,-0.02521338546195652,-0.5275693969853428,0.6679769352355509,1.9513801683609513,-0.7540680716625242,-0.9131858288454833,-2.1389546647721773,0.8295170803007893,2.8888964201577276,-0.2971604211617394,2.828125
0.8880671981327197,-2.750406088578451,1.852956790505325,-0.2316124764137292,0.15718658107743974,0.4464243247158577,-2.043953341612718,0.35580858484690103,1.2972041889749284,-0.6767531354232785,-0.15685699850619453,0.20499330813300704,0.7641450036698844,-0.10797409282028232,2.8359375
-0.28655052466583447,0.6996062247530155,2.754863248146001,-1.5882020456279033,0.11006947079521427,0.8523539007455699,-0.942744883410241,-3.1358006683359183,1.3586113651345213,0.39525367480051776,0.39716721235933666,-0.328832648583031,-0.7118053285376058,0.4270350091727181,2.84375
-1.1574149058204295,3.451163706544367,1.2822690234616043,-2.4209924783442256,-0.06403949398966345,-0.05929037238814286,1.6908523527363604,-2.3269204598608613,-0.9078728726986481,0.9303039887641253,-0.8964017513630391,-0.14790243269166095,0.17207100282289345,0.45550056331902594,2.8515625
-0.6802710695773918,2.1477495041933294,-0.7063191768441297,-1.3421562694403786,-0.1542920968941108,-0.9954468467598505,2.0489362668572473,1.9364359792022374,-1.827583752281054,-0.11292349416292644,-0.7948416641803075,0.4782949482158977,0.12886313338489136,-0.12662571651389304,2.859375
-0.06292223356573491,-0.47945022275866633,-0.8658719166883068,0.21575869027330957,-0.233242160587654,-0.7950451315096343,1.736610029091885,3.112115564251457,-0.4814195972619228,-2.1611080504483824,1.5986880697491948,1.2760094974709364,-2.322658266410122,-0.5390311841837842,2.8671875
-6.727229500932544e-06,-1.6012840846938428,0.42950158247268494,0.6457831452647047,-0.26850237129685917,0.09488365089099389,2.0402061806494496,0.009507069488945847,0.6071484241587943,-2.8042814884643534,2.6994970228599438,1.4926764455798598,-3.013446170291884,-0.33277700841265706,2.875
0.37762146964204224,-1.7700910246067032,0.6880496342582654,0.7098719775326315,0.0017496552407892647,0.5818416910116149,-0.05271581387913204,-1.6142623075515978,0.9253927727601013,-0.5835613731514345,0.2757388044501688,0.21560541877639944,0.18706439476199588,0.05846785574724266,2.8828125
1.0081642921787515,-1.281193453161422,-0.682381989140121,1.0413364507744,0.4211862958971718,0.28900929050519997,-4.215161465492345,0.8571555716147372,1.6097002539821315,2.1668776917434682,-2.42213270976227,-1.5523188878801604,2.649335206868998,0.11244560031777333,2.890625
0.6597147624764943,0.42234717714981146,-1.4865042171360137,0.6217669769740282,0.42369046950420713,-0.27530016803431173,-4.612469741526218,2.9752162905159056,1.4301517947244373,2.1954610975662177,-1.7345323183358494,-1.617698290127844,1.06368277598809,-0.06415297262750139,2.8984375
-0.41157627625870835,1.7921558063675675,-0.8451608931229707,-0.3321595031615797,-0.01292125645199093,-0.4540708178315457,-0.036392513947018604,1.2908939107407322,-0.7195095128623092,0.4066458313263936,0.42938433124135256,-0.20535929295654629,-0.8320284849766376,-0.07007129947788453,2.90625
-0.6354662140607781,0.9532678903412838,-0.5663899461831209,0.0201902953385715,-0.2631682924070907,-0.14870216962569374,3.189479125669466,-1.4999395436438494,-2.1241435117674468,-0.07691567384589064,0.275553385924982,0.3872331570076749,0.3677547051338132,0.12078950559674557,2.9140625
0.053804437958748584,-0.7924575771649871,-1.0413893311544007,1.30962620880704,-0.10249888574152788,0.23152947461803416,1.7983917331358148,-2.03458860015103,-0.6631306227106598,0.4703276583169733,-1.1176750511388396,-0.10622637605666789,1.8029309031021712,0.19214472479800898,2.921875
0.28131609203547486,-1.1013522047705786,-0.3435293334260598,1.032023977151358,0.015342116591426497,0.33387793857290976,0.06525143378634676,-1.1444617293922326,0.7685618945012029,-0.07649707127557638,-0.43782111376067806,-0.030424594212822956,0.5738183769640891,0.0652653773546161,2.9296875
-0.25480501571423986,0.005642132762365594,1.2200422038593213,-0.8052660764520154,-0.12689413062574256,0.11335712343195266,1.0702208362857324,-0.6448211386702225,-0.5876815504970581,-0.7473732636159873,1.2770777637231985,0.4968886358971981,-1.0192275194174794,0.0028847524251344814,2.9375
-0.6023250638069158,1.2126164023977568,0.9935500399641588,-1.488646574594011,-0.18288991531749724,-0.23258926446425657,1.7935923713837394,-0.1148461678968532,-2.102487611982737,0.08570972413339657,1.0876488374578381,0.19587056108415402,-0.7109088438655142,0.06425071180523899,2.9453125
-0.3398141751301046,1.5614358737356115,-0.6259663160764137,-0.3370380670204795,0.013726739527318411,-0.32463677984043887,-0.18294856788194616,0.8005956149784036,-0.5848813188615809,0.4838118951627824,0.0920038595927717,-0.2347820968817823,-0.30790405661308035,-0.01507616950833574,2.953125
0.13125274955533822,0.39147833810941013,-0.5498499022515366,0.5412702589298535,0.1592792881319483,0.013897096415354877,-2.1239571914476283,0.9358359456029595,1.9292690983849068,-1.0071018340269613,0.5331564608937231,0.31377998780832367,-1.0463560513398267,-0.22300853602682846,2.9609375
0.44277768591745537,-1.4464951064927964,1.0815246906612985,0.14096438484012738,0.09592440080389812,0.37643796091493376,-1.5613706207370064,0.07915047495430363,1.8858665476986998,-1.5491032782085639,0.8968751481752949,0.6416387978410798,-0.8988135551060042,-0.1866925118031664,2.96875
0.4239352459047962,-1.5495133570878257,1.5194678429195259,-0.499540592954227,0.05214940915222333,0.3540621317357125,-0.6031075255456929,-0.48296799482724123,-0.011777490967014647,0.3657011394906454,-0.20757112109962386,-0.2420375336168941,0.7798869474350746,0.1003166040695573,2.9765625
0.10240101103861977,0.15678355714932557,0.9342874805648689,-0.7596693640851329,0.11948620642321187,0.21755659714621325,-1.2329352712069257,-0.4350665265845824,-0.8405070469549385,1.4540513749227209,-0.4281390395438645,-0.8145498358760925,1.3202432797446753,0.20679819462490187,2.984375
-0.10739338381405424,0.5624526750716813,1.135767223834028,-0.7896042823177031,0.07466039233181154,0.2677226558071042,-1.1704859516246287,-0.47152053599516824,-0.13139421792581324,0.2863153663877046,0.9409240301320679,-0.24968733829865017,-0.4296281237062468,0.08374219549041152,2.9921875
0.07670928339259968,-1.178938162940245,1.0681522856081076,-0.31422375662470875,-0.12365315341059473,0.16211123663063398,1.3369927186802737,-0.3961559600208384,0.7418347697713831,-0.0882037548897363,0.5348572549798102,-0.046763107897945556,-1.8632902913335125,0.09137210138900198,3.0
0.27909389487086,-1.9417072186878332,-0.5496638009754078,0.609337664022475,-0.19043895776313557,-0.24672520873355186,3.059707568430765,0.15142552015313726,1.1113311569641593,0.6023275116792428,-1.9463001128414965,-0.3014022979601146,-0.7802042365065234,0.14274221823126265,3.0078125
0.13436501344675977,-0.44007564033295465,-1.6561874553295715,1.0086449288268136,-0.03074829054870202,-0.38770685329760424,1.1510305686841544,0.39867175587265,0.7474606845131547,-0.9616746098388738,-2.1446315005667507,0.7506716559484756,1.5816156929082312,-0.15104651325894314,3.015625
-0.09010665767910045,0.8525292594839557,-1.1107060248575509,0.7596927810456039,0.09064284356390427,-0.12133616988092225,-1.3719817570000081,0.07888230086828513,-0.37193907917495095,-3.243666636558039,0.3164628599666739,2.0942054231671805,2.619911243804393,-0.5005974772294153,3.0234375
-0.11696427353234108,0.9458691585096888,-1.5140520035376417,0.9962303946973662,0.044269184868039775,-0.13644842813849986,-0.9539345146111056,0.37204764194560613,-1.0204230832015078,-1.0775135733089822,0.7367205607305568,0.6899227480778632,1.3129146439529724,-0.2772136593537313,3.03125
-0.13870413377340923,1.4681474864516382,-3.303247885104253,1.5803302034550202,0.017837658584461,-0.5299512027947315,0.28733530812494207,1.5303671560719563,-0.28333188537704873,3.6630020992578625,-1.1230818450897944,-2.318264530044642,-1.1020350814417756,0.25052990803866004,3.0390625
-0.29072029721561043,2.2423491794453825,-2.426423392217797,0.6467930941215193,0.08010896596319685,-0.5095346947918117,-0.6304561677943755,1.900435833243866,0.1728598128744633,3.843256362157311,-0.5121598351191591,-2.5249403566382562,-2.2755741018754025,0.2813332078503321,3.046875
-0.42709285184658063,1.6329754477776808,1.9446287825464241,-1.9777521637932993,0.0494103533656413,0.04558003945357656,-1.4712960616950004,0.4556841413900183,-1.1201924568471702,-0.40632662977815787,2.2219795627312684,0.22616063138460307,-1.108606547120312,-0.06725013237078951,3.0546875
-0.4972181215272038,0.42155302488430235,4.380081750267404,-3.4081541536483515,-0.10321612836760753,0.34468029604389944,0.5855015481177479,-1.6991102063449206,-2.0690623914059074,-2.191943912728095,1.7803451923669775,1.6787805947211554,0.7937178910103165,-0.016380836751825518,3.0625
-0.44408106227704774,0.03832906530488585,1.898075548471415,-1.63431956242902,-0.18237598090138316,0.18357278552472933,3.0928303237065444,-2.771243702383608,-0.6970596256344948,-0.12718804992076488,-1.4450646204262985,0.5168933929926649,1.213026393432929,0.35973967754462227,3.0703125
-0.036217594018915285,-0.6746297408321359,-1.0447571153396575,1.1167160649324124,-0.13050905337134397,0.12478542194259194,2.537355069316584,-1.921074983157397,0.7811367450175748,0.7149061660397887,-1.7559506349608998,-0.32510053457629834,0.3264475383708843,0.28887521947375966,3.078125
0.5862662223854527,-2.396306754311167,-0.16159476330057476,1.3766348531383272,-0.04584237512595315,0.28270851500174593,-0.06198781312997266,0.07836331729714172,0.3652282063084769,-1.0542795252077344,0.9857751081193461,0.43610491678322255,-0.1856432262113998,-0.2039125185443867,3.0859375
0.8103874711681562,-2.7951098513233723,1.9915941116894988,-0.35101569042990727,0.07047138580279555,0.2885713315451494,-1.8269850570079211,1.2785741289439536,0.3836925140453401,-1.7483049827714674,1.4306064205078948,0.8343748203059951,-0.018144758471486496,-0.34872931309023536,3.09375
0.465732745743913,-0.761625376336639,0.885225486240625,-0.46182428150756,0.21021883753422538,0.10648068865065427,-2.18424921808084,0.8514024201355777,2.093679952408728,-0.16962187254563393,-0.9393949594454658,-0.08905916419365259,0.041659557958928645,-0.04955270231127017,3.1015625
0.08820326820703268,1.1171609039612729,-2.592115402940935,1.7317129451933282,0.21037377649558345,-0.0872778349490855,-1.7635876518353784,0.3755703034080374,2.08089971213923,1.1305141087567625,-1.4704407975351785,-0.9136486825427779,0.03648899147706687,0.05579758913086123,3.109375
0.06145840714381952,0.7086377213041131,-3.4564788125393404,2.6206573774164825,0.03816000313963945,-0.21126434217514423,-0.8392774876958982,0.9934340388272627,-0.7139480870793542,0.9182292548643347,0.6270382817547675,-0.7280253480812126,0.13001612803704077,-0.1484573058080985,3.1171875
0.2584777597920628,-1.0697878038780473,0.10155009825884773,0.31639589343872243,-0.0763701097605683,-0.024280157229671244,-0.09231479602960944,1.1352973332382277,-1.735494005566601,0.28657587911425786,1.7398301868003268,-0.24855470653920667,-0.4477915061223896,-0.1442332640771082,3.125
0.4061951481621624,-2.3239310171175003,3.823255941915516,-1.983939037010516,-0.036195404566981906,0.5049974928812658,0.002553747938415926,-0.4061698071065134,0.5381178621699594,-0.07025010838472669,0.999629369438514,-0.08025838936345,-1.5169719303463922,0.1413399221278523,3.1328125
0.16815814335989762,-1.5124491249858323,2.910938751006337,-1.270462491608674,-0.02376872606963914,0.6317535797265511,0.3061037660575233,-1.747573028647104,1.3703759209034907,-0.4300693114195765,0.478716273657178,0.1471682128214575,-1.2422162060855106,0.21247441903711833,3.140625
-0.5562002798173256,1.5652884542076906,-1.286571562177135,0.5680634090274571,-0.09776917365541962,-0.1297439535163044,1.2501606824380953,-1.0533279538341227,-0.727089336235357,-0.901341568694664,0.21381799924872638,0.7184582400931351,0.4848249666611816,-0.04787702708181837,3.1484375
-1.0409101843159054,3.8550168011650334,-3.2603528183819246,0.631608546351478,-0.09676702682137635,-0.8694407079188201,1.6112526386543442,0.41967388740354894,-1.2536238904078787,-0.9427577729623724,-0.7957263195775106,0.9402166503917792,0.9934180508388142,-0.1904683139294164,3.15625
-0.5610745660702484,2.285567779383565,-1.5198254580379866,-0.1899730920587067,-0.01216531862226178,-0.6090087917991162,0.8174226811167745,0.7964770760431615,0.47651964784439294,0.2270486457541729,-1.2872691583263653,0.003913662063502,-0.4339891205886095,0.007162550755949467,3.1640625
0.13148934200090587,-0.3428289721189365,0.013020391013307946,-0.003466174231008815,0.004179475179540157,0.03515571039086919,0.1676425492274545,0.1637330304987115,-0.04523919240323764,2.0941933983341046,-0.42878129360809164,-1.3364048502626464,-0.7064502595287171,0.2546405025061952,3.171875
-0.15056753742552198,0.6677635069730582,-0.5355658025679038,0.10459973618655612,-0.018738900879321174,0.030346886444239326,0.4187295024504094,-0.7219726123296617,-2.2504015021953228,2.317139291030904,-0.3775878422691091,-1.2106770276608103,1.4397061488781138,0.2879356877029768,3.1796875
-0.7816628198644368,2.9783991795781266,-0.25746949868364616,-1.2518642174924848,0.047686701609036056,-0.2935795411580738,0.5560827795237403,-1.3141524967275455,-0.8620349188418854,-0.1440457439961642,-2.0698571632166316,0.5656633006640631,2.67467295724473,0.15140329979923586,3.1875
-0.33544803509001897,1.2097663626372233,1.8095484169615503,-2.233618121511201,0.12569488146718108,-0.16561992198661496,-0.21316388671343478,-0.6506896965435298,2.7628583228958035,-2.6459688685754177,-2.520320435068214,1.839806827206977,1.0855683304581287,-0.07056771631065994,3.1953125
0.6995302423998185,-2.4658589102442474,1.9999439063457847,-0.7210766153968584,0.08343267798173094,0.11386411159362875,-1.3071038538640454,1.2858935585657827,2.075228936604403,-2.427162154658063,0.09167060161616748,1.279129518015759,-0.3638222027228155,-0.3451217375457861,3.203125
0.8238865658742174,-2.444060576898337,-0.6799359472839378,1.6456524951217186,-0.0006737432655577605,0.04431975515760433,-1.8089424978257227,2.3955824099481777,-2.1524550604262367,-0.4785293031747992,2.848901659933472,0.025340676557986525,0.2560701842783411,-0.47465375102691443,3.2109375
0.3402847224492454,-0.6781245003397992,-1.6149518934574763,1.873212584444433,-0.018980517521602236,0.06543820737549956,-1.3171956061231038,1.2950384698257251,-3.007095825251635,1.0077272939205393,2.802432446499527,-0.790565856038956,0.2625897253939789,-0.21849956440990193,3.21875
0.47389467352174525,-2.0173726613074763,1.0139224280637071,0.36433507055268954,-0.03365229978941568,0.5121454019383752,-0.10592631435801414,-0.3876975671061489,0.05600140216390584,1.8890902256873816,1.2429979937473226,-1.438449850459454,-1.817700877241324,0.24936626569162532,3.2265625
0.7799586051172858,-3.767377619676296,2.2994967286914636,-0.07289869629399631,-0.09305287386485661,0.697065393224456,0.9896013780616971,-0.8214008655666553,1.4988670776406976,2.103815716842761,0.4540054387106463,-1.6364469243351598,-2.841302662912249,0.41077086890440223,3.234375
0.24237222258830007,-1.509340086747911,-0.30157345291086113,0.9327643494669123,-0.11475482974464495,0.17533614701907527,1.4165246492990076,-0.5745754135358708,0.4671236541836877,0.6142577553834848,-0.01400059056209548,-0.47715906167229016,-0.9824640843089685,0.12681625734668164,3.2421875
-0.41656611254132714,1.2939730058467809,-1.8596106338245184,0.8671791789558082,-0.06076954010453586,-0.32288225270872584,1.3153608599332947,-0.5301586532974454,0.6349347724076928,-1.4548027395966283,-1.0838453084848751,1.0457485768871675,0.7000809042688738,-0.1286359741539724,3.25
-0.19264560925710633,0.4523972904985321,0.7187569660803186,-1.0169829536674906,0.012444501062954074,-0.1808902133717062,0.5847675719376298,-0.15235308674974377,1.833193283630762,-1.415513459459679,-1.4217174374623787,0.9578058615256095,-0.14428968865840425,-0.03666760794158701,3.2578125
0.08944336057695278,-0.3025304530069876,2.5103615036149276,-1.978734006086729,0.07779234497439015,0.10789018144685793,-0.9403915994968916,0.5056437985237436,1.1321888229713797,-0.04430205123169667,0.12324743796479436,-0.06534654002806911,-1.282866353358304,0.06636678305794169,3.265625
-0.48642782693814757,2.427848898068309,-0.29821532035446147,-0.27116065684050844,0.11707868965822721,0.02742197047128698,-1.9503356478286338,0.012168687278942736,-0.504655585371885,-0.502943037708878,1.6386041113916254,0.22949409343489585,-0.32217850826381794,-0.11631707624662344,3.2734375
-0.9975432474457474,4.280648433572966,-3.3553851368036156,1.737748320985623,0.08788736446068651,-0.09076642071732526,-0.9733773170099744,-1.6818204841877264,-0.3344739633475455,-1.9047030358109127,0.6799262547305321,1.25638938697439,1.51290501200851,-0.2173205030544047,3.28125
