AF3,AF4,F3,F4,F7,F8,FC5,FC6,O1,O2,P7,P8,T7,T8,time
0.18560599386419344,0.017967295783731577,0.34912500511688105,-0.005224362534444681,0.1261342284365639,0.17876398941161808,-2.035319475021828,0.623049658871276,0.10683691751366338,0.30209269014563156,1.125188275095543,-0.3946809023016326,-0.5180351933539413,-0.061768402380715494,0.0
0.4826550125531593,-1.084421671298612,-0.5775168613105562,0.4887137606273831,0.07006758019915915,-0.2128376433665768,-0.821399130732241,1.3794717464044683,-0.5848739804915855,-0.0385565972356255,-0.8606978938042195,0.08197469401484184,1.8618015879053311,-0.1852705277581431,0.0078125
0.18328535959847395,-0.26729177957931805,-0.1150570910712897,-0.1308500577083923,0.05673952319287858,0.04447103285069873,0.20688924352082141,-0.6732832495958269,-1.2337423346098422,2.6045907934517496,-2.137001204882793,-1.344291902869294,2.4390193798210933,0.36623862125297457,0.015625
-0.6836887473008757,1.8987742631397795,0.5557264028620448,-0.6878549884831779,-0.051014098199893096,0.504454106937176,1.3252098684462046,-3.3387965708636385,-1.1559979372732345,3.576216982764714,-0.2630684197632782,-2.0304122770318505,-0.42042468105917047,0.7719416782357306,0.0234375
-0.8543334300066019,1.7487440953236453,-0.1275647967219751,0.17265147132551986,-0.1971967941787901,0.3224776579970167,2.0880216944182806,-2.627551542458168,-0.2215928483526747,-0.1994477278913021,1.8907595147368204,0.10184150865144025,-2.3235188248100873,0.2282748168608197,0.03125
-0.02671015627266632,-0.8003717738575239,-1.4532280633210428,1.2708731429988547,-0.22069820908641463,-0.4602563704191086,1.9320526523221389,1.3205150747867778,0.31490255573692433,-3.201527489086651,1.1360511173548928,1.9141652335772712,-1.189103710145398,-0.536378610309255,0.0390625
0.4798032711439594,-1.8665407879571678,-1.7371792439331253,1.0533129352415416,-0.16537911111784775,-0.8609976627051914,1.6642213052377746,3.491176012149544,-0.3827180733422894,-0.7081493078715944,-0.5928621750045517,0.45928095680010234,-0.4132454297856331,-0.42227285791875807,0.046875
0.13724251618119962,-0.8668092313226609,-0.5949890707687624,0.19540153380725347,-0.15126083260686687,-0.3376452748048491,1.9109945025269333,1.1435898110839755,-1.0541086922346297,2.421178698009616,-0.5620479149554952,-1.4230975539728985,-1.0266366561768325,0.20637991974165598,0.0546875
-0.0026182269933861624,-0.9220852559629654,0.9282565157754993,-0.147810371260475,-0.11080283045091051,0.37793044735863013,1.6042107803145857,-1.9237979745501483,-0.25275813853912077,0.6891209711898976,-0.22334198546335168,-0.3385150144624256,0.031125291839040413,0.29070633078747127,0.0625
0.3349480160206666,-1.6202741165401258,1.4873411233066982,-0.3043390502841539,0.044958409568617776,0.4114113243826268,-0.03562037860035464,-1.6771505068477073,1.27983943501053,-2.3334344541306655,-1.1441620004293107,1.5260459801921897,2.1202232373831342,-0.08905388795022305,0.0703125
0.13431768216862713,0.24080857612350112,0.7312363823146345,-0.7087170513033929,0.1911970390112038,0.014655349271837861,-1.7915511050502582,0.20234633329245763,1.7549554419899192,-1.4772747063274265,-1.1701405293410951,0.8905804013851194,1.135569691129351,-0.147382237495872,0.078125
-0.5039097676150915,2.882870273970351,-0.20107308184683487,-0.779948976055094,0.17956492977306812,-0.11210536086985202,-2.2558761695690017,0.7247912404570017,0.6933248348873546,0.9281505287962086,0.8175102572756906,-0.7455862424446305,-1.691147470040173,0.06394505850745213,0.0859375
-0.32063346351151656,1.7658771963658126,-0.2064209857334768,-0.16947384205743415,0.08380904045551696,0.06331885575013493,-1.64442464795011,0.32216850500022276,-0.8200361928557856,0.922596438439499,1.7718401115182392,-0.7076683640742598,-1.0876041225546094,0.027989855536362816,0.09375
0.4321134004805225,-1.308446167116641,0.24845636635805254,0.4853001389157932,0.05175772227069561,0.27599842546375447,-0.8734765669608733,-0.35581663588631834,-1.2553232274277335,0.030435814676961666,0.13342997967680403,0.031688443512493045,2.157243122283807,-0.05135272795506625,0.1015625
0.31045044923965115,-1.0578776142419126,0.43790939569969095,0.38413223132465973,0.0723041685882187,0.4772397400894712,-0.3499214338222526,-1.827868991737882,-0.021593048249223094,0.37503895999468595,-1.0642891991231043,-0.1480710108606333,2.2317846231982914,0.182033477752653,0.109375
-0.3860114594115437,1.1510205245014575,0.8633496169410424,-0.5935752064226198,0.04920891280329429,0.4140747282374114,-0.10786166848418346,-2.103039976101862,1.4526298285295147,0.18371319042258238,-0.061174218122557286,-0.17847014417687365,-0.9668910709078249,0.28239630391650095,0.1171875
-0.16941724391395288,0.32657619394799425,1.4735092059232555,-1.479719354346431,-0.015324157232900985,-0.18653181974749228,-0.0816668899195228,1.0166163712292995,1.1149871860367981,-1.34812259729393,0.6692961429743017,0.7470522841101506,-1.9178816686114986,-0.15186107823691758,0.125
0.554804254405325,-1.8009370537374754,0.58296538850342,-0.9212160816056798,-0.04716228111387946,-0.8354588645021747,-0.09238083387715429,4.317002105574506,-0.4923268101647446,-1.788237425129931,-0.0895440330054712,1.1487669374331824,0.03558026068774335,-0.5750333909226889,0.1328125
0.21841499307857853,-0.2512504355184053,-1.912065204317158,0.6950006454128347,-0.04977751799177506,-0.8961905042556967,0.17976379255676253,3.634735852558231,-0.7532461158205375,-0.6631786986015696,-0.21124656168251071,0.4392321770097939,0.0247075586778262,-0.4572433232558301,0.140625
-0.7382800074636575,2.758650283204583,-3.091233709050885,1.2155491550454285,-0.09680186465122391,-0.6523674836173936,1.102808306757842,1.0989111454788485,0.39955614131065903,-0.15376851818150664,0.5211199775993621,0.0295807447651667,-2.25298289384386,-0.14141437574321955,0.1484375
-0.6124099501374165,1.636752755005792,-1.4744113063264057,0.22891218799615845,-0.16093720745833814,-0.4810816038883685,2.190125441076437,0.2127400824907918,0.05798152097002261,0.032955088196780946,-0.2218246411382475,0.08106097702515426,-1.5143310241442516,0.025269243920266547,0.15625
0.40420350297443547,-1.9509844948501551,0.4773893492990511,0.02356192678191499,-0.09462186708033765,0.11950056844268889,1.6160762095070924,-0.870718495799128,-2.057038160620574,1.7018866524469587,-1.5590948053213656,-0.7261335364716021,2.6541659614916626,0.26345501915718866,0.1640625
0.7263714643698808,-2.4195907544074577,0.7511429110241284,1.3376007530558092,0.11042651792088425,1.2418770779966846,-1.190185099503087,-3.716075224611781,-2.2789876296500737,3.047385146601698,-0.14102975881446037,-1.8240604364921387,3.816136102446471,0.5407771644408272,0.171875
0.18631232157279465,-0.2726698248211087,0.5862317363263232,1.765285632156944,0.21070804412221236,1.6525999178944535,-3.1181217160515082,-4.581465315261361,0.536580878242647,1.424630618184524,2.7195034454532547,-1.3553227885268273,-0.18244587172300233,0.4293889798496533,0.1796875
-0.15468520919291334,0.34687221954021946,0.8205697908342053,0.34453140115855735,0.0634284753513945,0.7080911383424137,-1.2550883171713083,-1.7328296437763848,2.4562452450004026,-0.8191836454033209,2.202252845848744,0.04191196765469223,-3.0968225249125965,0.0753556070650715,0.1875
-0.09373219348059479,-0.2654931770963583,0.22097217110071468,-0.6017364294571197,-0.10551746173899391,-0.3347601187825622,1.8856225907553248,0.4114956566757564,1.1527505787568788,-0.2511409861024776,-1.375462236507609,0.24866734323517634,-0.9379866233869147,0.04727895527462915,0.1953125
-0.1621318707836938,0.37287587011029855,-0.8341325842429329,-0.15014280909112557,-0.06662304974562802,-0.38209501399615037,2.006016728119217,-0.36644706171789954,-0.37368175317082275,0.916620059806563,-2.792154887482763,-0.19511185788314794,1.8311108791384454,0.19726516437515182,0.203125
-0.30713764115072983,1.211390204979971,-0.18595577073563688,-0.49764730766607046,0.029297994412492274,-0.20654154728119906,0.12163050011784231,-0.2181228567299675,0.165433850452111,-0.8431799012319544,-0.9374062184159854,0.6936029559219911,1.026370992098886,-0.05136237107827045,0.2109375
-0.17232744122974591,0.48006708976080514,1.5262300074962236,-2.1644041910566747,-0.02330909077666573,-0.685558649460799,-0.0790036927074507,2.630848034506906,0.4454089557819084,-2.988394043688086,0.2015460826363382,1.9488182227194202,-0.6352316272788302,-0.48602807115492686,0.21875
0.10126767792979476,-0.41661161344866304,1.4539569287977758,-2.4584962972525513,-0.08166251020381046,-1.0608283990646528,0.5943719349381693,4.316971947448738,-0.9852575424168306,-1.4271498647033727,-0.45422115523559614,1.1168337645356403,-0.25047985835701536,-0.4503924308899793,0.2265625
0.20860737167032808,-0.16655966143767434,-0.05638480760333808,-0.5069563839340028,0.02236618600168781,-0.4226694378706067,-0.613632785970276,2.3721418165429657,-1.3671791661135533,1.3544210468058206,0.06417152005705862,-0.7996389932563249,-0.020626533985296534,-0.06893638878618631,0.234375
0.10967613378518698,0.06506361344911524,-0.18497193944353427,0.9660383825653965,0.10565094796884117,0.5418807843349123,-1.8854803568767322,-0.7746064688608589,0.5209063999770033,0.6297541887336522,1.8571811793935342,-0.7391765936093635,-1.279361426163928,0.06669504901065489,0.2421875
-0.115488606609732,-0.16152686280718004,0.7270735075336722,0.5078443184621804,-0.0002703195771109255,0.6814144865374127,-0.3894605300995721,-2.3106692681642116,1.3057577798183335,-1.704898203704509,1.6833198452513418,0.8184020642839339,-1.0309800647285914,-0.01173413827125528,0.25
-0.21444510789037632,0.08195034320585462,0.014678917014964604,0.10492255064558251,-0.08820577423822132,0.1338312381675854,1.3763579431457458,-1.7088867979009783,-0.5826149163766212,-0.8205068511369683,-0.46593029409811004,0.7203430767246072,1.394931627082968,0.05284632199894344,0.2578125
0.10836483516192008,0.2210717739532122,-1.7890849415638201,1.0159811888038366,0.023970890046826634,-0.22920501515864128,0.06168153357788729,0.4390100011086333,-1.483009273601083,1.8062307892681966,-1.1514192443682914,-0.9550863160291039,1.8369487474309636,0.09483621698489494,0.265625
0.49014385360232626,-0.4793049490630154,-1.8515845841729468,1.5463811438338648,0.137018588486885,-0.1946114774714747,-1.9556038756703435,2.2485640043924584,0.7193823402194777,1.2372431871231873,0.1965780454390586,-1.0844371717036136,-0.8698034522469312,-0.13961506187150677,0.2734375
0.1961132083667804,-0.3709706262277489,-0.3267556597141842,0.552055380632252,0.06463246651590669,-0.060441773710456385,-1.134241522499167,1.2493665402454543,2.3429408988947884,-1.5943878232334217,0.7690834164822209,0.6341767612914114,-2.0309873902860387,-0.29051613748719535,0.28125
-0.48566316992625175,1.190458399868163,0.21779667631351285,-0.33530168050902004,-0.03784647355224491,0.11596535897282677,0.7913829052772653,-1.762358260618787,0.46816609024751177,-1.6420980712311937,-0.14953441779368215,1.146016613028218,0.4873332901561597,-0.0035585170624642887,0.2890625
-0.4614729708882795,1.3915561525624098,-0.5590312068906087,0.2810778663193631,-0.029850808120613127,0.3043244354218902,0.8855496046195842,-2.755003900299205,-1.8582111328136657,1.266601262468494,-0.5515312312606313,-0.47984442945897904,2.219992715518881,0.3472679754920938,0.296875
0.23703501317965195,-0.7998467304176515,-0.833055980113215,1.0887411456516134,-0.03453167383387271,0.2222871908220523,0.4550189276152161,-0.5655070704900012,-1.1620665122065839,2.8172545523938575,-0.06674720427825548,-1.7660531717105783,0.08548985182753477,0.3226751945844007,0.3046875
0.44029477300205966,-1.9188767946317025,-0.016720878896252907,0.3967458824740195,-0.09972264468710217,-0.10051273623103338,1.2039739393256794,1.1977348574021385,0.8109944668593532,1.8092751338632282,-0.2704301378761507,-1.3021281658133201,-2.3090363274188004,0.15823947044108105,0.3125
-0.007055312861073687,-0.40632384555030254,1.0298992557865125,-1.077352554771194,-0.055019475492270695,-0.15034201999065672,1.1694927972710798,0.32378240309434386,1.0250809597194137,0.6600569679867603,-1.0390535197126363,-0.3743385953246621,-1.2714320161656838,0.17299386352276144,0.3203125
-0.06596210093736857,0.3607350159923638,1.7879241087838185,-1.5210524986687572,0.0990051984762982,0.21000329345869537,-0.7970736638585935,-0.8372948354910486,0.11069562120450106,0.056590285301030024,-0.6474999167382065,0.08468844086351274,1.014875478458151,0.14543854656921323,0.328125
0.35305750392847157,-1.1941301238778275,2.020368446739403,-0.8423192617923478,0.0948905291553183,0.41017848694566666,-1.5097467604536883,-0.467441271568563,-0.2144430700057324,-1.1623649417308444,0.6223312019906183,0.6976817922133198,1.2988364049071948,-0.10669576689075633,0.3359375
0.21097541690078767,-1.6856684441065182,1.3430761851074153,-0.4413054719183954,-0.12141740576078673,0.07176294939300654,1.0049090380687675,-0.16857657350407593,-0.521792266164586,-2.345632412267597,0.6045174491291115,1.5469165026536582,0.758208817476339,-0.257021233321973,0.34375
-0.5357169711331733,0.7216399301494233,0.02107509675293571,-0.7490513781357228,-0.2207205361497552,-0.41101785429294124,2.934746650695647,-0.6175547670348598,-1.4089157230405065,-1.770710720943159,-0.6863456131137393,1.5295992109174787,1.3029442971788014,-0.11091355131176554,0.3515625
-0.7697138762732234,2.977178912157643,-0.9920438681980577,-0.6821806599298836,-0.009278585414032828,-0.4629344681956309,0.4869672692665701,-0.05043938084232876,-1.4895886747750215,0.1116179659972882,-0.5924564508730761,0.2610853623988816,1.1942801448599332,0.017197113597143113,0.359375
-0.27475961614268624,2.615969419102696,-1.1915108274536423,0.2720578982654342,0.23566587089525112,-0.06884718422280436,-3.3761294464449056,1.2505306280444175,-0.0725603497636899,1.1001775419360678,1.4962948671889758,-0.9390566631520028,-0.9820624500307239,-0.06632062418875782,0.3671875
0.04803366228668607,1.0210655601903873,-0.8714137867191921,0.9831414533932543,0.18988189916436618,0.20383603740541317,-3.2516799987859155,1.0961165674678388,1.204928158098456,0.08909155924412451,2.4623866287622507,-0.5711059779789744,-2.4295369202520924,-0.17563847578900002,0.375
-0.023424899955695584,-0.06369718752225226,-0.661750101043474,0.6180839795703106,-0.03445427610494953,-0.13681727096685695,0.1647085749242971,0.5331670486395516,1.1076947721907902,-1.7403343106281677,0.5316869708782209,0.9405496455705501,-0.9753042355898108,-0.2603363666247513,0.3828125
0.13049624618192243,-0.7700187855091432,-1.0003314591482237,0.2777101862811934,-0.10970811774110802,-0.6889244837553815,1.6207178669656923,1.8253911827301579,0.6089735058895716,-2.0326552136966383,-1.4343403727266906,1.4042314696124722,0.539521629927572,-0.3705105897283381,0.390625
0.5253357923396414,-1.4698122997526126,-1.279577924305176,1.0516646804857448,-0.005417307871822263,-0.4090729950951515,0.020182026201770727,2.328892675375507,0.7930774734000517,0.1448208626160342,-0.6664594445772939,-0.23266555198963318,-0.5901029569844682,-0.21052795782374065,0.3984375
0.5866795069261399,-1.939436322436916,-0.2018772193165927,1.6532097894442148,0.050062466061788026,0.7390509434729615,-0.818884366048465,-1.1106529312813662,0.9834264523718403,2.660335167251614,0.8703385318715613,-2.0636490238003904,-1.7689159116438256,0.3601735515633782,0.40625
0.3123303778206099,-1.823459315359881,1.7627773275998013,0.3682575983781429,0.008088267224396607,1.2457915041947483,0.2989989408727224,-4.205650768183886,0.128793939084644,2.7764170097262357,0.10431624848488612,-1.8228857826445777,0.13624304572929408,0.710084440461246,0.4140625
0.13080612336875316,-0.8107149397424147,2.0590100755922465,-1.5514634799148557,0.018353941998892457,0.25615105223688106,0.6291593027248907,-1.622761793351563,-1.1188098173738354,0.8868500719832902,-1.950430817984955,-0.16816623811475137,2.9261336606140325,0.3163752784109439,0.421875
0.055049209280702414,0.46145857068762747,0.029360719761875487,-1.4232406599164436,0.054229236857856335,-0.8502366870911222,-0.0959408245017469,2.5720741029986014,-1.0585089539369628,-0.5613594099019125,-2.2770972918738632,0.7376433388768934,2.6096379828710927,-0.2528517409289561,0.4296875
-0.09909721646475049,0.4726906418526347,-1.410349568599954,0.4035141717327237,-0.05131433490965884,-0.5883659869177723,0.7151043026362615,1.673518291453044,0.3695375995066392,-0.8119044592934184,-0.5850320848688578,0.539046918000148,-0.3878147152866308,-0.23981405609295903,0.4375
-0.27064816937559916,-0.28879723753350506,-0.3662031275489847,0.9228777062292247,-0.194652296048389,0.2768946367053289,2.1926831483242584,-1.7083662055159945,1.0307899951965962,-0.5360496127814074,1.07580264017547,0.18051386200899516,-2.4281801835374255,0.1131183423715368,0.4453125
-0.4401623392034681,0.7288201926012783,1.037264201990606,-0.6500052955668776,-0.10220087239209599,0.3163260702019211,0.9716000695021432,-1.5844957485456126,-0.20929368073162108,0.3657764059642282,1.363774934378278,-0.25869085888010923,-1.766309226455796,0.22799637917611826,0.453125
-0.586726637039495,2.913713754482001,0.6452858308369105,-1.6544555054859633,0.13633743520677302,-0.1006235862578082,-1.6746336238939454,0.16036992609935982,-1.425391211774087,1.535077473199178,0.49406067373227247,-0.822485895049184,0.20134203704563447,0.1791913297906783,0.4609375
-0.339024742396804,2.069462476097019,-0.40531010503547354,-0.29308216418479477,0.1497531322772544,0.059455891468875435,-1.5305851189451813,-0.6187013591635588,-0.776019530760001,1.031435657972303,-0.23972574632484386,-0.5406778543295032,1.2932529823320151,0.14094122358617017,0.46875
0.32881569440848624,-1.7695729830233136,-0.5130512656055572,1.5596179917101767,-0.07699161571039485,0.35550291713445586,0.6857470312378104,-1.2525955365066186,0.24522050805320508,-1.5809563233753317,0.4520113754596914,0.9050316984075817,0.8103229924800974,-0.1488303478022279,0.4765625
0.4896549086553643,-2.6443851709899504,-0.1236336331078303,1.15591737564483,-0.17776948461339287,-0.07889205509652313,0.9385388809660529,1.1014008954532515,-0.47226415698873436,-3.517005358735478,1.7856110145194766,2.0749445634212607,0.0682883943896206,-0.6015771391300334,0.484375
-0.3428451200316471,1.38898429784416,0.16077667012020666,-1.1402357651465815,-0.027621633207521274,-0.6468325584390386,-0.5668762791726232,2.3319526783845594,-1.6543617722035784,-2.5715206612422814,1.363470826705081,1.7474489882562074,0.4988957764261437,-0.5429148908505688,0.4921875
-0.9516964093157911,4.0146227728430945,0.5947789933598485,-2.285535112226819,0.12823250676546583,-0.35415454406554425,-0.8969570182100652,-0.31358494613750504,-0.7179100287968438,-0.13638885222015418,-0.8692700536464115,0.4286528435214386,1.2726837283152932,0.08588142893955265,0.5
-0.14617796557756446,0.8229455989931252,0.756113862625262,-0.7117007947635974,0.14260870967484454,0.3472341633344184,-0.4752645897239095,-1.9553954736260724,1.749966971698102,1.272087535366565,-1.9666479794395921,-0.7448280309298043,0.48845209714018994,0.4211183070998763,0.5078125
1.115068089949399,-3.6276305652161285,0.038183312916161886,1.5266215575527344,0.09224833238689809,0.4187418298717636,-0.898938084198837,0.5769384110435789,2.898935236030942,1.1937184507046479,-0.7892106635989993,-1.197690686763824,-1.4466439751732838,0.09992786171187995,0.515625
1.138160218251053,-3.618107898087247,-0.7704976315177399,1.7941428162971007,0.02156670134115485,-0.027667519282761583,-0.7616104051908742,2.63596009489082,1.8136947784705226,0.8336014544041523,0.2165421167198424,-0.9970045955275869,-2.1046038303245367,-0.17489356164621156,0.5234375
0.17672661547123078,-0.629623589328036,-0.8683757348525247,0.6245944699303037,-0.05404347517814471,-0.20564076177115365,0.7653716897993779,0.8594752953921276,0.062147862316185,1.1613978031289256,-0.48754074256340857,-0.7568962380408513,-0.7088983288619527,0.06065615890018935,0.53125
-0.22477109293637784,0.674505767777701,-0.8036662638492935,0.22557426359222466,-0.05207087323326983,-0.04547342742205328,1.2688436179435723,-0.9752972741670988,-0.9905829543445186,1.9924137372472661,-1.1793734401787686,-1.0229159390470417,0.807907297221643,0.3255381047086161,0.5390625
0.14394818359429284,-0.2272766333516596,-0.7271608687744117,0.5559669604156997,0.0010487577474403433,0.006830360110979533,0.08124344742403734,0.0874206592055264,-1.2336510971182209,2.2121897402048227,-0.3490821747244428,-1.3170717088263617,0.560662878064298,0.20632727811365084,0.546875
0.1572551335476931,-0.5583795059098146,0.048221559510240423,0.06035507649939254,-0.04280737708027646,-0.07973371575337203,-0.03912438730071534,1.0721969355452696,-0.8468900645029088,0.9168234186331702,0.9612216717380343,-0.6517092171738207,-0.9839900035183163,-0.012867557389064537,0.5546875
-0.45516792709738646,0.7607155207866015,0.765356566518118,-0.8048623532006822,-0.13290092458576894,-0.07926916303505759,1.1485991759338676,-0.23469187282841739,-0.04529282822323083,-1.4561048273225385,1.3509467707627834,0.9108368046762519,-1.6254630399662646,-0.1034555054499613,0.5625
-0.7560910950213201,2.113001015150209,0.06505426465319139,-0.47063136422025653,-0.05286188471785957,-0.03341739312304455,0.4806203842336119,-1.2835760682111919,0.4734754462109486,-3.2975111142115967,0.9886560838829559,2.127147527635791,-0.09625157148640065,-0.25853259447968563,0.5703125
-0.34574116478399525,1.8664511648487379,-0.7186005349039635,0.3155403839719764,0.14091819456022225,0.022744663998246137,-1.913628167742198,-0.5598656851284536,0.15105175717522373,-3.1409209180326387,0.6496384077540809,1.9753751805848934,1.961940165863436,-0.4048382508375755,0.578125
0.07184897486985108,0.35205118568174215,0.5807994848615889,-0.26890451061489545,0.15104224474086866,0.23493522850928686,-2.0220869152449077,-0.42005197991815585,-0.43549429854737304,-1.1158757586330055,0.39176532445038276,0.7127727378611844,1.9198212771719574,-0.15189164317448497,0.5859375
0.010131399638384482,-0.803955328249979,2.4103661332847865,-1.4722427288556725,-0.043778360565628664,0.42103725923977503,0.8064497172953805,-1.6836344538100094,-0.3076368523026993,0.7853305185587994,-0.26498889323737107,-0.36029348702838754,0.1738308722952644,0.32975219561941327,0.59375
-0.11973186219531147,-0.7557491963984461,1.6137704169728089,-1.1374203966475611,-0.14324281637981734,0.18066613989723415,2.438336716717792,-1.6531950235320119,0.2701967701840065,0.9134720731386919,-1.1653881092174305,-0.38041199786221985,-0.4460066600524104,0.3846279660412204,0.6015625
0.061383988339849115,-0.18949132026362428,-0.9307480870893295,0.46995867835751437,-0.030625146691682186,-0.25211705276460045,0.800050950398297,0.4278199109290587,0.21531172810032642,0.27193438053402175,-1.1614100914926007,-0.09064039533593586,0.4072349395407038,0.0016375360693062565,0.609375
0.24738946331829215,-0.025879611020538568,-1.6398721225909902,1.1481178092733622,0.0699328087591514,-0.24159238695314622,-1.083941460861989,1.5523947788184556,-0.3904967725522004,0.6792988854525147,0.07285361650322962,-0.521274518196563,0.2792154726310663,-0.14537746489988765,0.6171875
0.12481416774833452,-0.32730389178460273,-0.12060960075222936,0.3006657277325262,-0.007190127029929102,0.08702201282156496,-0.23650908940889726,0.34433029284321126,-0.5148402336448707,1.5073805074842759,0.7207237389300782,-1.0467444666160923,-0.9522807594905162,0.12072849835589933,0.625
-0.049600113499920453,-0.6026738232039246,0.7417910328615057,-0.5173803261473658,-0.1216324742517355,0.06228028435362027,1.811652566599795,-0.7643053933542113,-0.20736920629053468,1.2143874220125277,-0.5699683538346239,-0.6466566280266504,-0.6334607985770916,0.2819913111246919,0.6328125
-0.029349709937461693,-0.2360786871620723,-0.2904460156975275,-0.22325945664121327,-0.07802754626979866,-0.27993920696978936,1.7201061275254597,-0.10914440521867039,-0.311462767639655,0.4895944131158692,-1.9337056313645518,-0.03439446717560187,1.197828832257934,0.11710215047800374,0.640625
-0.06129285091442575,0.9897975556141426,-1.4891696702938835,0.4230818435821971,0.07188897508646308,-0.3895510569874658,-0.5166145061276406,0.9819818626179794,-0.47661242172520024,0.3611394357362285,-1.083482656072592,-0.10108906305045098,1.3747670531928695,-0.08529427621739244,0.6484375
-0.20285327463897102,1.803696316218527,-1.2841222144358144,0.3758986562816202,0.13791634518578802,-0.2596124380939586,-1.9913506272759103,1.3847639274700783,0.266100523306975,-0.21227865170337648,0.7585035978040698,-0.021507225576359482,-0.5498752286084736,-0.2052393476645726,0.65625
0.08602025003120908,0.34058585797187624,-0.1592165782018662,0.12729512215160557,0.10754920417704175,-0.11125679045181001,-1.8870073263223917,1.5792694339911715,1.3820237543970324,-1.3597317522277383,1.2269139296058573,0.5414394511405425,-1.5561175760396713,-0.31774765424728113,0.6640625
0.8405345959301318,-2.4667494008106017,0.573149525989465,0.6992201753736268,0.11426029594395086,0.23299683807981206,-2.0785826184219176,1.5201445839110739,1.4911847537897898,-0.8869550966188842,0.9903406672612168,0.14842894024947292,-0.895669479206658,-0.28211569033347667,0.671875
0.9533491569115892,-2.8184901237611455,0.5395143161636873,1.2538189209327604,0.1230202897782163,0.6113226701728502,-2.40764802150141,0.6049690458254227,0.6227007844569598,0.9052639737289292,1.7099074529893687,-1.0375689422748244,-1.0180887221820847,-0.04168409373122795,0.6796875
-0.14361712662871903,0.36020528009787645,0.42460742781269817,0.12912129442645873,-0.01004488375561168,0.34469298140751203,-0.65049770532093,-0.4967273400695673,-0.019059884877406685,0.39422401578875943,2.2283016215833324,-0.4948213447606706,-2.1304747685764256,0.06399005967681197,0.6875
-1.0848698990192485,2.727436283412668,0.6216819488108799,-1.5760682623662419,-0.17220879248597706,-0.3262631857432021,2.0554707673577925,-0.8809258380769324,-0.0012935066427601737,-2.4876422435293093,0.7905900498672581,1.7604817063417924,-1.3125309636680167,-0.11451626178229667,0.6953125
-0.5128099483461097,0.8236415135665042,0.5038766989213136,-0.9877304725908818,-0.12856334775643602,-0.2619746179677342,2.141317492618905,-1.2085459026765366,-0.07972258853040667,-3.061607610338545,-1.2152214882457044,2.295207955025837,1.8749525442423154,-0.18287333967259448,0.703125
0.5333484031721403,-2.087903258705909,-0.2737291504288953,1.2809464317410302,0.009124999629770099,0.47102241876345924,0.4266776004621438,-2.0821162250235887,-0.858555609641445,-0.010641150857408011,-1.4811791611114165,0.20280217282189072,3.770617212469931,0.10082277209729792,0.7109375
0.26669213611289094,-1.1772663170908884,-0.5908953595983572,1.3358503322659128,-0.031673177692452474,0.5570514622516629,0.7686880629370664,-2.425676875919466,-1.621259268087484,2.4008074452317576,-0.6861469687656235,-1.3518394866802776,2.1437680058660087,0.41351416405042546,0.71875
-0.7352818157710813,1.798076382024375,0.5277940348178362,-1.3785871120353683,-0.14257742020091138,-0.13070314685440823,2.450796520724684,-1.4476174445694794,-1.0291870352955752,1.9365367078672364,-0.9133500188028971,-0.8752649585000235,-0.525623040441206,0.4658275310369831,0.7265625
-0.620275250528759,1.6177531956745792,1.794931705782115,-2.816578552401684,-0.0712956157518939,-0.41991155105234784,1.9203825123003284,-0.0021477276669946534,0.5732892130352701,1.024992106227184,-1.899796970945498,-0.33055122555877514,-1.1124205004547432,0.3414887900002527,0.734375
0.3388919045236992,-1.105786310612459,1.1070715921488041,-1.099382003735615,0.0296595821289136,-0.21782023454347646,0.24189789434832656,1.1719465041348103,0.9237137441076546,0.9037952993799164,-1.7073466012453666,-0.5128568053315462,-0.18393441056794485,0.1091007274918704,0.7421875
0.34325189686366625,-1.122112932651879,-1.1272973295292585,0.8621779840169552,-0.06412598338382947,-0.38044536690302144,0.4918102229343375,1.8410233025122997,-0.5348045113962563,0.0980140678463865,-0.11438597291588065,-0.07979947468436789,-0.01620246248850481,-0.19894159994300287,0.75
-0.5245102052273207,1.8328144918243368,-2.2273517094746795,0.9121327875251867,-0.10797220212436369,-0.5313007923439336,0.8389248906259003,0.9743073972342798,-1.0602654745266578,-1.0255464988422822,0.9713410678660006,0.6980484196689171,-0.4713812816203217,-0.2807525133823055,0.7578125
-0.5210756071937098,2.6055169789937316,-1.0998236400952484,0.4981947109010585,0.1526403877457207,0.17633291643637128,-1.6992936465379767,-1.2033815877133947,0.7677113757366767,-0.5343104496115886,0.4943310910674248,0.23708518467834683,0.12852389793367403,-0.0022407377224384507,0.765625
0.5018004071029937,-0.10672534189158131,0.29634376204475665,0.7670947600442481,0.3907954943177437,0.8114826701012936,-4.529279099250862,-1.1821667283591224,1.9374693107413712,0.6097803619151633,0.037604265734167405,-0.7478770967079849,1.1116027657592478,0.10341321795894916,0.7734375
0.9605005568225086,-1.9904268243823864,0.12431055853875674,0.729003340770123,0.21997961617848225,0.08730900662095332,-3.7169598161957067,2.7726711519831797,0.06928336211491253,-0.002607068290976167,1.373519527599776,-0.38248432365548185,0.12160650363514446,-0.36540393011034844,0.78125
0.4121489843376602,-1.1109798384757303,-0.7778987572397315,0.17410575342006965,-0.11572740853435795,-0.9646443335129385,-0.6991679449449554,5.782931785249181,-1.972832252495855,-1.3484857354433974,3.0038213632727353,0.6202232830872255,-2.229328212571674,-0.7752987459470304,0.7890625
-0.023884046109216926,-0.2040782304065974,-0.781187156130291,0.22155918319113824,-0.16054791662393492,-0.6096630927590296,0.8285704443057718,2.878954502811317,-0.8333029267892218,-0.6948098544209126,1.835673616861168,0.30830940129975876,-2.4001260821713237,-0.36590669855383207,0.796875
0.10188512970638282,-0.6165003976837615,0.00464202604276643,0.7114227421653326,0.03125781033739484,0.5554161787079408,0.5644780722898474,-2.600620554364271,1.5009257726534702,1.1362553209930457,-1.3849044964149377,-0.7412994107085571,0.3378789493534303,0.4006545991088222,0.8046875
0.0931687896889125,-0.6668973752567998,0.6823678825592229,0.41554395030485053,0.08097273614351172,0.8748791327308266,0.47923735726376737,-4.341410713254298,1.3297809898547426,1.0008174751627337,-2.30072339932047,-0.49575103431186346,2.303812940866833,0.5460898278142281,0.8125
-0.30551843794315914,0.038454736903783725,1.268305213311799,-0.5639582622362151,-0.0909884717489791,0.44108735447512804,1.3475483260801149,-2.823965352171446,-0.44659295832221246,-1.1462786298128134,0.019825757852497357,0.9172693428100994,1.2001146302769998,0.14530311799618376,0.8203125
-0.48412128358667145,0.10477865686156544,1.8186893421303745,-1.1356019303550744,-0.20273729769285256,0.24286796724810242,2.1003830540020467,-1.9617328600683226,-0.4553230262702808,-2.2208510038293534,1.29414328829695,1.5220595507345431,-0.5982831339234369,-0.02454604929902716,0.828125
-0.0786870173640042,-0.5449143032255529,1.6228846170309328,-1.0285567409435445,-0.06238482801745015,0.18959776249697835,1.132614493771638,-1.155972986613286,1.131689281711132,-0.7978626401567546,-0.48515859092329855,0.538915928178238,-0.5785103251727951,0.11595824387577308,0.8359375
0.4380601788933597,-0.8055671441807272,0.5895987360266626,-0.5577903086159989,0.14614751815394564,-0.07321520108747939,-1.1523467669966223,1.1083634112722938,1.322344435460839,1.2770135092261727,-1.633393442489729,-0.8611954262146838,0.08500427336945766,0.1159322967527566,0.84375
0.3548677438570794,-0.3093422204254898,-0.3575124116847358,0.14329184172206508,0.11024686302785981,-0.15122871207029906,-1.5885982835062797,1.8763429914271443,-0.37324223835175846,1.8235899672647515,0.13625200904250956,-1.2694876158004489,-0.4084353856983433,0.011322816963722303,0.8515625
-0.3241290130504791,0.7204264252893177,-1.0057476311243037,0.6883198277845777,-0.1367303223848451,-0.0531112647725091,1.082152999992608,-0.18920131163723708,-1.47632147637438,0.7865452672392598,1.4727362761332974,-0.4922301515075366,-1.1258626832775271,0.05176845156626693,0.859375
-0.7577427087276704,1.7884290939156213,-1.8560089895458372,0.5470725039337173,-0.23167228906601542,-0.45284536993849805,3.054997586627655,-0.6215158970990908,-0.9328987090314134,-0.27646691858691097,-0.21927250327417866,0.4212694111734893,-0.4925311075648738,0.02958999202759745,0.8671875
-0.4794062401063455,2.093396243546474,-2.2490812891510235,-0.11131760158724689,-0.052243083085593195,-1.0600097563404216,1.4076886583099333,2.0471738127909282,-0.41072755771694397,-0.28370162826053974,-2.1757184049920215,0.5118027007416198,0.9475826007133087,-0.1839183990218534,0.875
-0.18499036580541586,1.74550106776087,-1.1188330256615215,-0.6838664878422582,0.10193222211793579,-0.8011739750551222,-0.8101301530103032,2.373815909222564,-0.896947856130687,0.09859936804408621,-1.569974767728832,0.19598571329003858,1.7535602585137693,-0.20220351802486894,0.8828125
-0.36374440840409805,1.456158038638144,0.6077986272524697,-0.8812910150777127,0.06277080256570004,0.10674563014032971,-0.6001474054784921,-1.0763731855549885,-1.017264763037304,-0.2202520567285295,-0.042887113579749815,0.33346226847797056,1.5711629254930377,0.06433515760514302,0.890625
-0.1573318961895567,0.3802115476432289,1.1486296907414115,-0.591336584130007,0.053052113156005956,0.4200204943966705,-0.46401642736479154,-1.826528081528551,0.22634453736451474,-0.5544274985941979,0.12855981110462655,0.38432026784659745,0.736530634762893,0.11559543603213737,0.8984375
0.8849130880843997,-2.2219641931162974,0.6897626830243698,0.20492746755554703,0.17633253408361096,0.12290859904667256,-2.3411315547779146,1.8620387531738498,1.4571557257541665,0.4770087179572246,-0.15669464866292274,-0.6147361238394505,-0.424039267984706,-0.1174096673902172,0.90625
1.3605074640623849,-3.6893871295250804,0.4000618651781175,1.1162110039456525,0.18250048281934556,0.28814059038035045,-2.9165779537128547,2.5850135123577935,1.1529623019964312,1.8755885809927955,0.6544239116164859,-1.6912879231923446,-1.2432241481960877,-0.07527158901709881,0.9140625
0.3192794977853299,-1.5177139719665564,0.05930630234810826,1.6580630629647013,-0.017857992238462198,0.9213765719603781,-0.3901711624973156,-2.319263952312434,0.004266768058231905,1.2888220480763801,1.9468453424631929,-1.1230600732753453,-1.0946752088999068,0.2659873944419365,0.921875
-0.718120033517846,1.266168834526276,-0.5684598204602969,1.5338868058355213,-0.14376058367393726,0.9362029680265769,1.346805331946892,-4.915893498541318,-0.48847937918570866,-0.9913663411014898,2.3967731807343515,0.5550641409051881,-0.43879932944042277,0.23171551025420917,0.9296875
-0.23030851703489552,0.3795242778651504,-0.10878385491348329,0.4081282867293566,-0.06016005119551491,0.11142933694952381,-0.013556077994463785,-0.5253061362625622,-0.2062667148869584,-2.442826563472844,1.8093261590883905,1.445606683389382,-0.26914392987121577,-0.29751569645332865,0.9375
0.7445756547100585,-2.428306982410112,1.7135923196811658,-1.3165369313215576,0.012135485469004673,-0.5669849021551132,-1.0581296157143898,4.192226266169552,0.21296268150052625,-2.215656274454725,0.5447510721655092,1.2667961413869855,-0.5046753280867496,-0.5985920374668035,0.9453125
0.6335999992076145,-2.55452662261401,2.2847710423117795,-1.8813497909560364,-0.04039740084382028,-0.4893297987417468,0.4554055450705716,2.9018515376343905,0.7151394546311585,-1.2801729738227265,-1.078055825787995,0.8527961832198644,-0.2385471057030688,-0.28313200442285663,0.953125
-0.13074056866187478,0.062361012014028154,0.08687204345050939,-0.4607644547555258,-0.04193363449689339,-0.15327863676532985,1.5962263374574104,-0.7265305379930743,1.2008214941261688,0.0036015663507623988,-2.221840247610189,0.18016295110310848,0.43535428464306475,0.16932132270143904,0.9609375
-0.4612991531200707,2.195095876273203,-2.2382857734069233,0.9217685763952967,0.06449139219974351,-0.16036831902815132,0.35703273334553487,-1.0125117120840026,0.9273360905485996,1.352473581466879,-1.875455182869141,-0.7500675333014801,0.4234803443285451,0.2572126753946178,0.96875
-0.5027528286776755,2.6193250261982364,-1.9171510312944313,0.4502238377882473,0.07556487325978331,-0.28052643767184987,-0.5344776560823128,0.21512447031173412,-0.30820568547032356,1.6968563292924794,-0.417511669355191,-1.0163002601675526,-0.2319050803666391,0.15259996123416492,0.9765625
-0.7010279046359766,2.1147878175602983,-0.3397880460843084,-0.36264289867723093,-0.08118789605154542,0.02480272239335862,1.1029026409886868,-1.4909019478390204,-1.5124150613370722,1.1965345185559224,0.41522845573592954,-0.5458935063110156,-0.09402789593248186,0.2738923381193683,0.984375
-0.7701305688340204,1.3955971018852973,-0.07655711249065414,0.18842568883878213,-0.18503206022372515,0.5333477948485291,2.799157499339564,-4.418108827608331,-1.6674339727277894,1.2096145808791967,-0.050591882466255504,-0.4259129585868139,0.9304496183703772,0.5371911587106311,0.9921875
-0.498569518274168,1.1029170224152824,-0.44012367691536164,0.4903940188764881,-0.07829159793575423,0.44782063559222113,1.5477974958260976,-3.3486665054510367,-0.7425726488737293,1.1919238375247925,-0.37914039098091123,-0.5528710115883374,0.8298954096056292,0.4295416891900346,1.0
-0.13082067184373497,1.045241406922623,0.4734921913514564,-1.0786297223609453,0.08666496317182708,-0.3347657387247372,-1.26728881812628,1.7614319257982651,0.45006982531553297,-0.43010173991046724,0.36367822227665564,0.19836308235888406,-0.9692042546405174,-0.1682941647329146,1.0078125
0.28848885997568163,-0.22328534590427862,1.7924458959295495,-2.4919396451636895,0.09378329378793115,-0.9596348931557606,-2.030901646263856,5.516240165496991,0.8156254910168937,-2.3488893044510983,0.7332820211300932,1.3194113857404013,-1.831883559005272,-0.6734987751720212,1.015625
0.7600398237865407,-2.483271184247657,1.3677511595680216,-1.40254517656335,-0.01580064536022528,-0.818738152617741,-0.41161208330403204,4.708834084801861,0.0014633943977388235,-1.9570873412254268,-0.38989676487044655,1.2264396538801454,0.00919514406577773,-0.5959558253817878,1.0234375
0.8816521092521412,-3.0350207559380706,-0.5231395840151213,0.9841533445627909,-0.03290614673578174,-0.20661381894307773,0.4447136237266879,1.5113591413012013,-0.8290573862548102,0.06075192878216325,-1.3570725575323392,0.06007935430398664,2.2282509144742124,-0.18780171648384603,1.03125
0.5258097319286922,-1.273994846508987,-1.7485100700657803,2.259473061362174,0.08149613355255894,0.35479780545596473,-0.8210236556082278,-0.8592731493131794,-0.38747447889114456,1.15896336372154,-0.5608749825912646,-0.7931794291115986,1.9876092816844313,0.07709598210282347,1.0390625
0.23367517936702936,-0.14849732964768192,-1.2124490108610724,1.9575036326093458,0.14403857870119577,0.6556958088443513,-1.8044041170005771,-1.6613513807797,0.7052815911799127,1.0772117441669198,0.6836970815431143,-0.9576975085464946,0.16742647494425883,0.16202429484383069,1.046875
0.22258150353558667,-0.8111229490363102,0.4990610779491289,0.6864032829018897,0.06286365897613592,0.6790952286674187,-0.8579119801288418,-1.7033260101903867,0.8968285368904924,0.8233618761644164,0.783669846961232,-0.7576297755795386,-0.7474939299712772,0.22525108318290632,1.0546875
-0.00966871536345325,-0.6296582699870963,1.8815103137615923,-0.7148835862552118,-0.021499277368625613,0.5874203733709507,0.20208202318749163,-1.962066421500482,0.22414982047197402,0.2564147007075652,0.7023072825263997,-0.20752760338520443,-0.5578328122867794,0.24935581078008795,1.0625
-0.5564537426036724,1.2905341598061733,1.3681342170096042,-0.7119411683799873,-0.021486641768714905,0.6019384841126483,0.07868410908939298,-2.849513207499214,-0.048884420698866816,-0.6120277794519016,1.4903914510920178,0.37101366607120767,-0.6035158400694323,0.20273573629980965,1.0703125
-0.7125072787822518,1.906931775505505,-0.8571826200575369,1.0592754798264028,-0.06471733406201823,0.5149702948914958,0.48791894780130163,-3.010042405899177,0.29048626179985454,-1.0225458334727004,1.9088126591356214,0.5176064544295346,-1.1124752972691354,0.09354348284148233,1.078125
-0.225976848161924,0.04645409224049103,-2.3153008264480612,2.083530967658752,-0.18796538402436852,-0.11181399362912724,1.9948754216018714,-0.5259418700556986,0.3582093492917239,-1.275877431030347,0.8123259994093496,0.6982155313400891,-1.182695939832058,-0.16844170044135612,1.0859375
0.1368740583687228,-0.809887150354124,-1.4039020435221545,0.25006985894239353,-0.17615144609533642,-1.032819268630716,2.025840944377,3.3426778661175174,-0.12259696530488909,-1.7429520196252752,-0.9326238849798433,1.220181815447785,-0.2748198036702236,-0.4815545341492195,1.09375
-0.14076939855961232,1.349919111431684,0.26198288014528043,-2.4867326772835403,0.05001762915214157,-1.3679183072467374,-0.17791059599627268,4.6262756814382415,-0.5297368077635518,-0.898665388677788,-2.176887285563846,0.9160469369947527,0.9784190887024653,-0.40553777019658205,1.1015625
-0.4023778758573921,2.8358915331361616,0.8428020515154777,-2.8443556096631424,0.21499581018655972,-0.7421027554610002,-1.6216448865039526,2.2198981361214085,-0.37319727641394673,1.698864780979183,-2.3651621304510533,-0.7352524382381859,1.146077786386627,0.12557319737075498,1.109375
0.08866905152348588,0.215220963465795,1.1862646834255484,-1.0397991878321924,0.1292664675907844,0.2565215699526921,-1.0042095999204734,-0.4777598618742902,0.1250828392417953,2.8792290947231383,-0.8975858863002942,-1.7869896488652288,-0.11745618437565843,0.4438413857115853,1.1171875
0.8092796510157353,-3.342242400987313,2.0848947986247164,0.19842391577413235,-0.0014708043654100224,0.7771374196241081,-0.6437953742150084,-0.7586346491604865,0.30580339313769767,0.7852576464482238,1.3656896623484933,-0.7834531154248711,-0.9440413190531329,0.1462246282694366,1.125
0.7104557374931494,-2.761357579378692,1.7821012917054488,0.07443979325785453,0.023204921664975325,0.5111108786232631,-1.1997217261215858,0.06472033175349673,-0.030105703093401593,-1.153383649542748,1.6083917332038016,0.49221256801396757,0.06612054183186791,-0.18919862266551124,1.1328125
-0.11701920621195636,0.8643440254529361,-0.5769212896616762,0.12697702205645206,0.07359055616578918,-0.042266151311513324,-0.557541805532046,-0.2656960078049152,-0.1310928583849379,0.16169268509443055,-0.6434412638098651,-0.019802269409800167,1.1057828196267085,0.02225255781432905,1.140625
-0.6387790757792317,2.5502373520137898,-2.2900787388324804,0.8728872677577925,0.009832265886303496,-0.12378126339481842,1.0659202838545845,-1.5528548482764726,0.48040343210170977,2.073169746890533,-1.7559681447647564,-1.1490889505366733,0.061429673052539,0.3989704470162004,1.1484375
-0.4974587721425426,1.3353354208638852,-1.3236909240704682,1.0270885638905247,-0.07592653188082678,0.21452674318495482,1.3220720778435293,-2.0049746571592815,0.7293947572519837,1.053657027043493,0.08701086301762256,-0.7158156423960084,-1.4587720155578212,0.30930935343943805,1.15625
-0.24364910340821216,0.11700297268251757,0.051818038679564526,0.3075114779009867,-0.12019894498283382,0.14380130980831793,0.84580582669272,-0.8260618311831427,-0.48149769146774785,-1.3557982306705347,1.6029663808755588,0.8071093883944487,-0.7308199213264845,-0.11764081185253404,1.1640625
-0.1712785171973595,-0.08041680714366449,-0.6687284282924766,0.20037675718807121,-0.181157502411099,-0.43191055673449197,1.667851744100908,0.7192813093161625,-1.9760980448043608,-2.00174595648821,0.5565802064919283,1.4934864452684617,1.2295059321352433,-0.356367526122237,1.171875
-0.0986771837740082,-0.20415459893342774,-1.8023357400067952,0.9745099030378073,-0.19159159178057053,-0.5637454581320489,2.1935934616528563,0.8377055557515017,-1.7032851373228328,-1.3381007393407345,-0.41467201869040976,1.105832323606622,1.5021435797183937,-0.2982925522540976,1.1796875
0.021208898422933636,-0.2630076797398225,-0.7534638715298462,0.811048872116461,-0.045510436506787384,-0.026204765486055943,0.35599932475728524,-0.09789642321732261,-0.025705498231143497,-1.1409205648664245,0.32900933809236504,0.6926275397670091,0.31349771837529533,-0.17162143647056416,1.1875
0.24824224201494546,-0.6027676023193099,1.3139414167251284,-0.6100377296806786,0.11313880371184429,0.24524825073531673,-1.484764262915462,0.007878937083008157,0.867803158774048,-0.8317821970964902,0.2480696169554429,0.40013081623077346,0.16566255077255404,-0.0807758792721138,1.1953125
0.7454471513370083,-2.2440040659694143,1.8162305550129803,-0.9824604333077892,0.11923159984923967,0.07933548178612201,-1.134062597441894,1.037814981679941,0.6233725987463793,0.3979908092263,-1.347733933356723,-0.2517980440465125,1.1327975173744294,0.008846607155728037,1.203125
1.066581213776344,-3.4153629091096565,1.2128861523883314,0.27111648092992013,0.1159502608613781,0.3864747133043645,-1.1191539511192514,0.3876919764081894,1.0198550025491115,1.194089580378844,-1.2333319518728276,-0.8974408177616314,0.8963103558283063,0.11540498026983544,1.2109375
0.5114574160663727,-1.261666697979972,1.3615108392948307,0.5370406877321678,0.22385633731872134,1.0291983444532757,-2.8521132735666104,-1.8357468074764876,2.2273768513085876,0.7174141304104631,1.0419456898198558,-0.9137485931178777,-1.0155791129509064,0.22941799961826412,1.21875
-0.44609692010092017,2.124952571109931,1.5659766832208981,-0.9340620950304821,0.21193574001858043,0.7494247349453608,-2.7674223855958235,-1.9528238336883947,1.8272530820470922,0.5686194315908137,1.9021471591397423,-0.7167012450723641,-2.415376288218472,0.2820630175332808,1.2265625
-0.6685281414677947,2.4481530249274432,0.06426397479409655,-1.3028245834977608,-0.04260121675855018,-0.3940605027557999,0.35911739637737927,0.9289349864186326,-0.9090949535551117,1.5779217635138616,0.734956304587944,-0.9153869159028185,-2.042031860862166,0.16083352594939293,1.234375
-0.2963045298044939,1.075547611376318,-2.158141941767151,0.2787285957025623,-0.192077636908919,-1.0002642152733348,1.8204787742317925,3.11852287225021,-2.705119077841726,1.7410449143295128,0.35365464842175104,-0.8923705925355985,-1.0294687491814096,-0.11543138150305901,1.2421875
-0.3004816328685395,1.8924042004251533,-2.5430719312608976,0.8078377790242253,0.003911784478819234,-0.7705014952637642,-0.4949801568321047,2.590846736091172,-0.9993709695327603,-0.32540618071963323,0.5209402860552743,0.2137741069490537,-0.24424094945249686,-0.3539818840329172,1.25
-0.5270283937113529,3.0080001448232556,-0.8950884362680825,-0.690892053083048,0.19688336876164717,-0.534227117193207,-1.9071788340053863,1.1383764058989343,1.5234307685281951,-2.5657491368893837,-0.92299189410907,1.6496944506165658,0.903137925936009,-0.37838355400392215,1.2578125
-0.2327295583871892,0.6185143663811579,0.6571123940762039,-1.2386283119538586,0.015539553427513177,-0.3183824908880333,0.7658519782641788,-0.30011150495983,0.9342071067722191,-2.3265424528700867,-2.2012720323607984,1.7561268513573276,2.0209611119257187,-0.15061939512980863,1.265625
0.21385844249641575,-2.736601705807191,0.8057982394935806,0.2803943072460486,-0.317767699158926,0.23287325195623407,4.124896245074261,-2.1111890547728325,-1.5378073279896858,-0.01466892153606175,-0.8512294162504009,0.34119215217565096,1.360264203329087,0.21169554587422482,1.2734375
0.11404685684867277,-2.4933222849984156,0.14615948893001354,1.180534951844366,-0.3642820446413859,0.5062584731097626,4.2330348428576405,-2.685169765951173,-1.8082841465808817,1.857681014622578,0.6462251183830997,-1.0368211892323063,-0.7363210224789459,0.4417555654429179,1.28125
-0.1554186602275728,-0.0892262893508302,-0.2010256199064,0.2844555396984098,-0.11570536839806225,0.1410824379778403,1.717348901397221,-1.1053069045291462,0.15778044121347906,1.8170319776549928,-0.20738147355254027,-1.136532770779382,-1.4623283933118285,0.35591349165020414,1.2890625
-0.04953732795535039,0.5405828494997951,0.09216924245724327,-0.19818607668017799,0.0934503243450659,0.09104743532634788,-0.6615683515155519,-0.43532033728582875,0.9863680404117742,0.38704758388138116,-0.7269877466328715,-0.2726014760724671,0.03764416159317127,0.11687457919263122,1.296875
0.18042352658363475,-0.5562063888701458,0.3012904536497498,0.8711709210765186,0.09331665347004478,0.6948090474722208,-1.3608359755385697,-2.1414983566783574,0.03865489522990396,-0.9914527153160817,0.864894575131365,0.5140333035365117,1.5082105960270906,-0.015179665619870034,1.3046875
0.31789464926821615,-1.3256116555008501,-0.17899773993673085,1.6149046875204385,0.025504484881508693,0.7252600236302129,-0.7972481612738582,-2.1685499617540005,-0.3216502646559275,-1.2609049772094745,1.2553527625512333,0.656502594653647,1.5438896351175322,-0.08538523667088302,1.3125
0.4393260197344844,-1.0437543427665077,-0.4610981703158998,0.3878278836246767,0.06290589622633899,-0.25538781729853943,-0.7162863804686772,1.5798943004001473,0.4470483450120036,-0.6469026413237108,-0.7799762695192916,0.36918664826400704,0.8551601435446841,-0.23874525020565943,1.3203125
0.2298057970837811,0.46330466479450927,0.4894411934983207,-1.8285395281369354,0.15741614228882506,-0.9510701841179265,-1.7830410121507085,4.512771077241763,0.6769557368558123,-0.30992595959806957,-1.3127529127629904,0.2188669482788972,-0.21153827780523707,-0.3537347718057347,1.328125
-0.3280858877101826,2.1673506593107414,1.4113754692084073,-2.6108783250842533,0.14784730622729333,-0.6537366374654168,-2.2761737757947103,3.3029150096388293,0.046580501699859084,-0.5896139710074555,0.7910826819147951,0.33331218691140047,-1.461713907863539,-0.2820802320187752,1.3359375
-0.2826959668275118,1.3374704296812796,0.49497247806361167,-0.8007069730855347,0.04876540940502478,-0.1024976689436505,-1.2638832660890194,0.961432233773318,-0.2496432184229441,-0.3758091294531245,1.6543416285628876,0.11289203798354451,-1.402270452758238,-0.13273351023072882,1.34375
0.6004458348836021,-1.885884704519211,-0.9727501646317543,1.7305093938265987,0.0184567462788648,0.2556908768091325,-0.4570121593559632,0.08647140762844978,-0.030164712900091834,0.907974061012616,0.18960945494022627,-0.7454371570061605,0.29635395905324613,0.0070033607654862206,1.3515625
0.8928730196925946,-2.9492734147294413,-0.5760479421479655,1.951909170498348,0.04691837281921544,0.5668806766830508,-0.4550149468227557,-0.8800064918826577,-0.04024523017898603,1.9306327824142453,-0.5594455251711832,-1.3556217470466507,1.2164907768239899,0.21170002303836738,1.359375
-0.11849019990749236,0.03309952120045114,0.6736478299309295,-0.038819629395958476,-0.007904764869354554,0.5313895539501561,0.41882106810775915,-2.3465004065250374,-0.14649745221770505,1.3708220305218983,-0.028099957513564193,-0.8249581846038019,0.09941453212678014,0.38492115368855573,1.3671875
-0.9972403069823943,2.8290269770773846,0.28774870487353466,-1.0317650502727456,-0.0790843473223607,0.0577870823316307,1.5199290502498983,-2.2639094139547673,0.3644518052887272,-0.06672514639344677,-0.0394111819097467,0.20547877362255224,-1.0745147620423603,0.28793837458598054,1.375
-0.5996271629192035,2.056346907959716,-0.878524665453023,0.13122395559971672,-0.005294049903055435,-0.10003168367914728,0.34817769206746835,-0.7610805764459366,1.203035160038189,-0.9686587845952243,0.07751205825414943,0.5702343382290341,-1.0584719456883454,-0.015890682643657797,1.3828125
0.13207253389943632,-0.14268891564023736,-0.5958917343675911,0.968815988428405,0.06282123611873351,0.15214523733766047,-1.270675699019727,0.31848680601248,1.190554682173446,-1.0880789012345369,1.247735629169097,0.37543800019168827,-1.1441604737725624,-0.20855807085764308,1.390625
0.06807252196313077,-0.7045028463472112,0.17616742958092382,0.008299921761932907,-0.10860518421679999,-0.16092596026791195,0.679848105629108,1.0862423692881225,-0.09616389470496392,-0.6000277360563996,1.1593088379833625,0.2655292217298896,-1.6125282057564394,-0.16333679718153993,1.3984375
-0.4010114809511459,0.2638573161459323,-0.5097549078650926,-0.9656406866121132,-0.31547452692546024,-0.9684421647512134,4.098994812108694,1.8126094632555525,-1.5631080637944073,0.502184000211578,-1.1935632463682004,0.08497434065886914,-0.8453132428234056,-0.0017556337051706941,1.40625
-0.4796964525126252,1.1030759146802467,-1.4029464675399763,-0.5125421701226358,-0.21659850289606516,-0.9028864931428097,3.5517655186528914,0.855383634884921,-1.8677986657488648,1.1234888926674482,-2.4897980000375806,-0.15188751721492555,1.2720491781523493,0.11935216634687461,1.4140625
-0.17571622673457374,0.692300151412998,-0.37733176167895816,0.19490782560818398,0.034246718549854636,0.16014470775556552,0.11043293960168103,-1.7192644035802054,-1.0977767082744878,-0.08680608355989297,-0.9942125888666018,0.3230270550181871,2.839617937245026,0.09843066435730954,1.421875
0.15763647685231552,-0.7803327956476704,1.6420591293319329,-0.19004393602192085,0.0902540150287291,0.774315459877909,-1.1375772321547348,-2.750566552977278,-0.36814921341618284,-1.6908936515408983,0.39974992289350975,1.1228046825646136,2.735515061295451,-0.003437935674069497,1.4296875
0.3989955650243327,-1.6369917536704082,2.28309546901237,-0.9604097504439422,0.06113768534408774,0.4520610400239577,-0.7829357034865833,-0.8987868761522738,0.06410319975972059,-0.8393169756659284,-0.03434933849434671,0.5464864097342799,1.3427432939188746,0.00550753257040043,1.4375
0.5875971349564686,-1.0897937644966238,1.0350339588515798,-0.48622960490842215,0.19571291713089123,0.15790452953194756,-2.3506954797717317,1.2729335867969833,0.8994906218637486,1.571641181341061,-0.30994437675074427,-1.1937404251725003,-0.37775730626586995,0.09036037165851,1.4453125
0.7425449554740454,-0.9265284828305442,-0.6767475301952283,1.2394226870195741,0.28925847304051394,0.2790447269092141,-3.778703611721627,1.5743412657377454,1.845862783588996,1.6394467947870979,0.4650608183812012,-1.5326873534252068,-1.1392291822169849,-0.018698764483882305,1.453125
0.652123568991717,-1.736278150216064,-1.1241840140239368,1.923282548295754,0.08993026457365207,0.19166816976123885,-1.5984929783903745,0.896861152835057,1.4283350680569693,-0.8606321137720409,0.7733379033913322,0.15220408407341812,-0.5110023344633718,-0.2771510108303636,1.4609375
0.031713769815035396,-0.7480684527505168,-0.06046839892786571,0.05806258040969847,-0.13625201862088143,-0.2891129368306287,1.2321846791856141,0.8516317511386665,-0.4336678883730963,-1.8672084466681087,0.45261967192355607,1.226389916574562,-0.01769029272152345,-0.30242035058276023,1.46875
-0.7522089992114062,2.4459242505522996,0.48964742866734445,-1.8939190286153793,-0.09138002473590037,-0.6084391006683416,0.8499477654895287,1.2449571944355073,-1.5869982855430644,-0.13676212872029134,0.6118883529269772,0.3310023197057453,-0.8414471043310198,-0.06467653393743465,1.4765625
-0.8283559374927079,3.302984549937177,-0.8772862067509648,-0.7181000325966654,-0.0011085474436252735,-0.425633016989419,-0.09161729887489567,0.6791773025613383,-0.6894729895892076,0.8593969478254483,0.7578089629748259,-0.4790169234825499,-1.5492611585828049,0.059155651838170065,1.484375
-0.17247408231317024,0.13461453970304632,-1.8656242384208384,1.740505236600769,-0.10844299509228685,0.04305752288327781,1.4379019207600932,-1.053771913613372,0.6984905801751382,-0.4667479241772776,0.08405136512323275,0.21625603973777974,-0.687260726352794,-0.001104424269707888,1.4921875
0.2525946764328616,-2.176585932840841,-0.10120641281453344,1.2685334146356144,-0.17342155837295095,0.38993266782238944,2.333812019014502,-2.0891401041897084,0.6894997718801258,-1.1047121901020054,-0.3978469662737048,0.696967484341386,0.357568096766074,0.05351618300110744,1.5
0.10053318287620555,-0.7151182845883132,1.8872071054047779,-1.024830374994619,0.010203798518862177,0.4015930932551211,0.002155806739111232,-1.1506429430640226,-0.002362968548932669,0.8896177498247124,0.012343247613823924,-0.5395046743622707,-0.13664773882357992,0.26492079527434137,1.5078125
0.01853012474313083,0.9283634147160696,0.6446800439501398,-0.691376498737127,0.18451874877357577,0.243168310693369,-2.1153316427044095,0.1534707224360493,0.1917005569132179,3.0567278075860917,0.18449635933103256,-2.064501217011809,-1.1018874586931922,0.3671831887581155,1.515625
0.17553790075882653,0.3239402820484071,-1.7041529493204324,1.4501108431860736,0.12277150491739111,0.13497859696327322,-1.1973942557110484,0.06015314093765483,0.6780781646810139,2.5515097056982787,-0.3754639141495789,-1.800565394508138,-0.6599024893754503,0.24049545213015786,1.5234375
-0.010130724179421296,0.06041421371220037,-1.0930757184734872,0.8398809977725226,-0.014419739726784625,-0.064185288505936,0.4405210606345134,-0.32354678664593944,0.0713580130114124,-0.27005363209663114,-0.6128593342061243,0.21967267125202625,0.7913482488305602,-0.034846749052590546,1.53125
-0.5019751921463609,1.2325814922373266,1.2785580779262609,-1.974996848191717,-0.06908611236592606,-0.44743184887576215,0.9031241663844344,0.29386657548874934,-0.854357661637466,-3.025894380492732,-0.37356488337387755,2.2542574150598473,1.6000169740796217,-0.31515890551635595,1.5390625
-0.5445209476682266,1.2390702685066575,1.681373274301717,-2.4947721742599587,-0.08802328168816545,-0.5792326859333061,1.2272707362851476,0.6317880767990084,-0.5785861692098472,-3.464137688793054,-0.653368934338105,2.5671651049274122,1.4130981115253438,-0.35657344273588487,1.546875
-0.023759171680600478,-0.37015438929121697,0.46713959179144354,-0.5752524202062781,-0.06156792772794822,-0.18045455343207129,1.1477975418571698,-0.11453061586574678,0.022814735891314077,-1.082451110985188,-1.1020950632914326,0.8756224805433949,1.0670407220291172,-0.06827622349921401,1.5546875
0.3824946248656313,-1.169790286767075,0.1311575221384752,0.4112687228413527,0.03115069765517188,0.2423808560699401,-0.35229105802756994,-0.27772839426338186,-0.7763210263474315,1.600382913161916,-0.24245081924329187,-0.9947117602291806,0.8439451365844433,0.1729856361746886,1.5625
0.3598220254830395,-0.9297558725274604,0.3137776351214128,0.3259178170960347,0.031209290781453514,0.23852349516398258,-1.2568439130650892,0.5737880972330668,-1.8823107440215419,1.4691258283234814,1.6107353856520934,-1.016373972470823,0.13996008356264028,0.02384915319475887,1.5703125
0.2177486213740292,-1.0814783927460068,-0.4309186610494398,1.085461175869003,-0.08951931934031312,0.13279098803989922,0.013396551644483641,0.48445715684279844,-0.8275597023891937,-0.35917622864660625,2.1466177924472727,0.021429130748407646,-1.135993005855822,-0.17744968168673372,1.578125
0.18157249321834182,-0.897468614356324,-1.2779970538085945,1.7493124108716829,-0.049383753973504294,0.20164882676119503,0.5773552846255565,-0.49297982964138115,1.734835667843508,0.027117878104666367,0.343365380204242,-0.30664147757295707,-1.8172053338442784,0.025672261516012457,1.5859375
0.19499046764125186,0.4167474601200228,-1.0406565133779886,0.7010108544245258,0.19803572653834262,0.08355342464604448,-1.4214972628179912,0.11730091986043173,2.594216239320347,2.2510535871646296,-1.7279643312475348,-1.6398426211949304,-1.0256400491383075,0.29811880529223356,1.59375
0.19418085073885677,0.9124519139656034,-0.3545301315710222,-0.5753394605783474,0.24724797243624155,-0.3329114514850252,-2.4099713274887953,2.0269137245357656,0.9520916895145198,1.725370969868088,-1.5400314349659991,-1.1378934970646035,0.23812684252664376,0.053325453330331195,1.6015625
0.10853289893160946,-0.41378817620025027,-0.026646840116182582,-0.29697581276292784,-0.04528613992423544,-0.4553886746456848,0.08381863637899208,1.8815484656582817,-0.582991416118125,-1.9105820324588896,0.2862542950501417,1.2593318280351316,0.5197131468120392,-0.40963466881572724,1.609375
-0.13045608239597148,-1.079800966872185,0.03728944080492472,0.513552320836525,-0.2531820148836096,-0.029854014534823656,2.55515439810195,-0.8548671508282335,-0.3728834839751389,-3.3659248009627496,0.9734260094695241,2.196038845445984,0.14586673951214046,-0.3366636232269014,1.6171875
-0.3635628768762318,0.28735697236626406,-0.0987595877721147,0.46100082993556407,-0.12462543034649985,0.33758452818993206,1.7947703728344095,-2.6121357698471663,0.15604330053817936,-0.7263509578131203,0.06076514744413395,0.5436517984321195,0.1261095014434115,0.1572824165746142,1.625
-0.3422843152958155,1.3755875874990886,-0.11536010113964495,-0.1282503827597992,0.04485436578704804,0.2235562162519595,-0.20935877324336882,-1.3891835060731759,-0.2584444620162971,1.4574345392023837,-0.08126042394229169,-0.8647686239476423,-0.01120353570073748,0.2993023217379255,1.6328125
-0.1565437350792726,0.7824344084585376,0.7488446165951462,-0.7601358282427282,0.044211493313273634,0.06681548470260361,-0.9520735895665331,0.27724642940173866,-0.5417669253876632,0.5873899556302928,1.1213026172262652,-0.42749582982245565,-0.8353034420748742,0.045892101489304074,1.640625
-0.10385558344511936,0.2760743448569843,1.8665070492644031,-1.262654664203209,0.049174301336289555,0.3108902420939443,-0.9302297415086063,-0.508683970662489,0.146277058998291,0.01925370543136612,1.1378625567715672,-0.10362650688185253,-0.9875080813303964,0.09128720720346435,1.6484375
-0.14945912978838105,0.6450700293053131,1.3988184280798863,-0.9045385437892213,0.11731074305643284,0.573143176689668,-0.6537911149087319,-2.4245885570714507,0.5212108650192036,1.7166570364705052,-0.8444460263455122,-1.016231119065509,0.5419300821843144,0.4805424149711224,1.65625
-0.0070087662859726185,0.2749914111679189,-0.405746003990736,0.24495427127108,0.06071810262620044,0.22444631607418147,0.3014973399590214,-1.7075942932979156,-0.33351850746550843,2.2180944028716167,-1.9681581935805315,-1.1819949565814938,1.861685296984556,0.4197515638976365,1.6640625
0.24251915916929404,-0.8237287069248804,-1.1171562823269205,0.49873337947095114,-0.08522455620084672,-0.5734824605203808,0.8456856545339361,2.047385637221338,-1.178946565933847,-0.49727908662831233,-0.5406753413976477,0.45365887136072314,1.0149284139936294,-0.2856434184615507,1.671875
0.19592670018663638,-0.5347960245918804,-0.2274770832883814,-0.5833125430278815,-0.08158142350139821,-0.964805596210411,-0.16909773676460102,4.501374681041778,-0.9652575302463252,-2.6718908472804617,1.1717802397783361,1.6606406286908553,-0.590909256304245,-0.7415966376893387,1.6796875
-0.08699545402597306,0.788480128192551,0.1715056150330735,-0.9176141958329078,0.03331277628513407,-0.5430087547795287,-1.0263039696445915,2.6115617142048793,-0.35231852080554116,-1.2418368231000607,0.854958349583806,0.7443052641164929,-0.6609297488287182,-0.3761603405011668,1.6875
-0.027818208462631857,0.30914388171612045,-0.6464999166930848,0.4751171988426197,0.032157409883219155,0.07378424472657676,-0.007752469153977829,-0.5692251914089593,0.2165352808431021,0.9621419396794778,-0.6231000723237156,-0.5932104602407353,0.2426364162628078,0.15607526480194991,1.6953125
0.42944006565895737,-1.7828097661896782,-1.0379867811321384,1.5478360003232001,-0.044695562770085434,0.1554800988538476,1.0763343117992474,-0.6961046783371251,1.0801466900779697,0.4578457665689898,-1.2847883618504745,-0.3454497068028444,0.34172082102509066,0.10302148396103585,1.703125
0.50773483604549,-1.9493884451046926,-0.3026976518094383,0.8370555549411388,-0.01947588844310046,-0.05838711359580495,0.3236802209214209,0.7513928790907902,1.5532963118163536,-1.244934569822479,-0.6412921813629693,0.6354467874301706,-0.18697441937084858,-0.20635333989331106,1.7109375
-0.12558030547169313,0.38755291997259955,0.25356735078961573,-0.08325867770995926,0.025354178503147598,0.11527691031563092,-0.39594779627534876,-0.46617706888785104,0.7193391225794186,-1.1613466801481682,0.4669211818134326,0.6508803379656356,-0.2982035383886586,-0.08931009436866723,1.71875
-0.6393921370701212,1.6053579505964581,-0.178714887427183,0.37279235107370867,-0.06400858056539958,0.5103597568151372,0.8571191836273043,-3.1776930437730506,-0.3343965598051246,0.11943311101994807,0.9599501440939331,-0.03481177467644591,-0.2745225655881584,0.27852438267315915,1.7265625
-0.3742006086841876,0.4020728715564733,-0.8241231763256893,1.1011915997837818,-0.1505997200009326,0.37821924890099173,1.9061624179444179,-2.556285460903189,-0.33970538837501013,0.6644758722350763,0.6133849818991378,-0.39892114886827423,-0.7017805595310798,0.28052914906369575,1.734375
0.06727479926132307,-0.21477507215657152,-0.6929119544540709,0.4650356879991898,-0.052051726695314965,-0.18098894255556716,0.3428634071988742,0.9786421833968469,-0.3959565475236793,0.8231155849181876,0.4433988871635415,-0.5799506197502451,-0.9918390992668404,-0.011878267997658176,1.7421875
0.037787568353902026,0.7492651652088901,0.41610677543455615,-0.948020167998943,0.09949727963327726,-0.27569621795825217,-1.7841776316838387,2.1474313678655466,-1.3354643828562576,1.3018905869725435,0.895569219233755,-0.8428904409576561,-0.40053488620938005,-0.06098134953511012,1.75
0.01979171100582627,0.4172078948035757,1.7469439264078426,-1.4309068443533903,0.12386846234945192,0.24678338936165586,-1.7270783662236044,-0.12762509949485426,-1.2505931954495462,1.169507013665142,0.5696446716304758,-0.6730793358324068,0.7652505976457706,0.15059510828982212,1.7578125
0.4174455525992092,-1.4367884905966444,2.0409560421268718,-0.7793285135873441,0.12713093024213334,0.5914137237317387,-0.9435998095791388,-1.6728339866742663,0.8390486775815963,0.29179950094987317,-1.1484242917350023,-0.15730217991762138,1.5986561892399545,0.23260812979397433,1.765625
0.4986494726049047,-1.210585131549618,1.1145749133198148,-0.2841282611938543,0.2036095712166343,0.398973371831574,-1.4799936957886508,-0.9601552270471126,2.3055200761168,-0.09415373019043717,-2.0731300616286217,-0.006133236536717779,1.4521321291975344,0.13546789752643576,1.7734375
-0.12809927994095685,1.0542746722414253,0.3003633957670732,-0.511112283487158,0.15201300530110098,0.07321572319157597,-1.3882600286097653,-0.3698059877519107,1.2058406682189786,-0.49312290390361735,-0.6650953911705908,0.2813790673681262,0.48208157928502027,0.006554352982885836,1.78125
-0.4630990530588188,1.0117952636437244,0.0834754563354505,-0.49523863317967154,-0.11958811681083435,-0.24921581523381794,1.013085167266342,0.09516974824044867,-0.5928483214578947,-2.069312401977784,1.027669401222735,1.3903715040150335,-0.3869480467518502,-0.24557109750876002,1.7890625
0.06388768399383639,-1.3251466641053629,-0.8429055772490163,0.4292452478081181,-0.2932606837838738,-0.7588916518238293,2.6814930834317026,2.4515219271928297,-1.1610183565336234,-2.6347355527056577,0.8675899415051221,1.7465856782491702,-0.6739246064594008,-0.5513390796545024,1.796875
0.37834710398837057,-1.1482314206538269,-2.4985794486852577,1.2496083727169376,-0.16324192138953328,-1.080986761390973,1.3132911502094349,4.532226749098047,-1.1241404135423751,0.1263244788160053,0.016077333071566707,-0.09556311615653984,-1.0546638303384328,-0.4516637880013421,1.8046875
-0.2678140731466087,1.6876593846094077,-2.5214602784840876,0.8171429819355215,-0.027409127234667294,-0.6408779133244304,0.25068864665168755,2.2192051609521513,-0.9122213380615881,2.8389361596907334,0.05413102171921674,-1.8083951256785762,-1.7893447717279827,0.09942851046732536,1.8125
-0.8852374306865851,2.3206946910334305,-0.26430773686382897,-0.28437562644349407,-0.12157258581076968,0.17789223473448282,1.97784096513471,-2.5320457562789986,0.1263717020124158,1.2360784173929125,0.1555464221712305,-0.6728071765729144,-1.6727974352025872,0.43985143748352434,1.8203125
-0.5453492981992982,0.27309954357570165,1.485215643156097,-0.7309315330401456,-0.15763518312067407,0.4967040279056262,2.600710601983394,-3.8050253716762588,1.142168225140665,-1.7329297412195628,-0.457620260178794,1.250954896217585,-0.06459639954732115,0.24676470697148523,1.828125
0.18950019579407318,-0.5908863543466367,0.9866740309697424,-0.2917818999335319,0.09564247796907685,0.35433016246784843,-0.7807020235227119,-1.2630598664253572,0.5777111295668406,-0.8307834445593728,-0.7262340877826384,0.563126455838196,1.6935641300818765,0.023494113941116123,1.8359375
0.5680110321797154,-0.33441824700180095,0.06286960289568107,0.42302702801264264,0.31029858099194346,0.43136078002623673,-3.764030280556788,0.093360186296058,-0.685847907105807,1.9509787497861255,-0.19704688816119098,-1.3227565279746192,2.3528188545790316,0.11112963725587396,1.84375
0.6182567123498397,-1.3219812257333967,0.31654163347868136,0.8346874465488648,0.19446338903223623,0.6632888551453596,-2.4634460346989,-1.026930805352649,-0.7384362669825372,1.4951564895916207,0.14668524174830233,-1.0356887641219312,2.1606697782562927,0.15623153834606487,1.8515625
0.34806588722720944,-1.3943071040456683,0.6228830220447213,0.4488522525197398,0.028851572553987962,0.4142039794117161,-0.5349491067364944,-1.001428898151017,0.06607832660517991,-1.0041013788384527,0.3303480183520447,0.5730760394179136,1.175259366191285,-0.07390550517975808,1.859375
-0.2531397509285646,1.4443782039618107,-0.01958702104408569,-0.4854684824260384,0.08558359423395273,-0.19932965949591555,-1.497591742348269,1.1591569041314964,0.4812156588723412,-1.150250350691331,1.1168461357284778,0.5807438646524964,-1.0208652241355178,-0.2433288110885328,1.8671875
-0.4589996390462499,2.561715736492314,-0.613820300724402,-0.600395750744171,0.10337239049390146,-0.41913652140006336,-1.7281286399454538,2.1707571919918127,0.8611349136071679,0.5289619362579382,1.384409169369366,-0.5884924113730972,-3.0955477337460247,-0.10655177934689322,1.875
0.21343536075018063,-1.3631383257318563,-0.2973557151901087,0.5003052917974717,-0.131679120625526,-0.14193639329851707,1.6984319068224583,0.7703206483388021,1.4956799016154636,0.7787924580690017,-0.26320633427999407,-0.665709568898509,-2.6861806928887826,0.09329857600781802,1.8828125
0.8100085169636989,-4.621394471014889,0.33917385465670846,1.0049100768249957,-0.2888452672444493,0.02017304641678841,4.05565039214763,-0.34757503629455344,1.137666317312983,-0.40810740324971023,-1.935062188899375,0.3169957000020172,-0.14291697271264728,0.06074896721488039,1.890625
0.3732640273340202,-1.9566088042102894,0.5376957183666595,-0.07957874307116103,-0.10310753963248141,-0.1260515640774508,1.3608125059667449,0.26433710912241254,-0.4970133121354655,-1.23206009627486,-0.9359129893492398,0.951266963828936,1.6018966963145376,-0.15842935711443593,1.8984375
-0.4142256806227871,2.1196713611505897,0.24533277038411197,-0.9335455365276684,0.10464497159389483,-0.16749741020986814,-1.8217302826955912,0.5384154226303234,-1.5842948473902803,-1.3846336565231891,1.1855665846940213,0.9854702484084544,1.398669314630166,-0.2713638247341536,1.90625
-0.5402407995902796,2.009827767346833,-0.12332464193137781,-0.40975979257902884,0.018508725178211765,-0.008627153703851607,-0.4970564390632908,-0.7375143923682494,-1.2723718759873741,-0.9676677460091683,0.9371531916337094,0.7410600916202982,0.9443804909197361,-0.09333254536272295,1.9140625
-0.3138826778469111,0.3883586379521348,-0.08510551629038526,-0.2372723136838373,-0.12448990827707772,-0.05807807729002917,2.0266987572269635,-1.3253684905739334,-0.94554894482697,0.19347203107835761,-0.969441702288486,0.17577278607808575,1.1054192076153182,0.16942951374446483,1.921875
-0.36107741329617593,1.2725046889663019,0.1329414436997108,-1.1248291761843943,-0.034857620420687734,-0.3489750326291362,0.9009782097093809,0.2872248535623547,-1.142398251018555,1.3544319201972825,-1.0420159361839831,-0.5653456178193242,0.47975299953542655,0.18974719600894946,1.9296875
-0.4045413427617484,2.395879500380377,-0.3281594028596233,-0.8388049350546806,0.11330022775504438,-0.3032209607230417,-1.5332826554386998,1.4236633660713836,-0.40252357980572256,1.7616807440995232,0.6201829280942087,-1.16016197006469,-1.437644369974505,0.09204687821382983,1.9375
-0.14049787550597626,0.9778337680187983,-1.1403784712073113,1.0644428307477072,0.07208117385764798,0.2405609342445417,-0.9209258845126957,-0.38879978273909005,1.481535059624448,1.6634178718642865,0.8734213680360453,-1.382671460524502,-2.6147111000886447,0.21519623221053955,1.9453125
0.05717706993331779,-0.7530685575745936,-0.7266433272329642,1.4664153926340007,-0.04680131350974168,0.5087512453353382,1.1865417573015897,-2.2847844175605876,2.186914800952822,0.9426646261973338,-0.5398494160692929,-0.798599275428404,-1.5413674522942271,0.3436408413722827,1.953125
0.05004685857361545,-0.7421515042154118,0.8092303124594566,-0.5293314492032344,-0.05778892979794141,0.012558324332454384,1.1340395492657227,-0.5593253892129662,0.5511872868680388,-0.5987422690876493,-0.9720883118449538,0.4835181964722747,0.37230418391947084,0.046195507277902156,1.9609375
0.25424243977383415,-0.8874699019184905,1.356831576803622,-1.3876386899178768,-0.01162311166815295,-0.40282167408106617,-0.3212334089936991,2.0968244637354476,-1.1988290496986107,-1.465627575501058,0.07534760042799164,1.0719673577073872,1.164523525693433,-0.34510637865326566,1.96875
0.6599393794156352,-2.2328803109148647,0.4875110224041542,0.49392056354331915,0.016086421636592366,0.1475747095893928,-0.866438458774074,0.8704779640734701,-0.8716745270819514,-0.5243422846270605,0.731665920973044,0.24782917674404537,1.0593319898440097,-0.2184550675555158,1.9765625
0.700293684048818,-2.3804190483690997,0.021693171500441078,1.8095612313269145,0.08617756970764762,0.8713081992161941,-1.2429778400575393,-1.9383399392996326,0.48509038995131964,0.3624246102640268,0.5635461791106234,-0.4769610739842738,1.030538382337383,0.10879017475450563,1.984375
0.2346526576397593,-0.06955874095986156,0.1839855152222088,0.4914149849966812,0.19125582177045838,0.4464745244459914,-2.4326925122599685,-0.7051545181643918,0.8859797891832595,-0.5837683061395114,0.4820980849114064,0.16478318976839754,0.7747001371813338,-0.06438974895269349,1.9921875
-0.2694115528136302,2.2852875826332757,-0.596643252622616,-0.8001034810314243,0.18661444553946555,-0.6320964315119951,-2.527453839291219,2.7048022260908207,0.571231820338457,-1.8391286021372948,0.2763056726606923,1.08748224821004,0.019846431083945036,-0.46693477403542777,2.0
-0.4723051914506142,2.2681002303597135,-1.7286128022900313,-0.05995098136131288,0.023648751946681295,-0.801156471453167,-0.16217637113487277,2.0788216578012024,0.616374296572582,-1.6218216950879638,-0.4610771257543605,1.063063604535342,-0.3764406768706118,-0.36585196872082143,2.0078125
-0.3889729771865639,0.530323258360938,-1.079080948263392,0.6974302487307874,-0.14989220753307123,-0.06753763287385639,2.382891392031152,-1.484613968859884,0.5495375880001514,-0.6148979945068731,-0.8118026152040848,0.5100374208553905,-0.16301676307775856,0.08990575349511333,2.015625
-0.07575226657141906,-0.923500764817952,0.5715983829319431,0.05744334736670956,-0.1732298282737207,0.284194950782755,2.3686074161408293,-1.9409730367950389,-0.4221720998014573,0.5540325600759417,-0.26847736763719887,-0.2133239360169403,-0.0953673398036269,0.2763286219459492,2.0234375
0.3470857577382414,-1.3958832257323552,0.6640950056840813,-0.20710824674138734,-0.05979831461614176,0.0727296155506308,0.42359001264982155,0.500291190449266,-1.7131442602974765,2.2676656985298727,0.2748830535460113,-1.3629511655020123,-0.017524606288442785,0.20592078306665573,2.03125
0.5139199865144204,-1.309971806422166,-0.2336929977751697,0.47606414002132363,0.014023665337237179,0.03818088742615703,-0.6467661102617801,1.1750449026317817,-2.3879729203065176,3.2489169543567313,0.4387942885387582,-2.023183226727901,0.5076401587130087,0.18977473069570316,2.0390625
0.12466537707257001,-0.6918374681509031,0.28516377993404785,-0.02521608993963149,-0.0759443029140087,0.07013202642597889,0.5345740493474352,0.04773627380109411,-1.9673680928477744,1.5724561295809936,0.6220989339313654,-0.8925030261250577,0.2548150674551476,0.1412074866455836,2.046875
-0.5360228241871466,0.551882127927144,1.4747295490825372,-1.6263736250972185,-0.20341087504361557,-0.20479053692332033,2.4491002352414983,-0.4563793179763662,-0.007969955325658034,-1.4084742084480746,0.33118953655151767,1.051448826835174,-1.4140625417485397,-0.0023593820924094153,2.0546875
-0.761695429070768,1.391679983001221,0.9213747853788905,-1.396986326635382,-0.15493302843553738,-0.21805285163468943,2.6532372119811485,-1.2107919367054212,2.6234216532941774,-2.3968522727717354,-0.8627546091240265,1.5777644632196766,-2.1879205939616213,0.021535167411773214,2.0625
-0.3112249736630458,0.7413164239789242,-0.5045359944537015,0.5267242038898824,0.018840166089346796,0.264508345146546,0.927896264259671,-2.3630357266109043,3.0974500192702807,-0.8689994681619646,-1.56633139758495,0.47386670566497513,-0.6322490749924865,0.19660722502864839,2.0703125
0.2188869848702047,-0.40484820486919215,-0.3213414046984218,0.7184735991223469,0.09148136142503502,0.3232902444574465,-0.7606341917798226,-0.9528088860219139,0.5142292318328557,0.8689893189748298,-0.5648057188011124,-0.610054578795488,0.7223842525842584,0.15774143522359987,2.078125
0.24450989144840446,-0.12722706629444996,0.6513267902567224,-0.7994498808780787,0.08122668702412929,-0.20121878673317847,-1.6707569273667628,2.1258873997019405,-1.60286231052778,1.102650013928699,0.9172145293311186,-0.7089542823965786,0.08582240689620785,-0.0986453175318123,2.0859375
-0.023473253523659286,1.391667637742094,-0.012542662175417756,-0.5850005463425826,0.19278991845165486,-0.22331451958357484,-2.971668530797186,2.062922359311062,-0.44953737253968096,-0.04937163148880274,1.1680187994543128,-0.10596825404395269,-0.15369733450338893,-0.24159218461706727,2.09375
-0.09988641676449501,2.181804577740121,-1.4370153644905155,1.0555989134759893,0.3515254792944615,0.25512917489398135,-4.174364560485044,-0.400427750362467,1.526432011620359,-1.3358454613247128,0.28974635280834116,0.5890708278913529,1.4309415539059678,-0.23201554744965283,2.1015625
0.03607730874794249,1.1930916595820111,-0.9284783463178843,0.6250523386308039,0.26091375502133357,0.10840575089087055,-2.818261650945733,-0.21987287180639184,1.1439628051319257,-1.296443213086919,-0.6256437973150015,0.7275626400230483,1.9953829894834971,-0.20031841754617666,2.109375
0.23007525664649237,-1.0594207435473084,1.0108542943484031,-1.082028880155476,-0.06254192050524258,-0.34884843800780757,0.757691549548078,1.5599678351429085,-0.5027824201683117,0.14118647832229386,-0.6333747846928321,0.03708260994154426,0.013238110613277112,-0.061032676545185474,2.1171875
0.47515936267958586,-3.1198434477886052,1.4221468715560401,-0.27651912309511884,-0.26502611971117424,0.06060940060632913,2.7133841339658917,0.3814713199294188,-1.2626794332606124,1.2151871430803736,0.5516177021775736,-0.7191814724975396,-1.3294978530490442,0.1516658045572475,2.125
0.5064543335920552,-2.832335745541262,-0.30888045678990544,1.9697112374093777,-0.18096085117149813,0.6222278171236437,1.457217418251404,-1.7042422537072293,-1.5308903569552426,0.6946245590604821,1.4946341100654448,-0.5262728712405187,0.2242935112710915,0.11349375410141,2.1328125
-0.004454866996710459,0.2650252453457229,-1.898207828917948,1.5748958960784918,-0.0139896401844412,-0.04082482913469673,-0.08867397154888476,-0.30964651634353885,-1.6640694263008795,-0.48066718401846814,0.301547353977649,0.4072947721019732,2.1248760834599003,-0.17196469545214302,2.140625
-0.543054012113465,2.5081040859870196,-1.8377963031969622,-0.46832338634901693,0.0018413694385682117,-0.9863019747657618,0.6169544554204748,1.8706192987118855,-0.7065970673396215,-0.8938541769969269,-1.8414465872518933,0.9166020353381142,1.6214950400398769,-0.2564230500227338,2.1484375
-0.2394568457299277,0.3512767452440978,-0.881952690383736,-0.1573914074323753,-0.13240555228641046,-0.5906562530649347,2.320718736370995,0.7280529552571826,0.6274428148104937,-0.43565104551809736,-1.7563496276097437,0.46906524637360164,-0.2692551525604786,-0.03317650611709895,2.15625
0.5384435083605074,-3.301195970693184,-0.008021799739238368,1.535274263026103,-0.22736395832399495,0.3819714799165765,2.5294154934880395,-1.0289439422734528,0.6658602959051252,0.2029054060735258,0.4089909641994426,-0.29905809427822216,-1.5128345703203834,0.11348382643903865,2.1640625
0.533523877389595,-2.725062763191385,0.9223847495544917,0.6947282343342104,-0.11821281704440659,0.4577148203355265,0.7406460103831533,-0.32822339836264075,0.36255493790010934,0.5225211736315489,1.4723020614216156,-0.60348793264319,-2.0144641395188345,0.0825005288046932,2.171875
-0.3151834770739045,1.3593060410939422,2.0119051584518575,-1.9079896471785907,0.11133462088467085,0.18023877978424974,-1.3970732906971584,-0.05966550035045852,1.2405779981345175,0.5566101110057782,0.8165084143553252,-0.5106060710138275,-2.2659200524609195,0.17982961430537348,2.1796875
-0.7719458964903779,3.1510972448349257,2.357540544960751,-2.44248261519015,0.2023547470101365,0.46958159471081423,-1.985794021005686,-1.9505677819676854,1.72643341479638,0.76988055938807,0.5069785097976842,-0.5848768292979508,-1.8525926228154146,0.4032379151661966,2.1875
-0.4087479423449632,1.5846763048274648,1.3073916006450956,-0.9317934257897177,0.11472460929567185,0.5857896619483018,-1.152272347448759,-2.307672539609204,0.3956356018906207,1.1302679405988054,0.5719137905404941,-0.7567045320133174,-0.5121628565561169,0.37747126081581645,2.1953125
-0.09137688818456664,0.8106791330750941,-0.07652262111712049,-0.3742718589404369,0.07580730750331335,-0.08279600204570445,-0.6963607728067319,0.1406249917138828,-0.5641080778464915,0.6329208377413044,-0.4979295967063147,-0.2914871836947034,0.9610576106701559,0.05416847199581406,2.203125
-0.23885155815039263,1.6131470720069152,-0.33744265751280195,-1.0344228314779405,0.11203425618537319,-0.5995872761049685,-0.6748632090852081,1.3988757646742402,0.3780107917397323,-1.0151303068625885,-1.809160774260293,0.8533982288207911,1.5508132540705264,-0.19500173163389686,2.2109375
-0.26383931149209155,0.777363709916291,0.011245856480295063,-0.6898377156136588,-0.008442070946570162,-0.36620884108512525,0.6845413353975262,0.14651627461002714,0.8605104072448737,-2.2359547200687446,-1.367761786439415,1.5879601010062023,1.0774575485008937,-0.2129550685182286,2.21875
0.10147149881219195,-1.4403577462704988,-0.5956855335895755,0.9448922693179715,-0.2128839789707733,-0.1097677634567343,2.2511830855235306,-0.20388963798504273,-0.6580506522672347,-1.7323273914992312,0.3272112827533738,1.1704448350251804,0.3794282144671902,-0.2224129467317446,2.2265625
0.3778313292615586,-1.4638834806669483,-1.8190828221662758,1.9318065305913221,-0.1289023323033067,-0.19761278506796673,0.5542506400167748,1.3435303110604793,-2.054323996199263,-0.3029543629157495,1.3762382159682993,0.14943598370250166,0.5480081149148677,-0.31406326572300214,2.234375
0.330829082282997,0.35535891003418535,-1.8565147256950356,1.39236027340277,0.16753043542424878,-0.13406659660965978,-2.8110517953163914,1.8657268523320802,-1.8699253744909996,0.9672268303102933,1.083675667871153,-0.7140367641825913,1.4638089354621464,-0.23937451357351333,2.2421875
0.22927297402326358,0.3376809096463348,-0.698543623556073,0.46138497296927594,0.16236485790686736,0.07976530373388725,-1.9794080685511513,0.4582802658322029,-1.2598922519488436,2.0932594325976326,-0.17026788605653304,-1.3017259271761614,1.472124823804615,0.11626609578264974,2.25
0.19861199828285814,-1.3966278256790632,-0.11596651198180062,0.28550718647587225,-0.1475368005432296,0.005830646418182774,2.3173234097967845,-0.5140124672249903,-0.6187299990447235,2.468678188406835,-1.2682801813035804,-1.399321934018244,-0.19459573352194512,0.3781008468955416,2.2578125
0.19610702446581946,-1.5498798255915676,-0.40530283139375034,0.6149155889887554,-0.17417193302018108,-0.11506370890335492,2.405506549196434,0.10546728827196789,0.7291982240382409,0.7964547402362472,-0.7640378316584033,-0.5204000255864847,-1.4595688304495484,0.13997321467777732,2.265625
0.30954765479745394,-0.2270506957858488,-0.11250283534939844,0.5136122233197395,0.1848642357962372,0.11395115251874978,-2.58847882762733,0.8984686564392409,1.878000668392255,-1.8945164786713276,0.682086990140243,0.8619916928940602,-0.2765149111777349,-0.3433032667789403,2.2734375
0.4268520786931403,-0.2594098209371925,0.9486189842279864,-0.20240929268488222,0.3052840272625623,0.30186038133828774,-3.979577840764851,0.5241725895338205,1.6660280002749368,-2.5888999765795817,0.44904087069441745,1.3639894793132852,1.4436590630227306,-0.39930610992978505,2.28125
0.16271278353689006,-1.3371946520183344,1.3047826512945042,-0.7273007565573281,-0.06884514741637834,0.07070156400167762,1.3716416560589966,-0.7143575262565092,0.8881479067756103,-0.8757977091605168,-1.253149700797482,0.6633129468588703,0.4626241808524695,0.05193492703316275,2.2890625
-0.40301863933162635,-0.7806822534230158,0.6456624342800639,-0.5734309331448445,-0.3733292355094641,-0.12437947186671204,5.141531296094743,-1.5628514985284134,0.3061829135740002,0.4032932280411273,-0.932195099857368,-0.023414827756373442,-2.067770905483811,0.3442059836654136,2.296875
-0.6614163656761227,1.240764760400538,0.4251567798970669,-0.42711949256486004,-0.1802203209439269,0.13100084978161897,1.7789773767351265,-1.368030488363087,-0.33520104352036734,-0.046865855357997914,1.7181486013800482,0.010751282195055549,-2.4430396229966633,0.1581398571513014,2.3046875
-0.4764560983707696,2.2521952558854523,1.1986735439037421,-0.9274423669950383,0.16010954884313033,0.45787460467437335,-2.7758967854809202,-0.8963707503570745,-0.21034232969142538,-0.44065512941748236,2.7119436165432673,0.06315892522889174,-1.1077648895120482,-0.00811403323021498,2.3125
-0.34985816712292456,1.7270565922113112,1.5695404632451022,-1.3689175552258241,0.16769408891794907,0.36613955395076003,-2.100520524459526,-0.8311881358742865,1.085557629930996,0.1844803566151711,1.0180281214533178,-0.287114633721151,-1.3327302926451297,0.15103295632820354,2.3203125
-0.4056699546839835,1.0180841332158872,0.4985103051051503,-0.8553466307731556,-0.06167036760755419,-0.08237319222212465,0.9930153991675752,-0.26225532622952935,0.8336666454583274,0.6635694210169191,0.014671950936109015,-0.43532678982534856,-2.1208615591116304,0.19997753886679578,2.328125
-0.22608796531572894,0.6252429069054025,-1.0470148536043538,0.10243738388444894,-0.1325801200981536,-0.48526092045944264,1.2595912727977447,1.1938511607328806,-2.235608095404539,0.7164770331077056,0.3420090081013641,-0.24756193861638698,0.19843760230364532,-0.0650707159145761,2.3359375
0.2237797461042781,0.07783937552172385,-1.6474172050991411,0.6012397824100094,0.030315750699328493,-0.4875734130579842,-0.43171997689809105,1.5413388446040632,-3.7100644793969613,1.1720879117204266,-0.982778703047646,-0.3395738803184205,4.098442161926124,-0.14506430710059146,2.34375
0.4934793850220422,-0.7720578783989003,-1.3786226450916113,0.8730792047694578,0.14284001456221995,-0.1426752774785905,-0.47257322740385793,-0.064249315103123,-0.656760725925684,1.3011911602961572,-3.453024893207971,-0.49307969592266127,4.519642322291205,0.10469508600140891,2.3515625
0.4298897265556648,-1.5291931030996055,-1.0789350562989835,1.2113403462372125,0.0251329294324988,0.020765579509866242,1.064304073003188,-0.8522571473622441,2.119698727828338,-0.0005284009357073481,-3.1472875869282024,0.06315608769354476,1.5596904755017442,0.11559003396847049,2.359375
0.2540204986840121,-1.4693462263446349,-0.7097504978607986,0.9336131615755227,-0.12316729289656683,-0.16699504188763156,1.4315989702751741,0.5054730994026706,0.5683500453479108,-1.1394471288141301,-0.25370343504615894,0.6734702811338813,-0.3185167567135725,-0.18519304779383977,2.3671875
0.08488400728844847,-0.3184958198776052,0.051498338431743035,0.10230503973204948,-0.03188643551814024,-0.0443570672198533,-0.29306450824613045,0.7917410095532689,-0.9408308315781508,-0.15633579215450927,1.2422318356191342,0.03859359570505922,-0.3902934136828152,-0.13600683899591876,2.375
-0.00804790994337092,0.6937813282270815,0.49910158126714654,0.10501081826452585,0.1814297580418262,0.5815272556416133,-2.198054526527109,-1.1946890937831753,1.4009340275749413,1.241542273110676,0.8335903275069705,-1.0792694029407224,-1.3069916996324036,0.2501477859435022,2.3828125
0.07562175778373458,0.2938641178777112,-0.0014247358382955804,0.8304429750855303,0.16899735321276688,0.61491647165573,-2.1477060599153974,-1.0697928106405707,2.8080834944468394,0.3636486992844465,1.1571170699837876,-0.7248694292306795,-2.5062552268568163,0.13727296867292274,2.390625
0.14743454854160287,-0.45341235825589415,-0.3816736516769352,0.1866887144223697,-0.062491967315667,-0.4508388591700362,-0.4316728900267612,2.767490434630539,-0.5321042327271832,-1.6134026201876794,1.9074036612192453,0.8367142351011566,-1.431608780840937,-0.4891951455839316,2.3984375
-0.035782111718981616,0.008956015156603927,0.6016650519926234,-1.856510489813879,-0.15143969994817716,-1.1660167308429672,0.6753144791352208,4.599773696387592,-3.2200994997444807,-1.8878171718149253,0.9495612044495401,1.493950229742789,0.6270519041989304,-0.6400897583156524,2.40625
-0.18254865107166407,0.5074702831350193,1.9331317725256296,-2.3534301557822093,0.0002733324950193279,-0.3648997086400842,0.12328396557351703,1.0580332418189784,-0.5138140184107882,-0.9399077101266676,-0.5891145230945161,0.8279138384078936,0.5958657081678007,-0.10389336193138096,2.4140625
0.06421911678544527,-0.6185439665274945,1.7596058178780918,-0.3244540546633419,0.09408822812665153,0.7987781712304661,-0.5624143680489646,-2.8195372445440396,2.8959977512257513,-0.889634697429312,-0.2948170334047936,0.3470444274581881,-0.6840500334225038,0.23310716962589037,2.421875
0.31997361377271627,-1.8088276366732408,0.4793861036012854,1.3795298019127846,-0.010883448654293335,0.8699961723923736,-0.04643129595026949,-2.66754085840666,1.6786273669782168,-1.177071005488644,1.000080394228477,0.44345393262447214,-0.5233595547512159,0.06380061820772745,2.4296875
0.07003556133569366,-0.8480854373156179,-0.16110065092574893,0.9000512820288431,-0.10156109362231618,0.34794056849532473,0.7466317214204327,-1.3205045545068854,-1.3868934070516483,-6.29234704407542e-05,1.1272120359360729,0.019260699525123336,0.5716504828087012,0.0365748975965641,2.4375
-0.40748736061152485,1.260344996889172,-0.2909630953924467,-0.04549921598890667,-0.04271367785783999,0.17417883929737019,0.7357785170521056,-1.6658345253143045,-1.7872970515314828,1.8327787982844799,0.008107428950259253,-0.9333751685090078,0.8252022505517375,0.3376341124863572,2.4453125
-0.6274668163449748,2.5136343912914225,-1.2878605064265125,0.10406248701166862,0.0339324846587946,-0.01608020726199061,0.6456187887341298,-1.7754014010019377,-0.42958742206402695,2.174424962576549,-1.5423009709156301,-1.1179396213066046,0.8953894097158397,0.4305389487417967,2.453125
-0.62318136624902,2.664987939555383,-2.3968599302146627,0.3735239497437444,0.017960571307715164,-0.5159760583040208,1.2758416066399587,-0.5581573044221959,0.22105142649706822,1.2691499068864944,-2.917337279809637,-0.4610892551959344,1.4156023517199765,0.23566571302039052,2.4609375
-0.3972580472048841,1.480675084948813,-1.4478255210657438,-0.14215127494119525,-0.04389259217447861,-0.5729893659844153,1.7511387994668834,0.22902147257756908,0.2908678228498112,1.075426612794075,-2.6224919924942096,-0.3807582240387085,0.5999475458719672,0.1804538004055758,2.46875
0.2047703592831516,-1.1538127132711187,0.8965582979741477,-0.6139103333286892,-0.08978501347113535,-0.08160802657200628,1.0041158726650294,0.9047471010021284,0.1115975329396558,1.6439726480326355,0.04077916366192112,-1.0910737840826836,-1.963942918624315,0.18602748067431218,2.4765625
0.6400294305923016,-2.555926879927841,1.4305033043652469,-0.30252316091597786,-0.09104156498611121,0.001539378981633788,-0.4013730950611171,2.6190137730317256,-0.681058070865513,0.9566636016446547,2.621980969379203,-0.9413161811897838,-3.165602029443487,-0.13252306758990892,2.484375
0.22798324854120375,-0.5501356989132132,-0.260110992154999,0.31950790142962066,-0.026258295605717002,-0.3027508766623101,-1.1431964371063594,2.665988715117683,-1.002955074784725,-1.4100217071668468,2.4970296918066306,0.6661995029784124,-1.1863333935111557,-0.4946234342032622,2.4921875
-0.2967364812828874,1.353903008130899,-0.8673843454397282,0.5479459670234037,0.07306236834895585,-0.005198874929245136,-1.0155125396096043,-0.613835251614321,0.3015875745008703,-2.9105176546532845,0.4543403328550548,1.8322202777660364,1.5050640710653367,-0.35739614120222757,2.5
0.2683700366091931,-0.839238117789268,0.8279566606974925,0.19401221329828106,0.14809247685319032,0.5669538570628367,-1.0154966336187898,-2.2577018893078153,1.8805584148956422,-1.682605266848143,-1.3847461886477745,1.0410406151467735,2.2357318165116937,0.017318528205327383,2.5078125
1.242543478347681,-3.805177438389391,1.8425229728723245,-0.35337022558851316,0.18099693283862694,0.2548398884412367,-1.6543553906374926,1.1275477657944037,1.9003153294939366,0.36989290074292314,-2.0583148166218286,-0.37480195199894867,1.3278839872204695,-0.0021820998471713217,2.515625
0.9783984134733773,-2.438795412630143,0.7041118663563043,-0.40639102180986614,0.14332571905850325,-0.3656514000153176,-1.9776454017925433,3.6907816619296683,0.6904613982202354,0.40255558981591366,-0.7403405315000828,-0.42907250204038533,0.016904677684184174,-0.27029413693371984,2.5234375
-0.22668360247858138,0.9140471278512253,-0.022290252156767852,0.08186427993684245,0.008544287891601453,0.06252706877319661,-1.0890974990177809,0.35375300840571483,-0.6076623485289286,-1.073906392506695,2.342091762462611,0.5093887517591129,-1.029456641783174,-0.22322038606399075,2.53125
-0.7045895129217409,1.456829867193405,0.5883121809868942,0.34847656718496045,-0.11763275720158677,0.7495428514138205,0.19528862054392054,-3.2282245247601247,-1.5445499811153072,-1.5347977932354837,3.8470979727397197,0.8627695666301565,-0.9283351871345411,0.010770588571004807,2.5390625
-0.384038500401668,0.851370160649497,-0.3243875810700095,0.20883904796217176,-0.10711909522017506,0.055167285119188635,0.7919428633797844,-0.9032136124464684,-1.7211169883087336,-0.5150043961266663,1.3249725650136557,0.43574691555317363,0.32788967845140543,-0.040243349227408465,2.546875
-0.48889207874477925,2.3835965664745498,-2.9344063054639737,0.2608941565643298,-0.0461642235622629,-1.1381011007288162,1.2804963623096826,2.379567004496772,-1.0197107518834734,0.6661498717394996,-2.1206595483266018,-0.0730957866706217,0.9853220613292107,-0.13464959149802266,2.5546875
-0.9074132203235447,3.427253706684264,-2.8853316906509296,0.2883488117966205,-0.06880109137661496,-0.7715006601315068,2.1785824810220262,-0.060364300211988235,-0.18093571640971917,1.54191822878034,-2.524033954845337,-0.6013004054325759,0.3271888661606376,0.23691956968091088,2.5625
-0.5701862143139478,1.0599504505340591,0.7242860079572896,-0.4270294660058665,-0.07290750409626355,0.6165740587609998,2.0844825282844393,-4.233686318053993,0.4258791408566451,2.054880836180349,-1.2674981478044895,-1.0838478532612352,-0.02590512007381097,0.7162177890978219,2.5703125
0.22418389305139583,-1.478381784244515,2.779507623060725,-1.138454232386672,0.03989256692725109,0.8727848448523229,0.4177326258478352,-3.2386442523759786,1.144750135437611,1.482365279206582,-1.2276196211514732,-0.884255787197029,0.4283683938656857,0.5789979489299548,2.578125
0.3650630210235251,-1.0593582663085994,0.9518493893768245,-0.5964449111923461,0.08320797634003636,0.011406743700478745,-0.532794863314666,0.5355307345505789,1.5012032630928984,0.056833967604118164,-1.2284138663973097,-0.09486493160319695,-0.025097807021471512,0.03173510625105602,2.5859375
0.04798715621200947,-0.3058917404980756,-0.5700540333494843,0.39809686785368403,-0.057799177096724795,-0.2543382354772162,0.42860592248644236,1.1789820042621961,0.754493105949684,-0.7375328628481621,0.4158378309003295,0.32757765923433535,-1.4437249864468222,-0.18406281105685424,2.59375
0.15364933817802312,-1.374364114048688,0.689211915384706,0.26022220128078766,-0.1351928207854988,0.19755447091860134,0.7666784873200658,0.0012605132370619176,-0.21928809335947538,-0.7415999855161508,1.8743636535377315,0.2942531517813879,-1.6648324479731624,-0.1039943723064552,2.6015625
0.4436301184950317,-1.6308656295281336,1.3880735549934582,-0.3857262771172631,0.008591376455697903,0.1351406083425877,-1.0702913837045167,1.154281403814255,-0.3631678410868526,-0.9587881877159911,1.644915103440435,0.42399470730948735,-0.5464286664739204,-0.24431011995423332,2.609375
0.2891527749507891,0.05861410765660428,-0.46401071209123584,0.07546859874594124,0.12341357192702483,-0.37730101693656415,-2.3682743449112347,2.9434475049139963,-0.4774120648748847,-0.7822899853739953,1.1702032495266737,0.31995593258238814,-0.07828115344025943,-0.4326289065419378,2.6171875
0.12107708763325606,0.35501048800043195,-1.8132011600806452,1.1602238342658788,0.031173526236542178,-0.3150808641907345,-1.01677759296512,1.8930170743860797,-1.1297601965569133,0.7178516923157623,0.9401306011742637,-0.5549831725127224,-0.19181640742760506,-0.19646861656652392,2.625
0.45089828683724403,-1.6999478724846253,-0.7603747865763256,1.2065240033110016,-0.05624259198154337,0.12496570648944191,0.7019430941545093,-0.12464686585488013,-0.9614887446019376,1.667895948958056,-0.414228072612394,-1.021558863489377,0.7411370625088913,0.14585354950493204,2.6328125
0.5928370490340845,-2.1164170091821934,0.3379940580398866,0.20963314963582166,0.023145274726715303,0.04662189863850777,0.3850495961748094,-0.037318111507120985,0.4407760040882694,0.11494315070864194,-2.0144949160391734,0.040439296016008555,1.9416498219414986,0.0363427854595455,2.640625
-0.08999030715675178,0.8039842756730192,-0.04757565998253505,-0.545953652477255,0.11090610904325114,-0.2612844626924154,-0.7259942923484128,0.387490941048453,1.1741142692879305,-1.758076622824996,-1.4657214453766536,1.201111606208494,1.4199405493052968,-0.20183119790431703,2.6484375
-0.7853729554125931,3.1134906353517016,-0.29855642507222213,-0.580635475109602,0.08643738957032658,-0.0025611173969405546,-0.8490404860636438,-1.1029761964563758,0.47096500267468844,-1.0194152825781075,0.42439255305074575,0.6737830783382001,-0.12227727263970439,-0.008119549171190014,2.65625
-0.5191889995153669,1.8235953564615333,0.4097341389756348,-0.34427861306821467,0.04689568902670313,0.4263754243005293,-0.5759854368868293,-2.0199481215266673,-0.10214329948305693,0.724130620855155,1.0134348455191615,-0.49084271085264586,-0.6590319155783894,0.26596788659344345,2.6640625
0.15407453047644584,-0.48184510369672734,0.7092050087540469,-0.1874097634899368,0.037023197774143306,0.22344681717265405,-0.6492958592193749,-0.15613460652519887,0.03115882739319767,0.4268432399542404,0.5142718505137972,-0.35657254510918357,-0.32822132727530723,0.06162244562857814,2.671875
0.10784660542727727,-0.39471323301475925,0.09030099953543133,-0.11448510106849163,-0.023005625197060887,-0.2016553761481082,-0.11823764871707594,1.1580568486268987,-0.16588535763214468,-0.8937512692432839,0.5066079436584379,0.5238332753057566,-0.25675101865990957,-0.21870725511997563,2.6796875
-0.5094842740324729,1.1099326716732574,-0.40059744014581494,0.028393127517404654,-0.12365347085118282,-0.041426619461397765,1.5489280145877118,-1.1755178629069172,-0.49531758550508903,-0.6784681343349432,0.31443967209774076,0.5584668881572182,-0.16637453301044033,0.032374791091236824,2.6875
-0.6723243605033615,1.1958706511855288,-0.34035825334770814,0.2456554268615474,-0.15539470702984923,0.3236062551083375,2.7732875157319907,-3.615111556832008,0.10211939030596107,0.3002785732413692,-0.8838681840598427,0.048980347793073226,0.27050736165593187,0.409297553563276,2.6953125
-0.1704980858440305,-0.025474278884973476,-0.10312119412248978,0.04900321184027313,-0.0761528024203751,0.06157366268668053,1.8049261295128347,-1.5411260715256367,0.9004213984012577,0.14008268082614675,-1.5533636612398594,0.05107318889678829,0.23932838845314836,0.22454439944181773,2.703125
0.28378787927520827,-0.5025220351953088,0.33430757235025105,-0.8543363612685915,0.04740286457320547,-0.5434392964308143,-0.563889705796195,2.7254016343752405,0.43640707721044436,-0.25412354386085656,-0.7717607862831934,0.1562385470870624,-0.27138141820804235,-0.22273359470482065,2.7109375
0.3226562956357975,-0.2606664900854514,0.8994519088954516,-1.4995934812059084,0.09186702066517827,-0.5870482684517495,-1.53234521656843,3.5690746676208165,-0.8745038673714347,0.6574855443908092,-0.042225463824140295,-0.39165417018172627,-0.13922344260556474,-0.21508000401719915,2.71875
0.2585604458026562,-0.8709556738255679,0.8438003629702222,-0.6214611145993486,-0.0135479203545414,-0.006680351889328013,-0.03550581816838535,0.6819171476903078,-1.5426213927438206,1.7836723713679983,0.052481014486460566,-1.025890810498491,0.34759663025821974,0.14612328255161341,2.7265625
0.31810874454524135,-1.9525974102927166,-0.1021657814208006,1.2571145975579705,-0.14068435572347723,0.4747837998138506,1.3693809163267536,-1.4691225325028139,-0.9907562104080141,1.2523111458763145,0.7967061970917911,-0.8349132971888913,-0.19823740148251195,0.21789908662678845,2.734375
0.3797789057718149,-1.7535987976803273,-1.0444061244313676,2.164405656618154,-0.08046230139525708,0.39179131743974505,0.16100291856051713,-0.5181655659122739,0.344557375348779,-0.6255126031636744,1.7993242685805886,0.0714398223445686,-1.1542553256883317,-0.13568822253090582,2.7421875
0.35969493712106526,-0.4763280253620822,-1.1059694398618947,1.2640379546869096,0.11372153611102122,-0.08704137641560716,-2.055739104887211,1.7063507155035618,1.3191173907319007,-1.8361200554162864,1.1290659960291383,0.798933213252397,-0.674217636977963,-0.4526628338366873,2.75
0.2502140052428479,0.2772290895342602,-0.42832932438290455,-0.18148143716957518,0.17508082582840215,-0.3976579600571754,-2.082449896357825,2.278848731532144,0.8681159703160742,-0.9153382641660028,-0.6476713579751211,0.4914519983010198,0.6365169871508877,-0.32193545810718716,2.7578125
-0.02535566768535567,0.4908551526178156,0.28840272832919284,-0.6862699660489574,0.06995531180146987,-0.08822213118183016,-0.3502692139389068,0.15872530442325228,-0.1629049409777305,1.2802173511708401,-1.0839018993028247,-0.6852328869646563,0.6207688738234981,0.17326538802162492,2.765625
-0.3691571865459376,1.103784207436433,0.6271440010812359,-0.37571790915692593,0.02509313782569529,0.5063464924085468,0.1770283716240421,-2.502990391946848,0.09412262429415473,1.92716493101255,-0.04781105567859568,-1.1790973243628733,-0.4759367840292786,0.48872268877555236,2.7734375
-0.47791293215443403,1.653695370095191,0.6473170547917382,-0.3372675315689355,0.08079146448920371,0.5341858821568659,-0.7699125988144045,-2.4345948371655766,1.0200895910843903,-0.035325211382514446,0.6876228030357409,-0.07740754878176155,-0.7310683868744604,0.23924874905636626,2.78125
-0.32928964379139747,1.2516720894029183,0.41395353416399405,-0.6532430846432313,0.04424488335010663,-0.04258831107358765,-0.6881689340014354,-0.1001272009337432,0.40832656176320337,-1.645492479213635,0.5980719901813947,1.018159729626651,-0.10514208987420093,-0.17031698319034516,2.7890625
-0.20602580730540396,0.37997087682781205,-0.2990990781495534,-0.2632225471649382,-0.10126158692716834,-0.34480603397741144,1.13664375150808,0.5671688877829854,-0.9679646020890831,-0.6010979815750213,-0.050576952504447624,0.5446842476128071,0.32384728796314355,-0.11859578934133985,2.796875
-0.1672175465531119,-0.1361668007648656,-1.3481207821990604,0.9058671341558372,-0.16415952285649743,-0.16009611528209264,2.577593778276919,-1.0163967206263764,-0.5765417454640978,0.3145303868321747,-1.2832917622766142,0.03850219568865525,0.8901989892200419,0.12494529396090961,2.8046875
-0.08192728898262705,-0.2475475399839297,-1.6132777932061237,1.1883881730201704,-0.1029509711927216,-0.20361569687981623,2.065081955270672,-0.9973943704178899,0.629030750647614,-1.6177795594222015,-1.8933759733941062,1.218287057375568,1.7631233209431783,-0.10581047318238623,2.8125
-0.01434964100632169,-0.10697541342974216,-0.18740426143062677,-0.28547451893125714,-0.0431075174004806,-0.48929622712205056,0.4362301776453984,1.2602129368140924,-0.03253259075871849,-3.1620604155934675,-0.4641711818425713,2.132396842196107,1.4429312639093137,-0.4861313696184105,2.8203125
0.047467959427638366,-0.1674909432985172,1.8543315493684598,-1.7553101213642266,-0.0028959226836090908,-0.2141571769968627,-0.7586787356030995,1.715716739976953,-1.3896167147714353,-0.6369378313536614,1.2401762471828541,0.4526630084201293,-0.1774151737054387,-0.20795668777995086,2.828125
0.36877996172440386,-1.1749105054350146,2.3710369350038336,-1.270498123373955,0.07408057530181068,0.49658357048311,-1.105027286992082,-0.29221083927419206,-0.7422146356080396,2.989078273188928,0.584904263828208,-1.9515082552877774,-0.7652572384717719,0.4174358456832187,2.8359375
0.7482413110687693,-2.243674394078232,1.0236545780646158,0.3028687234374642,0.1225030656167934,0.6180708084430586,-1.102917999298115,-0.7473707221879174,0.6390557064821605,3.1957374846669437,-0.785701416615431,-2.173368080706879,-0.0489912691161932,0.45292448753230313,2.84375
0.464786364528743,-1.1136511237598286,-0.377522464482656,0.7560715867316208,0.06828609250853208,0.08768651696521372,-1.046520498588161,0.9557672467113953,0.3606169966531801,1.2854156757808004,0.2302708772227523,-1.0145719347351658,-0.6841346903735409,0.02816661587436304,2.8515625
-0.3866728438713968,1.6992390759797988,-0.6137784392819093,0.00337750882599991,0.0036682411185184273,-0.16622055054073873,-0.8073676249099384,1.0771914085934362,-0.220097172762806,0.4635896982436165,2.0097620403610708,-0.494362770528931,-2.501701757899061,-0.06734092167797454,2.859375
-0.6777104744438546,2.5136746038427384,-0.4296401988810347,-0.20129327540194472,0.021797766381575063,0.038465845592876156,-0.4166282829539286,-0.6953663462639801,0.4668945561048833,0.04881951408727107,1.2183614812852244,-0.13806821809226438,-1.8297936765639355,0.07922762940904328,2.8671875
-0.06716522450985381,0.29256460852089977,-0.7364206007618936,0.5509766824515002,0.020466192528269804,-0.011300124475269683,0.09856226508638312,-0.6501372123151616,0.38199192750716043,-1.1182113123975461,-0.7130147375631493,0.7707947216850914,1.2767240217914293,-0.09617097870480452,2.875
0.36085166487975384,-1.4852294675809032,-1.1154280506395573,0.8207971942116188,-0.11467328169880249,-0.49464477770650284,1.1581446533562652,1.6265263642802856,-1.435118039235,-1.3652418863759697,-0.6085541525436912,1.047104719328154,1.982310925810489,-0.37654284349828265,2.8828125
-0.021857466994174415,-0.6810818485285234,-0.8103874659848754,0.06397571538928168,-0.2513726517952023,-0.7231386956649272,2.4882171921119003,2.27585569807713,-1.8021226127773982,-0.18114504298482242,0.38052829570003993,0.27705066055711636,-0.7849550609731581,-0.2301649302662173,2.890625
-0.40092536059167816,0.5003488212927941,0.040364951878183675,-0.4049883177507295,-0.16596065142319044,-0.172458269773228,2.317619098167548,-0.4354692197754318,0.6778978729743838,0.30498216253324917,-0.24017507473414654,-0.14672586266262694,-2.0478682056254356,0.17181637422982685,2.8984375
-0.11347092241233207,0.17487292823098455,0.6447173887762261,0.24080027681845947,0.10163253605349865,0.751542907816831,-0.1499646090684113,-3.5639557397618042,2.5469313795004638,-0.2458396843557059,-1.249322069971261,0.08099261596537904,0.4286786768672391,0.35183815904783533,2.90625
0.26449652630265247,-0.20866684866023744,0.3131171228807016,0.9612104858908115,0.2719281562125286,1.0010826084144415,-2.5045200752606815,-3.4638791541833873,1.8349399173351357,-0.2441980049510048,-0.9106226832016937,0.014376886181352374,2.442749195417864,0.2295266973700835,2.9140625
0.09499752587340622,0.7019541017753974,-0.7688328576206136,0.5722635410264051,0.20014569229422302,0.10740881435967777,-2.0334652998981944,-0.14287493714343172,1.115179109991881,-0.21138332528159806,-0.7144704989423765,0.03508154745430142,1.0963140033230263,-0.05012397602540424,2.921875
-0.3058215331220362,1.6183548457782986,-1.1698475019245602,-0.5774920097455334,0.025065180007601537,-0.902584607488833,0.21025319589757216,2.553636429699326,1.4292958629798023,-1.2246567783063558,-1.4589488712045613,0.8260561897070298,-0.7300279118008663,-0.29238901960302016,2.9296875
-0.33711352183387494,1.0189956327230194,0.15620897456465727,-1.220474738168655,-0.06360108991146467,-0.6473839569097569,0.9137357570308691,1.5576480730682365,0.03156827966015759,-1.4141958864582158,-0.6188996671627234,1.0631985059813784,-0.21050194742708267,-0.22961210811283017,2.9375
0.08242582157883369,-0.5935736788059998,1.7755071966069313,-0.6414891263441304,-0.021687449216458356,0.5362563236654545,-0.8547339602655293,-1.0432788465526313,-3.166212478433685,0.6058189566184983,2.4223437604725233,-0.30558070511277663,1.1345934784068707,0.06930333409861236,2.9453125
0.5896135299482006,-1.8382076660712432,1.6612880997897204,0.4308136957469767,0.0684160396575682,1.0005642559821175,-2.6006195933845837,-1.070409181535653,-3.8740491312197607,2.214053972748522,3.7531522226573064,-1.5505530851748635,1.0624718393591979,0.15396526252733625,2.953125
0.7371722557245465,-2.1767809646738,0.781972939317389,0.3602423194363326,0.06649207051598756,0.2941074220993508,-1.6694421041029883,1.1450587324902195,-0.9145391811267624,1.279302631573372,1.3334066478655204,-1.0196858071530925,-0.18834915794020202,-0.02856902634096389,2.9609375
0.3908121333366898,-1.8888859952611265,1.0827885194493578,-0.9168515445763505,-0.09283477817438532,-0.38266708166378494,1.3529510453627471,1.865400329565939,1.2301343041631503,-0.15300296838255595,-1.102786218410951,0.0789765875208011,-1.4028194801348806,-0.06195285025934178,2.96875
-0.05963288018766876,-1.1801639701211568,1.0741624968827075,-0.9493046093042281,-0.24585921472046643,-0.27475516427708474,3.0817306638172552,0.36526460161562263,0.13734730494190456,-0.1483722245976841,-0.3849546831520356,0.21249243700637596,-1.7009541697504822,0.07175704204288905,2.9765625
-0.28663764623414895,0.25029579705294774,-1.3033072899850733,1.17354613473764,-0.17468555168371358,0.01696861723626278,1.8731055615246275,-0.983534412292942,-0.840571173411198,0.03477208433746688,0.8043809316204049,0.011384997095948845,-0.6178811511640745,0.04176822018147801,2.984375
-0.5682090022794237,2.4879179584555615,-3.339343067977571,1.971288789263516,0.027810790219866995,-0.1905402107273623,0.27210048457543995,-1.0808989587044593,0.6045685929653998,-0.5460709446684798,-0.7762019881198018,0.383489543320219,0.8009495560777516,-0.046730082837393175,2.9921875
-1.0118914614631125,4.195313691690491,-1.5999219257898345,-0.92621676938266,0.08751842425335717,-0.7290251425223601,0.5718992441353573,-0.09915644249702087,1.7765182602387113,-0.7478764874405867,-2.932742103555128,0.7661218730155124,0.6065235196670331,0.04218752423417715,3.0
-0.9011182864163221,3.2879735739076983,1.303691408345134,-3.471303672482545,0.010014855575064518,-0.9318594738418442,0.9533086559410381,1.6266384163989112,0.7670383219758116,-0.18469061143783227,-2.154353582322577,0.48159684182342005,-0.8532759885979484,0.0652072831559413,3.0078125
0.0665776323076792,-0.16342255074364367,1.0405960695287702,-1.2588220281080411,-0.007204888066512243,-0.3248896102082131,-0.19463553573462347,1.8540006292562363,-0.13626032613837807,0.1733289954971069,0.2520933667150661,-0.11895461991798886,-1.0963483196631074,-0.08579757527750265,3.015625
0.8081158486832374,-2.9051878413979257,-1.0055857722204944,2.7725963372011804,0.013058512225287502,0.7174062557186189,-0.7039357508203816,-1.1818491096552708,0.4975349454796097,0.04788110392152372,1.0880495278162707,-0.37811501393615093,0.2668565320452403,-0.03570534974347826,3.0234375
0.50022404114375,-2.27860875973635,-1.4285721294346783,3.334887383073321,-0.02127348204973642,1.046312396137929,0.2375251131099168,-3.6497099098609715,0.8556897159017479,-0.2426407135604393,0.5908545024168558,-0.10761396455421246,1.014008968405564,0.14894034946547863,3.03125
0.04863802306954011,-0.04960531203913938,-0.8817417403913644,1.1624621485142628,0.03210056616901027,0.24725320563319794,-0.42239710421313675,-0.935568892218046,0.3333739557956046,-0.4322463188180539,0.28952577429160387,0.17656294028921674,0.46341170494576384,-0.03203985123680546,3.0390625
0.39214098603373404,0.25084656234866765,-0.534093156797133,-0.15222609283063399,0.228212084305138,-0.42579590374038195,-2.961158190472374,3.1266080482656355,0.3992434184405639,0.3303385629236198,-0.2805528595941713,-0.3602784182610918,0.2642580123463191,-0.2760043111249261,3.046875
0.7708743419953233,-1.1319986021048267,1.0914812721756555,-0.6028781798370973,0.3013649338735439,0.17203229485082336,-3.4817442793568816,1.592393348036874,0.5410780965781179,2.121782228239127,-0.8546478913876511,-1.4948122726060775,0.8743659875829732,0.10262549579905263,3.0546875
0.34100823211098114,-1.1577772128557737,3.165073782329625,-1.2463882150740255,0.15127518530505246,1.1089360562708597,-1.7550121855956646,-2.845783049122599,-0.7700542463776804,2.6832559101372793,0.4723578905331441,-1.704593776415835,0.9715628797935939,0.5856040117862659,3.0625
-0.15131743755936766,0.16131429884205245,2.226000708490997,-0.9645556571599911,0.013581595903576146,0.7578197580279228,-1.0608468614185036,-2.077242512365437,-2.0781044935734667,0.6187143723376971,2.5397466227586074,-0.3970210720084645,0.20161764670227347,0.20870543899515914,3.0703125
-0.02574104096721508,-0.04125379300575685,-0.4863019285422556,-0.03045777490902811,-0.11440218412666939,-0.5846925288938111,0.19682065772081578,2.668771201674447,-1.4897677151117878,-1.8492808332688861,1.8187352202771676,1.1413708305276709,-0.6868532955057871,-0.5164989778477895,3.078125
-0.11629400256452373,-1.4963541561204865,-0.38414363470417134,-0.6078482609208596,-0.44914459809923235,-1.2267849998751321,5.161286339767411,3.1004137673426206,-0.5880266991053433,-2.7573450627672376,-0.5884555183391575,2.01316935172612,-1.5675615326947447,-0.4918183678563473,3.0859375
-0.8670603139112429,-0.7818331800993646,1.3639263556205978,-1.6576998978336248,-0.6723132476026334,-0.6620427717082924,8.334861199244136,-1.150423390564138,-0.7472890376514544,-3.277743198766847,-0.3886336398144907,2.582673193208316,-2.0100310850955,-0.06773875379326802,3.09375
-1.0964141658530553,2.3235253979889054,0.12801038300811046,-0.42109756201467435,-0.21392709648778016,0.07314683647689492,2.448280448169663,-2.748662678179986,-0.000718720263167478,-3.5848173346872136,1.338338754765244,2.4166174753958116,-0.522285669294346,-0.14209183262325323,3.1015625
-0.30536900511405535,4.187367165465093,-2.5098500555206478,1.3318668403330827,0.5644381172503714,0.20582805168039836,-6.561544644690077,-0.17702532455073297,1.9321304375158108,-1.3855912298530064,0.10397045750165852,0.5639533156253237,2.3616246464948083,-0.31108607339569655,3.109375
0.15512306262310155,3.0953471127059706,-1.9779903988820702,0.40722648273622003,0.6240012586171347,-0.04972432225563513,-6.237701849828755,1.07771396789004,1.6664886613368401,2.537488607611061,-2.7126701304178114,-1.7019454346422271,2.9881242205378014,0.1307147141641547,3.1171875
-0.22945804622811689,0.5026652541432054,-0.13866546121930473,-0.7546670048429515,-0.09631792285626006,-0.2313112253380691,2.3587985339761497,-0.5328131980110729,-0.9029603822365997,4.01204496522405,-2.413509448813943,-2.1765213357140514,-0.020984619416750724,0.6237132184950459,3.125
0.04062602512934375,-2.4694062953216602,-0.9872736768696802,1.4247955380168327,-0.484159816645661,-0.03904964681609984,5.9915490224797985,-1.1408225720872496,-1.087957053927058,2.8037682383846954,-0.2284185389899898,-1.6378470193959969,-2.667861160502718,0.48041579128722817,3.1328125
1.4014079275257638,-4.816418236508633,-1.915410342443515,3.730764239643146,-0.01448140025793624,0.5264799511053131,0.028036561637118873,0.4300790976683102,1.8710509500777082,2.694541978472779,-0.18273521366182846,-2.2323039337362593,-1.6969643787334896,0.17543887346063752,3.140625
1.8294628337463983,-4.0039613119432005,0.7339680504092321,1.3638184075151905,0.4923659963426754,0.8099732706285155,-5.887697291582869,1.6731786595029454,2.708145563411096,3.354195359956751,-0.8214689917402253,-2.75962351856291,0.3390754301951203,0.16861454229622766,3.1484375
0.2549675069915656,0.47533517359864197,3.371702161663331,-3.0140788356688235,0.3099830210991786,0.1257881817677203,-4.151122700250064,1.7407697796778954,-0.4230865066286689,0.9012816948301634,0.6367689991938018,-0.627686572494912,0.39110805593104847,0.006993809541765686,3.15625
-1.3711903334586266,4.372613387409341,1.5022105876693994,-3.5552320823616568,-0.11901557012651974,-0.9193468315825788,0.7431809573580901,1.479460186909768,-2.724010855703856,-3.209680883926859,1.5625540285114652,2.4848643192864004,0.18482050656373747,-0.43212321290722183,3.1640625
-1.1719109405088743,3.735314818341631,-1.7944494032769174,-0.6122746504428886,-0.15656227493381739,-0.9844528402039143,1.9944880885342382,0.6420243909069737,-1.4418550762880054,-3.5087038052243047,-0.24620200397130643,2.6482031974174904,1.3697115417564396,-0.4712612338116843,3.171875
-0.041413725861141185,-0.0051746289497524925,-1.3829047446590605,1.0935425780941215,-0.040901222205363255,-0.06981760355664354,0.9705484376800286,-0.7676200308655591,0.18128516743480497,-0.6726924423146861,-1.0545916634847032,0.5309048361467972,1.3053790356436763,-0.043461844122091184,3.1796875
0.32781760988700287,-2.791055651684202,1.5753476581600823,0.23107900485773092,-0.22085541169920356,0.5286311548552983,2.1468108877228858,-1.5654784105649502,-0.1387289895334718,-0.5124223817824828,1.23731336265322,0.23760690034235454,-1.154488086672264,0.0986003139005059,3.1875
-0.06597361017329036,-2.6400986024855384,2.6536429547374203,-0.7251122477348212,-0.4092594225534361,0.3805130926493824,3.9957332335505966,-1.8228381611402829,-0.17344299134864322,-3.1713120232534,2.2849498837876903,1.9828721612989226,-2.162002296072224,-0.12994575102250577,3.1953125
-0.3549030116621189,-0.09848774296881473,0.8444447554851794,-0.2008421369436469,-0.13879822246341011,0.2640052586834065,1.9002520203094226,-2.3608254244675293,1.2862840274857272,-3.200533693351786,0.09451486874257822,2.066756754669365,0.0018931620322068879,-0.1048025631670786,3.203125
-0.2836524736911322,2.5992108459002803,-1.610589530675076,1.1757319646958044,0.33346905113959757,0.45313545425238244,-3.278916573534463,-1.9773085430817434,1.8697572248344907,0.03269698240364486,-0.6741632365435706,-0.1882115637162827,1.4426261592640641,0.10728471366261258,3.2109375
0.08233438284994649,2.505319523468778,-2.5810246361047287,2.20636621916565,0.4548979191366644,0.46543253973541804,-6.044832917830678,0.24349126192758178,0.5794541158842025,1.6741786026264716,1.7649579798939778,-1.551205218674532,0.24503091033026864,-0.04332889930490095,3.21875
0.6574328580698157,-0.6926739603169092,-1.454950686004606,1.9916242460883535,0.22326336630491314,0.24863737401262648,-4.003011768868585,1.8654849240038889,-0.4768562446678807,0.7708884267816722,2.409913159798878,-0.9538384775791224,-0.30549596899886944,-0.2799818247667819,3.2265625
0.9104791941917492,-3.2921300844287886,0.5907020425216747,0.37634117420366364,-0.029498310330756197,0.03805700998163192,0.23433210819818906,1.1790544559427651,-0.7430250172919817,1.1046114153452116,-0.7146940029051413,-0.6846703448663699,1.0308255219819848,0.0001802349216036293,3.234375
0.38073593486528134,-2.376165954802187,1.6096362335851817,-1.6274912825256618,-0.20905248664502665,-0.36912594837624224,3.4393700710346997,0.6457197025515061,-1.8843918483222235,2.9897935659658645,-2.8305872263637295,-1.381168946067256,1.1837017691090073,0.42873247214941806,3.2421875
-0.41625379734488904,0.22690174809154617,1.1068578833405123,-2.553734102582842,-0.31905424379720143,-0.9215559930491276,4.4088769001143255,1.6762086266861045,-2.910211906970409,2.8951395156452207,-1.7860430373778384,-1.2115936644671628,-0.5568407429308306,0.35905740560230587,3.25
-0.6747066213219634,1.455772868353856,0.0865728691223224,-1.8217836378566492,-0.247123091571452,-0.9303050884617692,3.5001662797126305,1.5002100549451114,-0.9875402998825483,0.7800915159653088,-1.2804088957094355,-0.09794863761913598,-1.3956671426144913,0.11065530087329535,3.2578125
-0.4774693053486781,1.4805109380002857,-0.817367543801312,-0.295059792695158,-0.0284587859830445,-0.3481454572343768,1.6654274874502992,-0.5438596030962645,2.26999061326716,-0.09854249189402955,-2.357247817558406,0.17356982358452247,-0.7918532167411155,0.16931121931931536,3.265625
-0.32368883471217763,1.7757287617660342,-1.2685245961349323,0.5048037493639003,0.13112177703366404,-0.005322816457283078,-0.5838349012819977,-0.8411461722788098,2.4797512870291367,0.2297724814928462,-1.4593143761046306,-0.24078803405174926,-0.5461583574336338,0.14968114731225968,3.2734375
