AF3,AF4,F3,F4,F7,F8,FC5,FC6,O1,O2,P7,P8,T7,T8,time
-0.016711919590625606,0.1413629671179956,0.1033515142257002,-0.47305487475092545,-0.018362151538112093,-0.014683777517996896,-0.011717024018266027,0.08863681870878776,0.2271736365948181,-0.008807048138395569,-0.030531067383921445,-0.004625775684086988,0.012072849764863294,0.00786008316668648,0.0
-0.04015840200765808,0.3442462157794243,0.25193478346626375,-1.1584216175526376,-0.04612386666831553,-0.033901368898099575,-0.029205875466471975,0.2181950575549068,0.5541503480689267,-0.021451083761054184,-0.07550605013175163,-0.011357581356014418,0.029390608058304426,0.01849676552690057,0.0078125
-0.03687996401991416,0.31582315165477653,0.23173308324220807,-1.0647250813160587,-0.04236284359538096,-0.031243324449521968,-0.0268017705623596,0.20039556666831335,0.5090057309494758,-0.019709048735941537,-0.06926176839458417,-0.010443794795690879,0.027023332780530568,0.017016430588921883,0.015625
0.051991911667762,-0.4540078945147488,-0.33040814875198976,1.523639785061702,0.0621924739962735,0.04156507632000881,0.039493649505176934,-0.28904357922325724,-0.72781280943191,0.028181580878322003,0.10087574451874565,0.014990725215487147,-0.03836831292842172,-0.023250571424997212,0.0234375
0.08791303419480276,-0.7657344777414906,-0.558134394952553,2.571420846576659,0.10445308567644408,0.07104367505321704,0.06630855463505911,-0.48688301588459665,-1.2281202898485413,0.04756766458717151,0.16972904072630482,0.025288576013299268,-0.064810566397976,-0.03954799888552914,0.03125
0.011599204111334853,-0.10537326072067732,-0.07568945138027211,0.3489484795074844,0.014649200162558306,0.008576258446894901,0.00935385490147952,-0.06656517518798462,-0.16639447730515822,0.006461113531215756,0.023780069779401752,0.0034487269927027456,-0.00864194550274791,-0.004990654059465314,0.0390625
-0.02405333557459241,0.20393418711815176,0.15027507726738717,-0.692980275671008,-0.027279692622339428,-0.02062756758041184,-0.017295098323544145,0.1297626511287754,0.32958235684730003,-0.01276674900627966,-0.04444057648336234,-0.006778912462899822,0.017642065779709434,0.011187582618860692,0.046875
0.024161558307752042,-0.2122559460786018,-0.15390585934536777,0.7080002569288273,0.029515634248992534,0.018869214059351984,0.018637992772232895,-0.13576867784883398,-0.34226316336771906,0.013197400448672016,0.047772721751166564,0.00700370037360812,-0.017784745091276706,-0.010635582861438004,0.0546875
0.00978871370053712,-0.08716362232143465,-0.06268696600632612,0.2922752632017108,0.012695378686371606,0.00713218706116806,0.007922277397615418,-0.05653519314204823,-0.14376249416636916,0.005470185431079008,0.020266375434925283,0.002903987228441851,-0.0072191835104816774,-0.004175080344966006,0.0625
-0.06015675993805862,0.5179229582737656,0.3792229597831102,-1.738683784724379,-0.0695168816779766,-0.05014704959735469,-0.04418530064068508,0.32858281360867847,0.8290976931456596,-0.03217499178889192,-0.11351375023509322,-0.017092139170582037,0.04416991426461499,0.02745412778050124,0.0703125
-0.016424912984014876,0.13863892051779378,0.10198463399572262,-0.4644433987418931,-0.018033951925562272,-0.014376478013340233,-0.011458758950845738,0.08739718901894102,0.2219331237806884,-0.008581724625898731,-0.029819926528367856,-0.004576982535361104,0.011935623990491662,0.007685782157249033,0.078125
0.10118961157663771,-0.8795516227862704,-0.6418190722771027,2.9557367898363687,0.12028830688832937,0.08188555435387251,0.07630920002101035,-0.5605365654348239,-1.4128367043540018,0.05477435730356128,0.19512535207561135,0.029062991328926396,-0.0745836319707285,-0.04549824903252214,0.0859375
0.07652423333180823,-0.6658392855698082,-0.48526963646428395,2.2360545237433986,0.09117271847444958,0.061631845734765336,0.057840548419209395,-0.4245221126082797,-1.0688339353224374,0.04143682089575953,0.1478100498401964,0.021993168020244955,-0.05642160372506808,-0.03431777550441677,0.09375
-0.09187130701556344,0.7914853962860292,0.5796743709051208,-2.6620954574918207,-0.10699540399908214,-0.07629352648965272,-0.067839180669781,0.5030820165417209,1.274003077539364,-0.0493299890705113,-0.17440619461720225,-0.0261785303119041,0.06740449390065194,0.04187101170452154,0.1015625
-0.19129027772975185,1.65162326387254,1.2075621564888508,-5.552453140851379,-0.22395627097423607,-0.15765486813646898,-0.14200147070498523,1.05055804932688,2.656620644310357,-0.10290568907362625,-0.3645771268686683,-0.05458819741346259,0.14047416624649584,0.08684097352164817,0.109375
-0.1289642136342187,1.1122853268232467,0.8128024960347175,-3.739684791858558,-0.1506280861024409,-0.10654839820874937,-0.09550019189901093,0.7071889342295168,1.788975551296023,-0.06932714688501705,-0.24532818396127784,-0.03672788429136901,0.09464351975014146,0.0586408580437817,0.1171875
0.010389217453762575,-0.09388453763509659,-0.06822957337920106,0.3139619888797851,0.01333517593136679,0.007511035203819889,0.008461035000008338,-0.06035556093489614,-0.14961181538503188,0.005765598728872253,0.02127581300534667,0.00313176039434025,-0.007820474507540082,-0.004409508398124929,0.125
0.13619808222989574,-1.1836144312987442,-0.8634490707362414,3.977096918569863,0.1614402545283604,0.11038493555696212,0.10236405470150521,-0.753479169486427,-1.8993382766012328,0.07359678526946381,0.2620565878076956,0.03909904398508675,-0.10039615600957276,-0.061354013580485645,0.1328125
0.18133242532353472,-1.5747813830629338,-1.1488474578197985,5.292886777124811,0.2146523336139747,0.14729871653298032,0.13607043055767942,-1.0024007063032276,-2.5272047212564326,0.09796794176929714,0.3485305645996015,0.05200622653110042,-0.13364283853441458,-0.08179530989813509,0.140625
0.09747399510177966,-0.8479482155905502,-0.6183624639686194,2.849818327301111,0.11599504839896163,0.0787461193381984,0.07343674316495019,-0.5405227186312687,-1.3610924944802438,0.05277706455673528,0.18810314525317423,0.028019686194676742,-0.07189499351656453,-0.0438282603020235,0.1484375
-0.04358995144815714,0.3746590204588913,0.2743001243310808,-1.2610474504112024,-0.05007201602741216,-0.036634020341494274,-0.031912678061745435,0.23694516932947052,0.6009243445510198,-0.0232996934973218,-0.08187448046620296,-0.012352754740070146,0.032000194448863574,0.020047629454978205,0.15625
-0.09039079860588002,0.7802568447244288,0.5705336213773383,-2.625606901642432,-0.105236347751558,-0.07490375824699465,-0.06681953838451676,0.4953084867456386,1.251795787028573,-0.048565273990025755,-0.17147236743084326,-0.025763996323887164,0.06648929723237455,0.04123702657891656,0.1640625
-0.027701684171871167,0.2368567719554795,0.17355147712628577,-0.7991595126839183,-0.031551574468013564,-0.023544501084928622,-0.01992981966402287,0.15026593246448786,0.37961353346215093,-0.014758138025846022,-0.05152587664719341,-0.007826829212277517,0.02035219911933441,0.012837342383207847,0.171875
0.006279275522635201,-0.05810432849444919,-0.0419162027486835,0.1928520991799595,0.0083703758902248,0.004310582080435758,0.005490120398826385,-0.036936333558106285,-0.09297224596657666,0.00360306186245847,0.013493972469192218,0.0019103976304806775,-0.004676779295065906,-0.0025770206362617813,0.1796875
-0.04117787481332548,0.3526360178068865,0.258517304492382,-1.187405528592714,-0.047447874964543515,-0.03455564510260103,-0.02998032068377526,0.22437582891493849,0.5670917864380691,-0.021973819323253787,-0.07729005721885424,-0.01166709882285,0.030218683401547007,0.018880505456827894,0.1875
-0.05882245821286932,0.5056992151356537,0.37087277516117606,-1.7017548869647658,-0.06806891022994892,-0.049057798117320604,-0.04324163703639662,0.3214033309589971,0.8116092697479187,-0.031518961481932804,-0.11098455501131868,-0.016722637360263966,0.043172076134564835,0.026858073122051983,0.1953125
0.016914139803487504,-0.14999414586923052,-0.10799357159507526,0.5028489955374142,0.021187939666759366,0.012885086175230721,0.013259241493925149,-0.09611115745999976,-0.2426262611895298,0.009301046582736392,0.033974235531270595,0.004954756662879352,-0.012593526830002826,-0.007418152835532431,0.203125
0.08605496673159047,-0.748985944620469,-0.5458561413779615,2.5177022911797695,0.10255466409677082,0.06943506105549553,0.06492291079233915,-0.47730337118166505,-1.2033434165111256,0.04660048260070762,0.16622463962977072,0.024751062593578094,-0.06351049783194651,-0.03869708792039621,0.2109375
0.05947544009066043,-0.5189737981682555,-0.37809297599931313,1.7454979388511187,0.07118376180240557,0.04765139933191326,0.04514570313381677,-0.33092916688133217,-0.8318447722518646,0.03227199730208732,0.11529279875359293,0.017143116477073277,-0.04397036349191277,-0.02664637535959855,0.21875
-0.0003731920724807197,-0.0004980913998093502,0.0005884131281994445,0.000987179153541886,0.0006450016598187102,-0.0013116602958199676,0.00047412989475262496,-0.0009696933332011087,0.0008592061477862969,-2.2334962384669223e-05,0.0007446123147618149,7.886145680716912e-06,0.00010907458059663194,0.0004560201796759478,0.2265625
-0.008944348813052389,0.07359457328611663,0.05470471713610048,-0.2517884403693032,-0.009540845410402808,-0.00829309146312776,-0.005943437788746261,0.046513016522261745,0.1192886223775905,-0.004636147400505906,-0.01568804968387683,-0.0024403556037044163,0.006473321271702803,0.004341345008765579,0.234375
-0.003625496984388768,0.026770046684264817,0.02050018571347132,-0.09602323222729607,-0.0033133555972549847,-0.003985246287004466,-0.0019477990300552145,0.017159416508532966,0.045896653039613725,-0.0017193746340836843,-0.005583462392741808,-0.0009029627076631113,0.0025391341449343885,0.0019421933039551608,0.2421875
-0.05167559176866999,0.442493422317385,0.3242146089536664,-1.4911807281163145,-0.05974518770590644,-0.043411645652077425,-0.03778443509987727,0.2815284556032763,0.7157173207889562,-0.027599452049938692,-0.09755755716121536,-0.014645983702050301,0.037815434760140064,0.023704253299088218,0.25
-0.11407658283819583,0.9836481107704836,0.7195285065367436,-3.3076739002566296,-0.1329873490078064,-0.09450320109424883,-0.08441426376533216,0.6250044836745544,1.5832002493473296,-0.06125045557043509,-0.21688318817939542,-0.03250922129645509,0.08372806115022143,0.05195450317898491,0.2578125
-0.10461940822648633,0.9029316489797374,0.6604561631459065,-3.036238016934236,-0.12176317478421778,-0.08666931522473695,-0.07744896053994248,0.5728766330219935,1.4493289876766742,-0.056148268868305234,-0.19868012740441557,-0.029813616028580035,0.07687367150462661,0.04766556785753033,0.265625
-0.020146452394259096,0.1719566961439911,0.1261872631170375,-0.5782525539728858,-0.022386714857989994,-0.01744646800515228,-0.014403875161832532,0.10760766129081771,0.27333015876666256,-0.01061035479647238,-0.03699813207755846,-0.0056463419354462205,0.014777119862819816,0.00941811936291296,0.2734375
0.06026003718213929,-0.5244759857233285,-0.3829761823316272,1.7670365381984938,0.0722101276401703,0.04836470820637817,0.0457017091189957,-0.33532770785664706,-0.8440399220436038,0.03267293111463313,0.11687989867085688,0.017369184248096102,-0.04446799313958803,-0.02698916687169067,0.28125
0.07666216828411127,-0.6669367360264755,-0.48718021730181144,2.2489212596857717,0.09153224367947357,0.06178044675865918,0.05799608978502906,-0.4255903025900708,-1.071754262004923,0.04143126707333251,0.1483233398786931,0.02207796506283281,-0.05663915953418776,-0.034439016781548655,0.2890625
0.06058379384303354,-0.5283556418029111,-0.3853444412534627,1.7793713180222002,0.07256335522741576,0.04866889759344755,0.0459460635760543,-0.33662624439990974,-0.8493578306119409,0.03275503932005452,0.11759787592802452,0.017479141524495697,-0.0447934635866016,-0.027196423132563777,0.296875
0.09281297907340992,-0.8081855518304683,-0.5887245073838431,2.7126829970119757,0.11033381935387816,0.07509371619721417,0.06995034824764941,-0.5137157142044717,-1.2981945059587112,0.05019080091007574,0.17921682097330408,0.026677261425537918,-0.06842841928292234,-0.04179457829585657,0.3046875
0.16127843203432451,-1.4013418716344488,-1.0215762887461053,4.702951230630281,0.19076128880975984,0.13110790408748776,0.12107690646811572,-0.8908007942538415,-2.248988337610772,0.08714476802944951,0.3101106380912362,0.04624306641689748,-0.11877878831750772,-0.07274960029467924,0.3125
0.12823064266244205,-1.114593044236715,-0.8126991668474866,3.740239121465309,0.15184412608762027,0.104008859215273,0.096439302123606,-0.7089941040316836,-1.7877258662732642,0.06933094837260134,0.2467614543549695,0.0367900025524191,-0.09446350442958075,-0.0577383453377123,0.3203125
-0.050679542055323504,0.4356422564682447,0.31893113811036006,-1.4694502509658511,-0.058654011028821916,-0.04244319707350865,-0.03713564431619883,0.27646317462996256,0.7007224638705994,-0.027117735798715705,-0.09566343480913739,-0.014387294868208764,0.037227947783536906,0.023273545801871635,0.328125
-0.18994862232140883,1.64190433998086,1.2000485353857264,-5.524701365927361,-0.22251647966193722,-0.15643495028886398,-0.14111696054740983,1.0437552148002975,2.6371841018541313,-0.10217925107090303,-0.3621530429172346,-0.05424112036453513,0.13975062853748463,0.08630716215766324,0.3359375
-0.14413462615245348,1.2442913991818414,0.9101187135756172,-4.188178722857234,-0.16858406401473713,-0.11894010577470064,-0.10686434131018954,0.791352486046775,1.9998458299104274,-0.0774624853236828,-0.27435851894166813,-0.041145365169256494,0.10599185748107118,0.06553501359225403,0.34375
-0.05675937856666406,0.4867541804705914,0.3569637143988475,-1.6397181802853835,-0.06570779846981886,-0.047401617743884975,-0.04157441437752361,0.30983438641061867,0.7843182756165851,-0.03035177532826436,-0.10701078516809218,-0.016136877858470847,0.04160388143127558,0.025937923069248137,0.3515625
-0.09010483789402694,0.7759826654244172,0.5679356066318748,-2.6086007071368176,-0.10486650743228933,-0.07467808519197856,-0.06648905223411392,0.49342820763624873,1.2474300452555787,-0.04834290294366306,-0.170813398263049,-0.025657979951730803,0.06611772264478359,0.041009842906254354,0.359375
-0.11037242237450767,0.9528421852128265,0.6967840881314731,-3.1998074869744673,-0.12864711904887216,-0.09133416542698838,-0.0816986973989278,0.6050083355886197,1.5290996750793073,-0.05930342733308349,-0.20971325849984288,-0.03144963859212573,0.08107567060896136,0.05021072498740967,0.3671875
0.03729315566350945,-0.32552054005191644,-0.23720651218655203,1.0992831585113487,0.04517371738371776,0.029422550186446114,0.028513432034381028,-0.2087987098613485,-0.524457990440867,0.020289034379733947,0.07282855150900315,0.010806289602428737,-0.027578392053449953,-0.016591858073704818,0.375
0.17093060242822508,-1.4837954902699337,-1.0834500337216018,4.991906073356798,0.20247529287448293,0.13878858577815723,0.12833477153481423,-0.9454784095027026,-2.383247545100641,0.09236910786815995,0.32867607408060606,0.049060981750084075,-0.12597479277547474,-0.07707962861428781,0.3828125
0.07360715863125668,-0.6418188891021153,-0.46841662653820504,2.1580468428477912,0.08795847869965717,0.05919776568586322,0.055722488539006666,-0.40946649915467803,-1.0295748985985627,0.03994082406493966,0.14249999103384686,0.021220565260410194,-0.054399478126172573,-0.03303218948656054,0.390625
-0.07420553969907563,0.6385846427031403,0.4671896043542401,-2.149282747159406,-0.08601371708236537,-0.061759517624579326,-0.05466249554600364,0.4051947834642869,1.0273385079442774,-0.03976930084065616,-0.1404922212805384,-0.021096343852434418,0.05439342942914065,0.03390403479815613,0.3984375
0.01029604425425741,-0.09248176361913805,-0.06655044966829482,0.30837360207475545,0.013376573518146357,0.007385520663166914,0.00835981622870525,-0.059815311059286634,-0.14714291082173978,0.005721724092747708,0.021029763208224698,0.0030604213986095046,-0.007746026735192362,-0.004319637874061654,0.40625
0.19191449156145254,-1.665297413904238,-1.2154905110495,5.59755597993621,0.22703653378678168,0.15607877127807748,0.14394079539069618,-1.0600047534734147,-2.6742050135650346,0.1036068055773265,0.36855415880581377,0.0550360333874803,-0.14137192814485988,-0.08656521029525152,0.4140625
0.14472719466583997,-1.2572525803474441,-0.9173820865042591,4.225041742501519,0.1714057405461522,0.11755017533604732,0.1087499937827417,-0.799799405754496,-2.0193839359250645,0.07819509920246141,0.27836175415096914,0.04154454224706718,-0.10662973624250284,-0.06526687150303336,0.421875
-0.0747896889489869,0.6432585184216383,0.4713324430374037,-2.1679682801700486,-0.08702001868982713,-0.06207672998677175,-0.0551171424253909,0.40972878541522884,1.0340269583854216,-0.040117998420447824,-0.14161089586366024,-0.021285414093422713,0.0549367902924719,0.034086702269458355,0.4296875
-0.14970034763220347,1.291914431790999,0.9453615325592416,-4.35029789070846,-0.17519403435099448,-0.12341160977586654,-0.11105723023984296,0.8223811589330574,2.0771720397871203,-0.08049929699511757,-0.28490072443277814,-0.04273969734916113,0.11008099396423222,0.06802404629038444,0.4375
-0.056292449176757665,0.4834339392516165,0.35421678920795907,-1.629007196956474,-0.06522186717570577,-0.04699003151735976,-0.04132672014604945,0.3074742406519603,0.77827849854129,-0.03015555103799514,-0.10611527832979306,-0.01600285214820539,0.04134656897907666,0.02575949084897966,0.4453125
-0.025938873507973213,0.2213625421430113,0.16215239520888777,-0.7447637384982657,-0.029476178848567437,-0.022171886393858295,-0.018657633217833727,0.13996762926990194,0.35565341950173274,-0.013815894658886474,-0.048050808856284516,-0.007306664748119525,0.019017206007930897,0.012030041559308065,0.453125
-0.0693225816741137,0.5976457949176306,0.43714557432691353,-2.0107583992776865,-0.08053361905049347,-0.057704849555119064,-0.05104574183583224,0.37893870303113003,0.9589620938279604,-0.037226184308207885,-0.13114524377178263,-0.019734852902655902,0.05094531158679756,0.03168871932318445,0.4609375
-0.004523326438319166,0.036291346280059325,0.027480693856202415,-0.1245678212876694,-0.004221229796709356,-0.0046723256238354405,-0.0026567864780991175,0.021973887153626206,0.05749451451488579,-0.002274294035029076,-0.007180983366804418,-0.0012008003748708081,0.0032222254509896085,0.0023533391511480475,0.46875
0.1257146518559811,-1.0923204083945388,-0.7970054816939158,3.6722614399605953,0.14915171157950088,0.10192795442703682,0.09460657546826785,-0.6956427905503456,-1.754658464638572,0.06799635304035793,0.24207448760720515,0.03609174430075869,-0.09268277869645504,-0.05664286362789636,0.4765625
0.10703732978436317,-0.9310733173916717,-0.6792810514007017,3.1319153028511573,0.12722070429993038,0.086616207582279,0.0806602788189622,-0.5928363665822989,-1.49513431251465,0.057961883625780565,0.20634468726725244,0.030770448004398807,-0.07896552589313073,-0.04821606395919971,0.484375
-0.04256708283493876,0.3646118790682581,0.26762675169626843,-1.2264178599592799,-0.04886067598436793,-0.03586916085983273,-0.03108562606213207,0.2314293973122369,0.5862943696602338,-0.022711168552635757,-0.07998412372137893,-0.012049211171824942,0.031150228144702845,0.019523860331825613,0.4921875
-0.11021583393733556,0.950687635496691,0.695953884424692,-3.19823866346425,-0.1284710494146684,-0.09125299173437965,-0.08161178232007579,0.6040995355762865,1.5276889501900262,-0.05919692243957526,-0.20946166233223024,-0.03141703295356805,0.08094726516956993,0.05017049860948448,0.5
-0.05307036971178849,0.4556989700913455,0.3337382929884916,-1.5311903957472062,-0.06117068300061122,-0.04448334238815209,-0.03888065834994786,0.2890089212040224,0.7327562664967264,-0.028359633127492744,-0.10007276143617065,-0.015042649817705646,0.03886732851440094,0.024300171983687932,0.5078125
-0.0037700225993505137,0.02856940854474148,0.02107844040842384,-0.09305912474845265,-0.0031324594201124884,-0.004133145237616399,-0.0020117444890724967,0.01721870688235042,0.04702153513177,-0.0017657562813715086,-0.005698017919789814,-0.0009149580715354067,0.002562343397722227,0.0019828609620990484,0.515625
-0.0108684845758912,0.09022016656726277,0.0663152007211799,-0.30331444902783355,-0.011545739844606641,-0.009921675038394978,-0.0073537219073929625,0.05651845976230908,0.1461432994340727,-0.005642925281030659,-0.019292490027813837,-0.0029633798937691697,0.007814526682625474,0.005221048185891639,0.5234375
-0.02338495461960957,0.19893708827219034,0.14623137452771834,-0.6729207300596594,-0.026385635005315503,-0.020134058624151952,-0.016783899735948585,0.12583158890013557,0.32074221254471463,-0.012446738098251553,-0.04327229555725565,-0.006573065801860318,0.01709486564435365,0.010914006310325661,0.53125
-0.017461709119959267,0.14762232583167872,0.10880488976287346,-0.5011263126997052,-0.019515997581426178,-0.01527489174968262,-0.012376447218273827,0.0934230647282188,0.23865590109869278,-0.009243103026129679,-0.031963898983925286,-0.004884170583186279,0.012788731103621902,0.008232945942748341,0.5390625
0.021577731485717327,-0.19068960052720488,-0.13836942056540813,0.6372470950098245,0.02639652706171487,0.016699964443844084,0.016812188141940753,-0.12151189380404169,-0.3046879247734816,0.011839624918458115,0.042721232625193714,0.0062867371043287285,-0.015941598239804955,-0.00946618478723579,0.546875
0.0983667615822559,-0.8556647816535321,-0.6238927170703806,2.8732684110356623,0.11681942560738753,0.07961808295783712,0.07415961201998235,-0.5444333536705723,-1.373751365708815,0.05322420536521351,0.18968450371993129,0.02824834317896095,-0.07249150496398189,-0.04426065052967703,0.5546875
0.1253954722672577,-1.0895494435851412,-0.794674065152147,3.6606054601805336,0.14868859204773324,0.10178632607159871,0.0943312892211609,-0.6933947823037373,-1.750283333878678,0.06775609088670898,0.24147148203639718,0.035980880300485685,-0.09242103879574298,-0.05651476799266803,0.5625
0.029890648092981326,-0.2625113651186229,-0.19078871215940948,0.8819474217545533,0.03628115230941159,0.02356810204818193,0.023034772709093536,-0.16747768257212095,-0.42143405001059153,0.01627221287543107,0.05874058184719072,0.008670947377754208,-0.02215067602814173,-0.01328185323317906,0.5703125
-0.07164399248526519,0.6166109110559398,0.45140350815031716,-2.073468078285433,-0.08324819703035434,-0.05962037766120969,-0.05277193138708598,0.391745931532378,0.9911858997743055,-0.03842969887654479,-0.13560974340889323,-0.02037150002876418,0.05257704868646302,0.032683768116569284,0.578125
-0.03357983371423915,0.2870235911093516,0.21097744006525995,-0.9668381875456502,-0.03840620047711637,-0.02849308046180556,-0.02438532214428222,0.18202832099989924,0.4611252177668787,-0.01790203649988472,-0.06280327289595851,-0.00948982567151653,0.02456817349229757,0.01545510230244281,0.5859375
0.05023722506373877,-0.4385525034057047,-0.31908308482911657,1.4726506096397594,0.06036684575731254,0.040112818355503385,0.03818340236694326,-0.2798708034760678,-0.7051200613685317,0.02726326158587125,0.09766458029555426,0.014482790852555605,-0.03712806320769263,-0.022469068449690956,0.59375
0.000271718152416781,-0.005560453676541941,-0.0032563693086653336,0.018962932216154228,0.001665944306647922,-0.0008115615573066444,0.0009198992888501116,-0.004858747630000531,-0.009395513337535829,0.0003308786008883361,0.0021451416984125614,0.00018520789864981158,-0.0003653068037407979,0.00018155222545325803,0.6015625
-0.11510568197352672,0.9936834468609644,0.7265458184314841,-3.340111843241679,-0.13414375878449453,-0.09527540808003365,-0.08520552302080081,0.6307484257034839,1.5961019720424159,-0.0618339398801914,-0.21865396001901277,-0.03282722543649651,0.08457651526185593,0.05242474518168178,0.609375
-0.09090110166628652,0.7836811808693255,0.5734806047011404,-2.6365836357062653,-0.10579056307423174,-0.07543627390364122,-0.06717968460327134,0.4977126692078047,1.2589816681257973,-0.04876290043864627,-0.17242116697024812,-0.02589288472720559,0.06681606222796417,0.04144827305549115,0.6171875
0.04844489032542236,-0.4237626325662086,-0.30849658740820957,1.4210794043822774,0.0580741866434293,0.038679639881515335,0.036844820198246135,-0.2696569448015844,-0.6797159799247945,0.02635217411583665,0.09417717513844098,0.01400331131635668,-0.03573046560516361,-0.021657294030342413,0.625
0.09002321272684469,-0.78405864677794,-0.5722026603824306,2.633943247720608,0.10697366835414543,0.07274484545175276,0.0679634890978851,-0.49869698513905475,-1.2573776383491329,0.04875686143868195,0.17371200915458707,0.025918630428197618,-0.06638461456186256,-0.04047988439275636,0.6328125
-0.01073695879539976,0.08911925412555735,0.06526967511509073,-0.2994248396369259,-0.01155541919922393,-0.009740975708490503,-0.007205384175168994,0.056228243342651044,0.14514162180154153,-0.005567431844113788,-0.019152949397559977,-0.002923972570775466,0.007726860281747123,0.00515307020353432,0.640625
-0.08793865024179216,0.7581433366354047,0.5542575192971786,-2.549021030290903,-0.10233721431659314,-0.07295517877696861,-0.06488400362505754,0.48140660478631053,1.2189281090801525,-0.04719833601278824,-0.16691183772396925,-0.02503531626743347,0.06453650730390673,0.04010814714294296,0.6484375
-0.053216363002140096,0.4569296047624375,0.334749361320772,-1.538140787802649,-0.061421721378853995,-0.04452291177119514,-0.03900982249601462,0.29013122291521,0.7349570887643556,-0.028490925576443643,-0.10041776344603971,-0.015098668808184982,0.038962131864306825,0.02436231593289433,0.65625
0.01493472094611888,-0.13395139644067763,-0.09667732554129575,0.44816832296825077,0.018784585329509492,0.011301533815946688,0.011899167220606615,-0.08522836111996422,-0.21375353564192273,0.008257668800477016,0.030069689610619784,0.004413049622031244,-0.011216008620062274,-0.00652365086109888,0.6640625
0.050144679604564125,-0.43858462397160547,-0.3192516043095462,1.4735427073648866,0.060165736529615176,0.040122709979516856,0.03821501949129616,-0.2791824497797177,-0.7033485015106544,0.027254902895088078,0.09748108159797282,0.014475708980981196,-0.037081173105238306,-0.02245953621606511,0.671875
0.058002422834749275,-0.5057738126316274,-0.3681943868743593,1.6995055774841075,0.06935426406321442,0.04648284377810225,0.044020796405545806,-0.3225337184814565,-0.8120695606336525,0.03148177273899771,0.11252200743404459,0.01669463048233238,-0.042770786207191436,-0.02597868177571206,0.6796875
0.027221191694019854,-0.23883383701284464,-0.17290745513726044,0.8004100144952934,0.0331300275962878,0.021226384165424907,0.02095094395695773,-0.15292932331662237,-0.3838303166101328,0.014856191573214562,0.053614432895246054,0.007873837290816029,-0.020073904702580803,-0.012018159584308302,0.6875
-0.04056852499655605,0.3482147178538931,0.2558729976039409,-1.1743922247982768,-0.046614703416217804,-0.03423351560437087,-0.029679701535123452,0.22067026528966024,0.5586374860112776,-0.021709809906913485,-0.0761234001855933,-0.01151426030977282,0.029808660548884282,0.018668710393290825,0.6953125
-0.06344815039511488,0.5465257928588374,0.4002668359349711,-1.8401648930339671,-0.07352622922153025,-0.052904461519602416,-0.04673078454102469,0.34670299611547284,0.8767182380842842,-0.03404388993863327,-0.11990190306780939,-0.018051135951082396,0.046642508129851955,0.029024305637636673,0.703125
0.00316774908565682,-0.030435322591360264,-0.021499181955711707,0.10103627093203288,0.004886747709135645,0.001613865111489279,0.0030187760174010736,-0.020521048162129706,-0.049347665177603604,0.0018718169525617908,0.00761710592220956,0.0010145593492919623,-0.002412949637033281,-0.0011274632353324165,0.7109375
0.06884278583831606,-0.599977519058882,-0.437426578540233,2.0152687792413264,0.08221015461980039,0.05533169367521164,0.052058242362474916,-0.3824270708616546,-0.9622678594354463,0.03727965364789677,0.13330951695742618,0.01981735073469423,-0.050824190531342274,-0.030861882889545132,0.71875
0.0652229749236572,-0.5692843271887372,-0.4150176845644653,1.910550128755825,0.07796027534826608,0.05238577929557311,0.0493969772116024,-0.3623312235777176,-0.9120153675610104,0.03534667918492532,0.1263280671015802,0.018796901077274747,-0.04820451060176252,-0.029231121690895586,0.7265625
0.05870329728562027,-0.5124074554394317,-0.3738748166966231,1.720671160100279,0.07029196768259045,0.04709904573381707,0.04459262160356294,-0.326425105703765,-0.8221031519406017,0.03186793370888907,0.11380861888785561,0.01693717471392393,-0.04338277562551765,-0.026285469555406858,0.734375
0.07794118316207552,-0.6783599232280264,-0.4952724515325711,2.282659814442041,0.09298510143894638,0.06285039360777511,0.058997532585458465,-0.43269811586686446,-1.0905072491113732,0.04227136883346634,0.15065305896417355,0.022440205096247008,-0.05754348396409392,-0.035017417991394566,0.7421875
0.02916493631082425,-0.2563421970588308,-0.18657835874312315,0.8654353220491245,0.035599211182518416,0.022896392680004735,0.022593842634052994,-0.16398374087686193,-0.4121846026597937,0.015984963141739833,0.057322188892922246,0.00848844531037042,-0.021698970532876283,-0.012975876633694709,0.75
-0.09263644530862353,0.7976357455315889,0.5837356335619963,-2.680787495789734,-0.10787395313793689,-0.07680054939435335,-0.06834336474204115,0.5075473023170933,1.2827474068998341,-0.04969620768610363,-0.17585068745102528,-0.02635746600863168,0.06794796983369561,0.042151180047092056,0.7578125
-0.14849835018862237,1.2815044776754516,0.9371906867628079,-4.310270636165824,-0.17376867631870208,-0.12249562102733545,-0.11006970809334099,0.8156631078041132,2.0606846472825353,-0.0798406705858756,-0.28281717747487767,-0.042353974479481686,0.10914345300974261,0.06746888312518762,0.765625
-0.10740247378610727,0.9263103629442098,0.6777860764406485,-3.1164347012280853,-0.12539411077094814,-0.0888447838216703,-0.07944476406196467,0.5890554410831391,1.489391304624094,-0.05769955805503112,-0.20409350334682105,-0.030619382932040022,0.07894535916275569,0.048892473607774795,0.7734375
-0.07742541832944089,0.6668332689859464,0.4884806219381216,-2.2449623782758397,-0.09002508960297809,-0.06431763793085749,-0.057139142111533474,0.42364303280895244,1.072205527455136,-0.04153346276356054,-0.1466120148609625,-0.022049251729247012,0.05687753796324376,0.03533016887327186,0.78125
-0.05409132090888932,0.4647071180179972,0.34063047593934603,-1.567355814684943,-0.06256261781187489,-0.04523749606965385,-0.03976531159303686,0.29516252801929915,0.74740476160563,-0.028965427006611526,-0.1019842419923144,-0.015359753701158661,0.039737838704598655,0.024791558632533118,0.7890625
0.037073432918231515,-0.32409832370213726,-0.2361495781447972,1.0851137830038888,0.04471500564496893,0.029342257968489133,0.028292061880509475,-0.20710362441741503,-0.5207012320401622,0.020137894053932497,0.07237663628888175,0.010729274702073532,-0.02730542487572357,-0.016433301502158958,0.796875
0.09812191804099422,-0.8523021367452599,-0.6219857180331723,2.863244026059486,0.11665395284104543,0.0792579194213422,0.07388812822164048,-0.5438249208189542,-1.369813192610999,0.053028885590477505,0.18924155931169193,0.028182618343869023,-0.07227383956953255,-0.04405927609175712,0.8046875
0.03267453200289663,-0.2864532591263387,-0.2080088664535335,0.9610109746998862,0.03971107295046832,0.02567930892065128,0.02506618763214004,-0.1835010308728941,-0.45956323300320484,0.017796895746506204,0.06415387368951996,0.009449648470840545,-0.02420356557131099,-0.014479031875532067,0.8125
0.01234922245527354,-0.11145562789991059,-0.08001901315660283,0.3721831362045175,0.015752617346427068,0.009106517786358714,0.00995281333342434,-0.07123516192940167,-0.17744490888821624,0.006902363906418245,0.02529423141583692,0.00364797488932354,-0.009273439096897922,-0.005332099922889235,0.8203125
0.1519118420085402,-1.3194713240447582,-0.9629956656122237,4.4359346801013375,0.17995405182118474,0.12341132048196034,0.1141802227738206,-0.8397273669491316,-2.119531072570601,0.08212823522986887,0.2922118274439878,0.04359133233072978,-0.1119459160011862,-0.06852377610727933,0.828125
0.18391387765073883,-1.5956837090916725,-1.1649234605798269,5.366138024307655,0.21762137100154336,0.14960647515352427,0.13804129849696417,-1.015979755892818,-2.564541015017772,0.09932587418413359,0.3533130815386578,0.052739899213021385,-0.13548214535135478,-0.0829946328676575,0.8359375
-0.06737770330816074,0.5798092696909963,0.42472514405537765,-1.9509697520239588,-0.07815062402992033,-0.05613074867494854,-0.04959799662910178,0.36829360752646323,0.9321082076099239,-0.03614095444875859,-0.12752792821678227,-0.01916729628652556,0.049436092666256655,0.030773295602165004,0.84375
-0.2549056030192124,2.2028369570016304,1.610314743470349,-7.408948199748354,-0.29886223074220164,-0.20965894936517798,-0.1895632978058133,1.401233757855903,3.541142707096804,-0.1371834472709825,-0.48627098046133316,-0.07280859569097033,0.18742875355955033,0.11566248457530857,0.8515625
-0.07717893455397488,0.6646376489530452,0.4858200087926214,-2.231511921460059,-0.08954824876847502,-0.06418294943844907,-0.056826461044519196,0.42180471513232776,1.067748512257948,-0.0413692914736795,-0.14614143822213535,-0.02193336201146908,0.05660217850799194,0.03520187084504871,0.859375
0.15934720284510823,-1.382391198488008,-1.00995399943336,4.655434180285901,0.1889801734049566,0.1294357583952319,0.1197326621674585,-0.8814440331956812,-2.223619612616478,0.08608992191654183,0.30643082136114363,0.045750757957518,-0.1175111991610475,-0.07187594068201822,0.8671875
0.08850311334254,-0.7698332831426967,-0.5617032260117121,2.590096822745059,0.10548665326465954,0.07147438158033774,0.06677713073727208,-0.49083152051132883,-1.2375416794697465,0.047893655142943324,0.17084861678092328,0.025468431009855273,-0.06536591468933375,-0.039810250664047926,0.875
-0.08613954919973858,0.74067794555206,0.5428008319393854,-2.4983038631271084,-0.1003762376171101,-0.07144556272056142,-0.06363453496518456,0.47195329798386654,1.1935817256913623,-0.046203527518585044,-0.16332071120037972,-0.024526976022430112,0.06325640779396627,0.03925639338436216,0.8828125
-0.0419870350623348,0.3584980099276576,0.2638865975534659,-1.21608323929435,-0.04861024008059513,-0.03530059420620423,-0.03067820682230644,0.22912617589584547,0.5804881580875602,-0.022393741848764446,-0.0788483917591647,-0.01192323373139855,0.030882347986036823,0.019303287319950808,0.890625
0.0749365085615915,-0.6523836369256524,-0.47504950006003216,2.1857342789333063,0.08901769878676816,0.06039112065508686,0.05660543150542065,-0.4150027141540956,-1.0459931963238256,0.04058304022299717,0.14481366574179066,0.021518166677373482,-0.05510973266161166,-0.03358418783232307,0.8984375
0.005671522501288667,-0.0521459292750083,-0.037221411664033345,0.17004983351257236,0.00758657275801573,0.0037023319619662143,0.004937061713953697,-0.03360173417618284,-0.08303784406804755,0.003218841576782623,0.01222341292760776,0.0017190246617535814,-0.004175432284526826,-0.0022261253485284216,0.90625
-0.13239897012894422,1.1426810146061408,0.8351281288478167,-3.8439917882657966,-0.15477752184969282,-0.10930825784500464,-0.09805476884046586,0.7266527375539378,1.8366526173873075,-0.07117875122538338,-0.2519209004675255,-0.03774846358288008,0.09732107140596691,0.06022443021106398,0.9140625
-0.11217013479856866,0.9674595192296783,0.7070509767922946,-3.248976948131819,-0.1307462410045626,-0.09280872549411641,-0.08293856087056879,0.6146340577123233,1.554187133467041,-0.060258568072549874,-0.21310904337789463,-0.03194089275357381,0.08231879506745962,0.051014924622855895,0.921875
0.023727957907493023,-0.20856496656807025,-0.15166514704557124,0.7075958254533457,0.029373067365777637,0.01834984925149714,0.018429138817252534,-0.13442362585832512,-0.3366504307965434,0.012975212856222336,0.046970128758175494,0.006929740530048156,-0.017725917059703257,-0.010499464576456341,0.9296875
0.10338555581630876,-0.8982172354648748,-0.6551090211690674,3.02205096645503,0.12310636441880671,0.08356109279829921,0.07783373768040568,-0.5731975369422943,-1.444368176329213,0.05591037393182778,0.19937690940086134,0.02970090204595679,-0.07629622508267035,-0.046517685073993155,0.9375
0.05877308580928415,-0.5123904303674244,-0.37339781021651963,1.7203904598276283,0.07047268049204568,0.047118617092948664,0.04455255685954789,-0.32718745618647044,-0.8233762934215502,0.031882606203482225,0.11402363099194213,0.016933289263098904,-0.04340301418714768,-0.02630053139766234,0.9453125
-0.061157482876361725,0.5260693387007603,0.3848875219623616,-1.7705969243683886,-0.07076333434948764,-0.051024639623738426,-0.04495026458324433,0.33363815486292725,0.8450247782187557,-0.03276467335441788,-0.11544177243657912,-0.017372575271287806,0.04488396716995382,0.02798321265722751,0.953125
-0.11351028459782231,0.9794802933506689,0.7161609329311818,-3.2938653954470962,-0.13242231121073736,-0.09389531776271447,-0.08403208291980796,0.6221824007806858,1.573248578083064,-0.06098486679938867,-0.21566696939657007,-0.03234580325756076,0.08341629293848038,0.051668603863305525,0.9609375
0.004803454208146654,-0.04568802956010405,-0.03241895812080884,0.15151951386106483,0.006791166476105776,0.0029764856754995847,0.004325477691755185,-0.029384493453468403,-0.07275040810338855,0.0028299865746142603,0.010655222455428636,0.001510440031747822,-0.00367134685336987,-0.0019113816235374443,0.96875
0.14622176505728934,-1.2709497371564484,-0.9273003302101549,4.2704905014211985,0.17323578053568453,0.11875585903344246,0.10993723551391243,-0.8083390572581478,-2.040042345174474,0.0790825667361329,0.28126115114380523,0.04197334070188527,-0.10777676151253479,-0.06594968490710583,0.9765625
0.09684639985457863,-0.8429719954909375,-0.6145379476845183,2.8328268863765693,0.11512481752326773,0.0782645603447728,0.0730297225554363,-0.5363322333493742,-1.3524698947672305,0.05241531450667969,0.18680767651989388,0.027827720262747734,-0.07142455561994451,-0.04358137097316173,0.984375
-0.031733465232571284,0.2713274852826522,0.1997201841297679,-0.914508564102942,-0.036299317674226284,-0.02705625724909012,-0.02305032078464036,0.17215098461457176,0.4373491456328902,-0.016951813636385666,-0.059275953513556814,-0.008991926299549825,0.02328310676091898,0.01467016924614574,0.9921875
0.0054787160987697205,-0.05079086548865273,-0.035428051735128245,0.16569238665039476,0.007380334323325997,0.00348035012471502,0.004715751899647857,-0.03259806773438509,-0.08008113342294547,0.0031226003858312572,0.011872901417470617,0.001643868441116314,-0.004049604777068756,-0.002166813649992348,1.0
0.10450359600468033,-0.9086308001433486,-0.6622857051597625,3.0498034378904224,0.12394360604372769,0.08466370521932379,0.07869290537683298,-0.5781235598365582,-1.4584407409967521,0.05653743102707362,0.2014000340183553,0.029991800077602174,-0.0769674156391312,-0.047029642116501374,1.0078125
0.020655681697408106,-0.18253897016941723,-0.13233250941745367,0.6111068721963894,0.02537858382458475,0.01602017578657688,0.01613559085227986,-0.11655013112372073,-0.2924152002765325,0.011333408034978168,0.04104358739652204,0.006019766902926383,-0.015329552968245647,-0.009080609576404011,1.015625
-0.12484637286682197,1.077428163620177,0.7875543702662731,-3.623771773898457,-0.14578939088864157,-0.10317423934373045,-0.09243831423616988,0.6846389135727768,1.732082891195138,-0.06709895710029017,-0.23736020389313037,-0.03559342874529151,0.091714140128316,0.05682000985676378,1.0234375
-0.09084532318049741,0.7825503107397368,0.5717054046702083,-2.631650072305423,-0.1057137505349939,-0.07534877222803525,-0.06697134100055958,0.4971383040107233,1.2587835975043065,-0.04872871140419267,-0.1723254216782344,-0.025836367577888847,0.06664404237302148,0.04142825592804188,1.03125
-0.005579799936774908,0.04408207146160152,0.03218216130904636,-0.14645037829361016,-0.00525069084483959,-0.0054954558921754,-0.003300620663513099,0.027393863955194223,0.07120020285205726,-0.002753390456853158,-0.009155395071457822,-0.001419804957172017,0.0038361239600813476,0.002779217573075579,1.0390625
-0.07030927458402783,0.605241710936816,0.4425337647917338,-2.0318966055428156,-0.08137688820153773,-0.05849250764154919,-0.051729786921193274,0.38408156376010055,0.9709180160431947,-0.03769848824745798,-0.13300482549373324,-0.019955091723872602,0.05149325886416553,0.032061527217307643,1.046875
-0.11679008631125123,1.0081137925837447,0.737360098583181,-3.389048158389471,-0.13618032530491692,-0.09661488095839194,-0.08653473397201773,0.6402546571254294,1.6185604069902557,-0.06279274712659305,-0.22200268005686963,-0.03328408260542034,0.08579261363818184,0.053144808830625674,1.0546875
0.03220434821395118,-0.2824723959635463,-0.205185370286577,0.9472571085806126,0.03906117610585093,0.025313475050441785,0.024689393962784856,-0.18054285445560317,-0.4528731551425481,0.017545119994781932,0.0630461450114878,0.009335097960137633,-0.023808358410916174,-0.01426959095172806,1.0625
0.16110166184346303,-1.3987400558787815,-1.020577334191222,4.701001460851767,0.19075990963851922,0.1308456858109628,0.12093326683366439,-0.8906294969881593,-2.246196602185503,0.08704308231152906,0.30972850566359633,0.0462107769404884,-0.11867249182621405,-0.07263700916656152,1.0703125
0.07128859197005018,-0.6204549932153646,-0.45196514483568145,2.085409493966768,0.08504221549287963,0.05734441285604581,0.05385343583740618,-0.39564918596365223,-0.9977038611401698,0.03859279654441607,0.1379433442622419,0.020494780980728145,-0.05253804289746552,-0.032001320905894796,1.078125
-0.04451778950788767,0.3824045929764155,0.2806437763935612,-1.2883592726427917,-0.05135889338977218,-0.03745144737818787,-0.03261987151131467,0.24257817364250955,0.6132935297266751,-0.02386306988943926,-0.08362509611349661,-0.012651557405650844,0.03275192303038867,0.020434707135673906,1.0859375
-0.007519998539820551,0.061259733802219656,0.045963269464086715,-0.21106456298374154,-0.007846871151086158,-0.0071556310290560934,-0.004960705315815442,0.0387160167102429,0.09937439583436619,-0.0038917976204202323,-0.012820940945404957,-0.002052036190714547,0.005505008064611874,0.0037050541454010113,1.09375
0.030876710791666175,-0.27163098146047854,-0.1972500830457659,0.9088262854637721,0.03746834259486266,0.024303816604987014,0.023760518219490018,-0.1730792634328574,-0.4344034134462416,0.016858771618900325,0.060670306934644085,0.008949450146225816,-0.022847478795396985,-0.013680600495719617,1.1015625
-0.04070014923611385,0.34839456487076687,0.2556590201407012,-1.173519689836362,-0.04667846562398153,-0.034260252194456,-0.02962071191336198,0.22113110971346273,0.5612056271994852,-0.0216917710690115,-0.0763231636513803,-0.011528591521878405,0.029758359704387942,0.01870277286770747,1.109375
-0.07091710607154214,0.6099289100217186,0.44652864724981683,-2.0515012213096906,-0.08228176655490643,-0.05899422169295158,-0.052122177693709096,0.3876953370208559,0.9816047323073945,-0.037964789913572154,-0.13424250474772198,-0.020166581992920384,0.05197408972127602,0.03236466036756857,1.1171875
0.011326248512051797,-0.10248762521618662,-0.07415295320421293,0.34468216524057715,0.014493743751218558,0.008307980631211468,0.009286335430112373,-0.06537602414405169,-0.16249900787443175,0.006376282123241084,0.0230610134658202,0.003381109359891018,-0.00855282868164038,-0.004872399205193672,1.125
0.058415801633724916,-0.5095029762624906,-0.37162186993087604,1.7141858304965074,0.06997802914437304,0.04684938146921855,0.044371901602547614,-0.3249007839090093,-0.8180372029811682,0.03174512873777692,0.1131792601121304,0.01685256918959856,-0.04316666755411165,-0.026175592914869678,1.1328125
0.014629973979431138,-0.12922578137695656,-0.0938738773586924,0.4353268958004694,0.018428764984233514,0.011026426195550063,0.011611474230339789,-0.08363296358085509,-0.20922143976597307,0.008097192772618462,0.029414793847309544,0.004306662918811709,-0.010868575620343303,-0.006326951102011993,1.140625
-0.004079069294441433,0.032553653699532226,0.024364339824653695,-0.11057468032969099,-0.0037160730216850807,-0.004288182306813161,-0.002357765253220401,0.01966496250668578,0.05155841916361767,-0.002035206701257176,-0.006392598512236655,-0.0010503978717167576,0.0029186507958424784,0.0021525442931095823,1.1484375
0.03631814977281143,-0.3186083989997962,-0.231852456949693,1.06830145481169,0.04378375379158156,0.0287450768928594,0.02782920665198478,-0.20278189523007392,-0.5098325807637861,0.019731679457441358,0.07094319527125628,0.010517227798298206,-0.026870190016581967,-0.016153477473016743,1.15625
0.0539711841766038,-0.47207586148631026,-0.3435641818923767,1.583653053134647,0.06464310215947021,0.04317570232758501,0.041008939731612355,-0.3001910457255456,-0.7557076210865394,0.029278621160951805,0.10481063939384783,0.015565833761639005,-0.03989419249400861,-0.024161301998304664,1.1640625
0.0271738726561278,-0.2394570594192836,-0.173584919674341,0.8016264827572052,0.03314683496871724,0.021265396602977136,0.02099304181611968,-0.1527604292316523,-0.38373689930958516,0.014859463131642738,0.05358246652208243,0.007890154109091182,-0.020130526415891803,-0.012025733727648964,1.171875
-0.006416338860939841,0.051838164315888294,0.03892992176750626,-0.17697772339935422,-0.006433677176305518,-0.0062035346562126,-0.004084481570395393,0.032276053530790855,0.08305786837888614,-0.003262977035349845,-0.010703902970333653,-0.001712447354120047,0.0046169244249699495,0.003178019754752142,1.1796875
-0.03632484894378853,0.31056856145498163,0.22779898314193048,-1.0456391965942105,-0.0416406108100296,-0.030700445545391655,-0.02642818155543211,0.19714489391769155,0.499123549286672,-0.01942101236053271,-0.0679372486061096,-0.01025431427326018,0.026588139426134427,0.01669725004292586,1.1875
-0.05424230116715313,0.46575038810813885,0.34123774385728545,-1.566974342915597,-0.06266585332140047,-0.045414174416083614,-0.03983894735093803,0.2958519971269256,0.7488137389987977,-0.029093965496570014,-0.1022308970681406,-0.015384887860250909,0.039753118108175806,0.02481769669015007,1.1953125
-0.05702255108242668,0.49063880520398023,0.3593047391627115,-1.6509419832643843,-0.06590801745213579,-0.04773590035247569,-0.04192734421499973,0.3110205266594267,0.7882525569362472,-0.03058165844757607,-0.10762857202365117,-0.016199484162743107,0.04184992786676729,0.026131569167024256,1.203125
-0.0790031488665938,0.6815488931860328,0.49842809814926403,-2.2919674080341927,-0.09178764479151455,-0.06573377079386436,-0.05830089932503803,0.4320024721271711,1.0943765660485256,-0.04240530130183169,-0.1497706076733657,-0.022493905478109748,0.058058384169240175,0.03610832168347144,1.2109375
-0.10110332448180835,0.8723321974287306,0.6376944749939902,-2.931764906828787,-0.11776983760200593,-0.08376249555172874,-0.07473199074953543,0.5538042269664017,1.4012107991371925,-0.05427238504420738,-0.19203425000443686,-0.028802352339629814,0.0742625371159225,0.046060766192549285,1.21875
-0.03323566434412291,0.2836888816778159,0.20798986233346292,-0.9528578932901367,-0.03784528774798364,-0.028124553595336554,-0.02401384432161518,0.18001568525687717,0.4563627488459614,-0.01763539586804695,-0.06208949898422912,-0.009374275844252322,0.024248285347677808,0.015281552666948521,1.2265625
0.09486421240139328,-0.8255742075977174,-0.6019446733411851,2.774453496815457,0.11290407173681363,0.07675256896499182,0.07160713876940594,-0.5256404644744321,-1.3255171755574278,0.05142361459929382,0.18304635237128877,0.027263261924123802,-0.06999570933679132,-0.04269118177573099,1.234375
0.12060880074029269,-1.0479309299374049,-0.7641459287744248,3.520394446475795,0.1431164261162589,0.09778485602264654,0.09076421992324835,-0.6673289087735164,-1.6831166305189145,0.06525047237195271,0.23229762637703877,0.03460556985978983,-0.0888619489238028,-0.05430698486864964,1.2421875
0.029651730115298883,-0.2605337198409563,-0.18887422990643457,0.8724653089060403,0.035966852744139785,0.023319532705524438,0.022824292691054127,-0.16597827960036374,-0.4177574752035694,0.016176717876235664,0.05829350576173154,0.00857655678954137,-0.021900568314438037,-0.013147353337359991,1.25
-0.006018144847191649,0.04751569384978195,0.03601421152215865,-0.16377528383399445,-0.006073227553633554,-0.005854341915013469,-0.0037811973123312993,0.030612020916377092,0.07822371729177972,-0.003047170574215266,-0.009941689656242881,-0.0016101790455136614,0.004317535474239601,0.0029679705931176838,1.2578125
0.05524443984073139,-0.4828720782595112,-0.35184647198488395,1.620363294383924,0.06605196242510183,0.04425766073182372,0.04197997692435437,-0.30718407206898524,-0.7739355622322577,0.029983208029923363,0.10718887049402101,0.015939313090911015,-0.04078973520489317,-0.024746615554190703,1.265625
0.06463268093410446,-0.563090604074976,-0.41089717590056307,1.8937473622840415,0.07721111801590223,0.05184686660578099,0.0489825225697678,-0.35928699654537827,-0.9043719931854973,0.03501948247084759,0.12504593890933696,0.01863452156085898,-0.047713924553411384,-0.028959378510612352,1.2734375
-0.01739359190227125,0.14772141056330165,0.10816974038292383,-0.492807078830179,-0.01921789871740663,-0.015328721607325686,-0.012248000110516697,0.09248276848629142,0.23666143697234152,-0.009212422409507842,-0.031894947156865985,-0.00483259614417134,0.012612742521286973,0.008171326813382583,1.28125
-0.06092695912677211,0.5242977458743037,0.38341049318493914,-1.7599852976491288,-0.07045067706681067,-0.0508921044714519,-0.044727887213893675,0.33239064015057146,0.8423432066075843,-0.032658942751393735,-0.11511886134629015,-0.0172909536611165,0.044630463990059356,0.027862941908192232,1.2890625
-0.014289819349360428,0.12021938957787506,0.0886270970398935,-0.4059337764911493,-0.0156716961999065,-0.012648355959050277,-0.009950714789668346,0.07560138195778689,0.19406857458106816,-0.0075070303886651535,-0.025866956257838348,-0.003962535919958705,0.010362199568189555,0.006767801939619688,1.296875
0.04372109308032028,-0.38204457736357234,-0.27774626427587945,1.2782901561675992,0.05247112804045697,0.03483985121211594,0.03326159018829435,-0.24366716252989082,-0.6124144131054419,0.023741486955536923,0.08511546839001158,0.012610953279806538,-0.032242514142388844,-0.019466069989287092,1.3046875
0.05340588142335602,-0.4663759946595025,-0.3389410782827804,1.5590815868205654,0.06380829688311679,0.042762248764835496,0.04045387194137985,-0.2966003251238994,-0.7472338953899649,0.028953908887255613,0.1036853695088889,0.01536885049435685,-0.0393298896405425,-0.023855771301703195,1.3125
0.0011452256988077156,-0.014617533559540877,-0.008958575377491982,0.04026157109076954,0.002359435704541676,2.251418582290314e-06,0.00150577078256559,-0.008677151885366956,-0.02099671261213749,0.0008239992477305746,0.0037569058762296063,0.0004274295677197425,-0.0009020809089937259,-0.00022869839630690122,1.3203125
-0.09427035554382551,0.811572257997227,0.5941172067799475,-2.7334151823635384,-0.10978435091111163,-0.07810616218575146,-0.06964036879845424,0.516421816204249,1.305471447966275,-0.05056536609769348,-0.17878659090201826,-0.026847459932485808,0.0692404669628975,0.04293698972553835,1.328125
-0.14178034783350682,1.2236411159265645,0.8946031415847506,-4.112766622163121,-0.16556030707874417,-0.1170285492573398,-0.10507373534581918,0.7776730241014737,1.9658861292730438,-0.0761795369803878,-0.26970273294840774,-0.04042077337557387,0.10413041173035334,0.06442387196336886,1.3359375
-0.08527128379330315,0.7348007648423633,0.537188321034015,-2.4656472065799044,-0.09902175658969288,-0.07077678083784926,-0.06287891886093556,0.46644466219338665,1.1794690190357229,-0.04574855007675078,-0.16160403561169248,-0.024245064761813973,0.06251990604909287,0.03882668630344863,1.34375
-0.020897931654337808,0.1775609978061062,0.13006947440374117,-0.5921744475797283,-0.023301389778656256,-0.018066747368823435,-0.014816405185312832,0.11204627783304018,0.28373471413529916,-0.011060317327296804,-0.03849052522976519,-0.005830630585284678,0.015176160408946681,0.009684853850022873,1.3515625
-0.012808030551088099,0.10789479718270319,0.07934203678738437,-0.35900105022262907,-0.013806434465308368,-0.011473004330990392,-0.008800223612822485,0.06734691302535063,0.17166287196069632,-0.006700986247249586,-0.02307117975819498,-0.0035326572639017163,0.009262524401425718,0.006051246741902528,1.359375
0.043628180583672,-0.38032369658752674,-0.27706855420580895,1.2813292513158656,0.05259986333155423,0.03466262200110344,0.03328311263495971,-0.2437709775456918,-0.6121310375185656,0.023704983972766765,0.08491852360202723,0.012588854697696213,-0.03224238299674104,-0.01944756541292629,1.3671875
0.15198203519742073,-1.3186822491822796,-0.9624808428901012,4.433811575051029,0.1800639384902295,0.12335053220267764,0.11415283267859018,-0.8404838634741487,-2.1186084356581554,0.08210006570537981,0.2922854322321214,0.04357610243001205,-0.11195575631439965,-0.06846741996684254,1.375
0.11295971523215083,-0.9816013694309795,-0.716320465882668,3.2975096544533287,0.13405909166146554,0.09146899696896126,0.08504386893024926,-0.6251044846322419,-1.57617794238846,0.06107932774662539,0.2176222291813929,0.032422688035942074,-0.08323335972337437,-0.05082090615967693,1.3828125
-0.06137442818053813,0.5271461015533762,0.3859827637048466,-1.7766584217232293,-0.07115541924374656,-0.05119453416708334,-0.0450927290834315,0.3353945286377556,0.8485857547698823,-0.03287757262344957,-0.11597557677378237,-0.017438146831712548,0.045031225963368865,0.02806152420471844,1.390625
-0.05620494336914816,0.48217944722074463,0.35357849830748145,-1.625857333652181,-0.0650969249105911,-0.04699068870492944,-0.041267985461827285,0.30676507766599576,0.777363580099256,-0.03009612031174938,-0.10608440839114716,-0.015956974522503328,0.04121978796834333,0.02572483244022274,1.3984375
0.16396870449606785,-1.4241598586118398,-1.03881623884375,4.782918027616575,0.19397372526325377,0.1332047330235892,0.1230756046774003,-0.9061858464608066,-2.2848790771431458,0.08858732153368927,0.3152120679591925,0.047035665785313624,-0.12076005471896903,-0.07391314976833703,1.40625
0.20393932956806513,-1.7703226249225605,-1.2920186696518787,5.946595767590531,0.24100339300340012,0.1659593451687512,0.15295284801375386,-1.1262787456745695,-2.84164898776197,0.11015911548731885,0.39170781607459154,0.058483504535882365,-0.15015797304455672,-0.09201283599903148,1.4140625
-0.06346238598127477,0.545117434636346,0.39909434908371066,-1.836955435977653,-0.07360788639527445,-0.0528580602730488,-0.046628518590643424,0.3468341762109208,0.8771846375281542,-0.033974282563227716,-0.11990097733200489,-0.018020856311370553,0.04656153639592477,0.028995398353230523,1.421875
-0.2370730797728215,2.0490012701277394,1.4978424252073381,-6.891930060551464,-0.27782914627439814,-0.19495521519581024,-0.17626538831774582,1.3032112776611902,3.292351940456327,-0.12759707599426826,-0.45206392827245045,-0.06771899225117138,0.17428751909719678,0.10757853741662851,1.4296875
-0.10107073009960539,0.8718967826327189,0.6382295179686691,-2.934516229955745,-0.11778656949846752,-0.08367123111032665,-0.07479510282824091,0.5540435121340672,1.4007310031021836,-0.054316102174628116,-0.1918878257122091,-0.02882435817210092,0.07426215765810312,0.04603881450174876,1.4375
0.02088668512221723,-0.1844631677460967,-0.13362871937553253,0.6172332126125792,0.025678444702105716,0.01613508121908489,0.016262996593092476,-0.11778413688819564,-0.296348277743567,0.011448114781061747,0.04140812417987382,0.006093141570290813,-0.01544716883243819,-0.009175128837306657,1.4453125
-0.0892277516885671,0.7686648848954765,0.5621849580410266,-2.5847939493832737,-0.10387732559641999,-0.0739900818124495,-0.06587749122406941,0.48864501664617216,1.2349165471753667,-0.047880929978494656,-0.16924604189919296,-0.02538764554309554,0.06553391469255597,0.04063857060794515,1.453125
-0.15674824484453573,1.354010655406421,0.9896495990256945,-4.5499276792041305,-0.18324044556677827,-0.12928788013168827,-0.11627471306597487,0.8603371270201392,2.1746402995601,-0.08429420243905238,-0.29837916733189945,-0.044723996361234336,0.11518675882579248,0.07121420517407026,1.4609375
0.020428941374485348,-0.17956549766364852,-0.1304204565326687,0.6061295531270025,0.025298059652027565,0.015668337219550584,0.015959435010184483,-0.11585200869559685,-0.28944951482374415,0.011196821231030937,0.04058940351684764,0.005949422558787893,-0.015165829989807202,-0.008947819240304723,1.46875
0.18379431382654873,-1.594949144897015,-1.164338506246462,5.363611034826566,0.21753925570074795,0.14937199498853934,0.13794079043757085,-1.0158451213332018,-2.562281687813438,0.09928628187040339,0.35310429431334234,0.05271962346315195,-0.13540887849561423,-0.08290622841823957,1.4765625
0.11084972800877248,-0.9641204596347619,-0.703850649370684,3.2443208230043985,0.13177005555011423,0.08972367302784169,0.08354863358823661,-0.6140961216137008,-1.5481273612181323,0.059988753876385865,0.21357874219334264,0.03188612843691557,-0.08183178820637531,-0.049931704441404046,1.484375
0.0018985088263557433,-0.019849117860777296,-0.01416289041258918,0.07182586434998578,0.0036419269442040476,0.0005770921072306052,0.00219089873539381,-0.013978035530249082,-0.03233167833719646,0.0012303777279592239,0.005208268085090555,0.0006936346372593332,-0.001664168236027808,-0.0006067909424515995,1.4921875
0.05099029102730105,-0.443990841437763,-0.3234149201245113,1.494171289849331,0.06130050823195241,0.04072809813292117,0.0387309814883287,-0.28418617410289015,-0.7144265644878225,0.027653508184931112,0.09913514873178016,0.014686574701527724,-0.03764817815404753,-0.022770380256748907,1.5
0.08118900602793236,-0.7065527879567233,-0.5145211838358703,2.3686841120698756,0.09656103446532165,0.06544519883859598,0.06122844460614201,-0.45000273023876347,-1.133991195405617,0.04393347076087725,0.1568343007363923,0.023313083922288973,-0.05977004344811886,-0.03642249447470529,1.5078125
-0.05478971933189532,0.4691689423208582,0.3442522117999189,-1.5870873176910545,-0.06358675521636677,-0.04578763133150416,-0.04020174973526702,0.29943653453683733,0.7573374083480183,-0.029331839152744406,-0.10337505069426156,-0.015559153978762142,0.04022548351473488,0.025078916341287522,1.515625
-0.13421331863086372,1.1569086892190694,0.8460112717731083,-3.8937269934251666,-0.15690143611101073,-0.11075513105226097,-0.09939016279063483,0.7367668862130126,1.8615027194454723,-0.07210890431821337,-0.25529492220656275,-0.038257224022844635,0.09855976334043688,0.060984558190944206,1.5234375
0.002724677469241767,-0.027714229689670664,-0.019476176847058213,0.09356259645621083,0.00441500499371444,0.0013014430117450322,0.002845761430932863,-0.017974889259993375,-0.04370346923192585,0.0017257400113061508,0.006756373673256231,0.0009115226537686125,-0.002207700904384753,-0.000989180042525318,1.53125
0.09616677051607335,-0.8363589962533182,-0.6097446857367801,2.808808588683297,0.11431127171702646,0.07776123507279845,0.07252489433534764,-0.532686586116477,-1.3429754823165885,0.05207389637788204,0.18550274543226045,0.02762029548904021,-0.07087185031363046,-0.043236504899308956,1.5390625
-0.05025468260509696,0.4316068018749133,0.3165217159456114,-1.458941556333524,-0.05817817014685058,-0.0420827724525103,-0.03686134835031107,0.274232602204947,0.6947312824545753,-0.026909599366212237,-0.09475197509094886,-0.014283159101291796,0.03696300205090448,0.023086810187029128,1.546875
-0.1626838949766288,1.4056206904755417,1.0275512610112325,-4.7316568024759205,-0.19051161116362633,-0.13415206032840443,-0.12082106069235818,0.8935552399963813,2.258826731340147,-0.08754813366931924,-0.309912069301208,-0.04644161713323517,0.11971128689023991,0.07398816117999268,1.5546875
-0.010613222875775596,0.08892757343463543,0.06575283912038016,-0.29956580113084225,-0.011399060204069089,-0.009761064353772162,-0.007285221191174052,0.055472492010123796,0.14260761339544847,-0.005558671372604227,-0.01887056835592538,-0.002920926391709454,0.007743842269095014,0.0051149878562088075,1.5625
0.1400522771126371,-1.2163424083564487,-0.8871656065994395,4.090620625803637,0.16606243449972458,0.11356863028245302,0.10521306098050479,-0.7746610553603523,-1.954180229773463,0.07568075381130648,0.269514130495274,0.040191625679260684,-0.10321762176164245,-0.0631391197675376,1.5703125
0.04002161003729279,-0.3502535385089905,-0.25464985020093317,1.1785360138801801,0.048402338429270296,0.031805368623968495,0.03056905846842688,-0.22352223072280514,-0.5630246719590212,0.02175912023666391,0.078139873289094,0.011578834063076552,-0.029647610105214293,-0.01787525751962001,1.578125
-0.08610757216461076,0.7427475011658637,0.5427804386672251,-2.494388202146712,-0.1000481326740678,-0.07136077329013414,-0.06354201569203567,0.4712307349550454,1.1917986213994176,-0.046224616241565465,-0.16324699804333376,-0.024496867060800856,0.06319403761951889,0.039245127979357225,1.5859375
-0.022755725143819683,0.19426934882690472,0.14179403186033204,-0.6490127215215611,-0.02557331964963858,-0.019555057928523894,-0.016207363423718656,0.12213322294688256,0.3110652596502258,-0.01204665325691797,-0.042084413524992086,-0.006367169607046249,0.01659943668931593,0.010579813149766054,1.59375
0.05067617921874923,-0.4428997088866158,-0.3227898276391513,1.4904179918132807,0.06074263116559007,0.040474027254712795,0.03861293908370926,-0.28217432486820443,-0.7101518345097876,0.02755180337808887,0.09840393940948276,0.01463650087009561,-0.03745666987084542,-0.022688145874969458,1.6015625
0.009860147722526393,-0.09046211195794895,-0.06461512373268757,0.301830606228286,0.0127186863786197,0.007051718267118411,0.008119673359358712,-0.05717475140691418,-0.14264576697958278,0.005541045690093267,0.020357806073287476,0.0029534240071103,-0.00745346183367774,-0.00422910347149016,1.609375
0.02244576555112435,-0.1990058403332129,-0.14408475428417603,0.6669371638829609,0.027713266457278465,0.017364125217297705,0.01751191820601701,-0.12697727442876788,-0.31814755477989415,0.012332459315985252,0.044565208228073035,0.006551447528894329,-0.016742063862613923,-0.009899703165211583,1.6171875
0.09225276181337937,-0.8028954390652552,-0.5854383925070419,2.699130323093224,0.11003579735277816,0.07449504302821935,0.06963782720102475,-0.5120994552321347,-1.2892276195252217,0.04999281160344441,0.17823366371907548,0.026516809408383794,-0.06814479248996873,-0.04147693145775579,1.625
0.004125715406381728,-0.04015018695152029,-0.027975910520563595,0.13311884674597374,0.006232324745811094,0.002380997156940355,0.0038276715937159804,-0.026298408761402697,-0.06300413511009327,0.0024877831586138143,0.00954774309213518,0.001296579884679408,-0.0032894136363596505,-0.0016022446290763386,1.6328125
-0.1605280832034818,1.3854260319047664,1.013487737183729,-4.664374142875216,-0.18786491951622877,-0.1323283237776682,-0.11915633517452218,0.8817735187807432,2.227785126356244,-0.08633007843881202,-0.3057018579979066,-0.04581303226513602,0.11798624046627336,0.0729280515825441,1.640625
-0.10865951268166459,0.9373870550798424,0.6856947389665635,-3.1601142590389975,-0.12709148022829822,-0.08985311815813224,-0.08048584023563135,0.5966110945791563,1.5068044311591002,-0.058442520816307755,-0.20661979547143342,-0.030978499594512317,0.07998151378646985,0.04950668493578439,1.6484375
0.08054185285292952,-0.6995821859236303,-0.5106642263554549,2.346884127843651,0.09556541316656463,0.06494366256302668,0.06077231980462839,-0.4459618832888216,-1.1244102099945434,0.04352617948849955,0.15538474622364082,0.023143355704786654,-0.05918050218559444,-0.03608020459047174,1.65625
0.0939603047182761,-0.8155898180970511,-0.5956362604955189,2.7427708336175387,0.11155881713243436,0.0758676398668266,0.07084222393015747,-0.5204071507686245,-1.3111051009409003,0.05078772884311948,0.1811593298969272,0.02698695005914511,-0.06913401386158032,-0.04217284522402314,1.6640625
-0.02988346465646984,0.2561541494638685,0.18731558296354456,-0.8573187581620552,-0.03396204151442167,-0.02546649054111878,-0.021583468282745842,0.1615841552453579,0.41045960924330965,-0.01593865078000186,-0.055690343412139263,-0.00842749217739359,0.02188418915543129,0.013821010565370379,1.671875
-0.03899403537394233,0.33448689181808255,0.2449391674909831,-1.1221411946678042,-0.044573313340477434,-0.03286642205495004,-0.0284007409443671,0.2116964371200691,0.536048308103887,-0.02083007546196349,-0.0730671448730937,-0.011026938428586167,0.028533901705281115,0.01790907088064394,1.6796875
0.03321033336561578,-0.2914665221324957,-0.21159644174683004,0.9785446364713485,0.04036610701658427,0.026217463406008265,0.02548164998845339,-0.18612628828996514,-0.46824990464640687,0.01811754038200319,0.06509175510381245,0.009626342341942174,-0.024614122837955738,-0.014776064886165905,1.6875
0.011759456517764739,-0.10679163992092094,-0.07617431577286549,0.3548178868631944,0.015021693415532283,0.00861544533033165,0.009471015640212034,-0.06789101733225178,-0.16905804383045725,0.006581755648056865,0.02405210244864398,0.003490714429175698,-0.00884676718660757,-0.005072776395173079,1.6953125
-0.04240580071780699,0.36192415261623795,0.26619548915321384,-1.2214771419505561,-0.048769916213180727,-0.035693820354804465,-0.03095445787771137,0.2307088135078422,0.5845981153575994,-0.022619742316168135,-0.07957753015488862,-0.012006333362119792,0.031004766727890643,0.019432627265038735,1.703125
0.008211345313866908,-0.07541286556378807,-0.053594281964736486,0.25063499345388346,0.010832097256877017,0.005803744057892568,0.006842634502206629,-0.048019199715354385,-0.11995014103823902,0.004635404079805211,0.01724677038189586,0.0024618848817762377,-0.006231737272932796,-0.00347779002851592,1.7109375
0.09832603670275786,-0.8549674307326687,-0.6234580492220666,2.8745817280696655,0.11692057851656568,0.07956661206700393,0.07415375983627621,-0.544625225880598,-1.3736108311533104,0.05321125213671096,0.189628746497474,0.0282456458837528,-0.07254688869568462,-0.04426085750605986,1.71875
0.09165970278275853,-0.7977367346668299,-0.5821742996607289,2.6845022063404516,0.10906521876356522,0.0740424070556472,0.06924285201417818,-0.50821820974778,-1.2804596498885268,0.04966640563995165,0.17686494053166582,0.026372954316286248,-0.0676562297518036,-0.04123934130934183,1.7265625
-0.018738628822077875,0.15780556128449563,0.11544597634719196,-0.5283843141080188,-0.020878208694428045,-0.01636661027342455,-0.013147672526873913,0.09981416953887723,0.25559682223205127,-0.009813479634032913,-0.034372778911815616,-0.005192360793566293,0.01360370515053593,0.008752596930020121,1.734375
-0.13944503325710503,1.203999757654398,0.879721243288575,-4.0480084883257454,-0.16292062996712997,-0.1151475624507775,-0.1033241131866005,0.7648643530150913,1.934688366489869,-0.07493002787749399,-0.2653521052961791,-0.039760583568011466,0.10249020929581858,0.06343255471872557,1.7421875
-0.15838585405621022,1.3692163059433626,1.000678145403182,-4.605226944361298,-0.18518495007403593,-0.13061669408560153,-0.11756896288435444,0.869321382244477,2.198010812386118,-0.08522405099597659,-0.30155873791061494,-0.04522286822629821,0.11647794126776372,0.0720361112514024,1.75
-0.04107247862417609,0.35315490916353726,0.2586843906487646,-1.1899265407443729,-0.04714128247912632,-0.03459843390145237,-0.0300490527666067,0.2231785017567619,0.5659720429550367,-0.022012400416188675,-0.0770032002808557,-0.011658245616580798,0.030166493292617037,0.018926112147628432,1.7578125
0.0764604243037011,-0.6657469811455925,-0.48521658029819065,2.234311424597266,0.0910838566321207,0.06157029511788728,0.057697019063529816,-0.4239788739872853,-1.0689818371265214,0.04137995200682313,0.14787274351983293,0.021989943305803637,-0.05631785098395277,-0.03430376574701814,1.765625
0.04764176623284574,-0.416839153142446,-0.30284780949200163,1.3957745494177318,0.05706140657717059,0.037964177354920574,0.03621321654814749,-0.26487521673873,-0.6678250591411998,0.025870521347964564,0.09259371414136723,0.013745005917759205,-0.03512933063971404,-0.021280211482059507,1.7734375
-0.03239996636610964,0.2763820786566456,0.2035616307124134,-0.9342603130895911,-0.037129892635472485,-0.027524413501857515,-0.023496558288714584,0.17600289107345005,0.44584398693094696,-0.017288518253161245,-0.060625784774419954,-0.009160285348271178,0.023705151897197446,0.014941130879809902,1.78125
0.015216519768490295,-0.1356419128181349,-0.09814864121376211,0.45434346506668005,0.01903414950646793,0.0115096101533266,0.012106662356648012,-0.0866869452844821,-0.216848391857001,0.008372249287569982,0.030556126769040758,0.0044803453011472445,-0.011399471238796683,-0.006619611277487697,1.7890625
0.11511862885669563,-1.0004853218171608,-0.730522113635383,3.364866942843573,0.13668801352008722,0.09332440692987538,0.08671943659398867,-0.6371604389107003,-1.607125175516051,0.06224324482563076,0.2217492964564039,0.033080993108991076,-0.08491000818372682,-0.05184824315036384,1.796875
0.0789864331752303,-0.6874926871647614,-0.5016800885826121,2.3126635074685793,0.09412064881721031,0.0637304138994855,0.05972479620926482,-0.437937810453843,-1.1044448297069074,0.04278213119445863,0.15255843657467366,0.02273462089696219,-0.05827591647333338,-0.035496426897961814,1.8046875
-0.024142213349023226,0.20545316289594978,0.15115973991948511,-0.6906539629263982,-0.027284621057680532,-0.020747538856317967,-0.017307016185828847,0.13013771572113855,0.33071135689549513,-0.012803568342551747,-0.04476964873917016,-0.0067907501229018535,0.017624969979182416,0.011191154181412226,1.8125
0.001581962136308208,-0.017379283246080537,-0.011429433845834069,0.05792038364785526,0.003064571646526309,0.0002759263256989546,0.0018839504740021857,-0.011913405509330198,-0.027139940881907725,0.0010808116312430525,0.004551578838250622,0.0005637430303165983,-0.001318684386544727,-0.00044104490016463383,1.8203125
0.08997267522877446,-0.7828068746132169,-0.5706514895842153,2.6304558862585217,0.10715693237511165,0.07266588731030915,0.06788749429620557,-0.49898398487764656,-1.2574008766519085,0.048748831298006876,0.1737592105841135,0.02585687258329127,-0.06634884026361168,-0.04044472612139411,1.828125
0.022398878517164884,-0.19796001167557514,-0.14341267321422035,0.6621697866585107,0.027581259048673118,0.017396996348137333,0.017450228570342924,-0.12656086082405937,-0.3176581849763675,0.012318265784974726,0.04447389469117229,0.006525154100162598,-0.01659895866037195,-0.009858454109317648,1.8359375
-0.16032808257773198,1.3838506687143828,1.012094093752575,-4.657075614865655,-0.18753688911497143,-0.132212238405924,-0.11897306704220448,0.8801223008253889,2.224689388607234,-0.08620082556128468,-0.3051800425403317,-0.045749402237913954,0.11784996618083321,0.0728531874829904,1.84375
-0.2028370276971717,1.7519760276957406,1.2807983793470208,-5.892995912657349,-0.2375566641966648,-0.1670940392144846,-0.15071800192822837,1.1141761891243316,2.816407339370721,-0.10912283574800791,-0.3865802827483505,-0.05790066999124274,0.1491002833182447,0.09209900100672179,1.8515625
-0.04972919018980629,0.42687107385452566,0.31254361964555405,-1.4349420410600384,-0.05734578418663581,-0.0417774891742548,-0.03641514701138211,0.270753306989168,0.6865140891530015,-0.026599012606522202,-0.09369219536621158,-0.01409217847423884,0.03643855277253308,0.022795410007359244,1.859375
0.0860815284948718,-0.7484150004593868,-0.5461707623108768,2.5177846626482108,0.10245534604195759,0.06949225747088916,0.06497518895130051,-0.4771503047193411,-1.2028478012923132,0.04657629278475144,0.1661846605759106,0.02475358098691949,-0.0634651052699363,-0.038684825971399134,1.8671875
0.07067388021848701,-0.6146513004865788,-0.44858512839792325,2.0674158342617255,0.08428062069230374,0.05698346511051287,0.05346321176463381,-0.3920254140987982,-0.9887200291283718,0.038238497925423914,0.13675333981003884,0.02033421147492811,-0.052098147212062046,-0.031715030462877575,1.875
0.0062104442025123574,-0.05653410706359343,-0.04086902268335661,0.18942497623189755,0.00838829460512226,0.0042126049048128045,0.005327482103643625,-0.03680324780378538,-0.09215326841077096,0.0034973400055150847,0.013352387604094434,0.0018898687805171761,-0.00464843255365341,-0.002531594671365117,1.8828125
-0.0028108402447745797,0.02086229012427763,0.016047058686307635,-0.07305629759032847,-0.002254491423591467,-0.0032587456847586547,-0.0013962538071956865,0.012852768195376327,0.033865096787508514,-0.001324136243273978,-0.004013840703021517,-0.0006874120119521742,0.0019737246263251663,0.001562723170140778,1.890625
-0.009973655903416513,0.08171579417654608,0.061023716150679204,-0.2798806413659007,-0.010659709487677945,-0.009189834568169668,-0.0067078545628499265,0.05211033909674037,0.1344904228316615,-0.005144327108514849,-0.017708540135602042,-0.002732913973629109,0.0071783277903765584,0.0048106678229330796,1.8984375
-0.05697775549947159,0.48819280543324,0.3580756770717466,-1.6463218587695794,-0.0658744094812654,-0.047671823586137634,-0.04176959809847138,0.31078871383317874,0.7884170780029196,-0.030463066208895183,-0.10756200630267045,-0.01617304691290299,0.04169234775041705,0.026077823094500456,1.90625
-0.04085039896914645,0.3492660306712691,0.2562822678600755,-1.1759754981897015,-0.04682112571091819,-0.03445798978209911,-0.02973558987847225,0.2218183200735673,0.563073460457283,-0.02177998285640717,-0.07667721003744458,-0.011551630280006806,0.029823209383970387,0.018762367031648627,1.9140625
0.09604017540296068,-0.8350013310801065,-0.6090063880866117,2.808664255626673,0.11423865102271981,0.07758963495569168,0.07242556105350587,-0.5322672392659759,-1.3416995386776285,0.05197776071764685,0.18526035587555825,0.02760567483402375,-0.0708338453364699,-0.04320114932553299,1.921875
0.19909985079001408,-1.7269845823738001,-1.2604591815714485,5.806848800082587,0.23545046238674816,0.16194502996683885,0.14931820509080043,-1.0999230812295973,-2.774920455629945,0.10749855833855597,0.3824966064548984,0.05707278392475317,-0.14659322440139974,-0.0898282959981737,1.9296875
0.11481268107188942,-0.9971545174448493,-0.7273012252302298,3.3499130317771706,0.13624552919801536,0.09297103313660407,0.08634906075031344,-0.6354697502101493,-1.6023353534095581,0.062048777425944855,0.22119030624052033,0.03295248553392932,-0.08453370280445029,-0.051649592702014226,1.9375
-0.05290586002751876,0.4550717690365861,0.33321974123455433,-1.5335693103904364,-0.06109901447984961,-0.04428079716934011,-0.038860929910424426,0.2885471463980539,0.7300982903133052,-0.028349526301201584,-0.09980019252438076,-0.015017144686031608,0.0388721767892156,0.024265927619724847,1.9453125
-0.10562216094660021,0.9109834785205624,0.6660448587937255,-3.0638170119029744,-0.12309476245886476,-0.0873965679129219,-0.07813601021444284,0.5788557068082801,1.4630034667296372,-0.056728600657625326,-0.20058358508372368,-0.030084562103218266,0.07759216369333019,0.04808162237213597,1.953125
-0.057642038654147,0.4943849629399206,0.36199569198639175,-1.6611825883086837,-0.0666049643957138,-0.04809104016896395,-0.04222463227760979,0.31445786196128434,0.7956720411729232,-0.03082086503029642,-0.10858000596777306,-0.016357075656021316,0.042190255009503914,0.0263011563555102,1.9609375
-0.05322993126021218,0.4556581573670129,0.33410996340062016,-1.5328081664514472,-0.06146596916136472,-0.044468448474247475,-0.03894294964725491,0.29037295560039,0.7343584216917713,-0.028441993111109825,-0.10014037590232179,-0.015099629937982735,0.03893242716830574,0.024286060028674467,1.96875
-0.08381473799879559,0.7213775787082902,0.52818157288054,-2.428860475610029,-0.09756911847240364,-0.06952825365326519,-0.061871423720240876,0.4591297860676574,1.1599163643294836,-0.04498400382320093,-0.15887855746242813,-0.023852769097201527,0.0615317125614608,0.03817816481712311,1.9765625
-0.04415574774918932,0.37931977793660127,0.2779287709748427,-1.2779747430410755,-0.050918724383049875,-0.03710705455210212,-0.032307106143666595,0.2405149708952114,0.6087290231710557,-0.02365554142446966,-0.08309976127819127,-0.012515120229673719,0.03241908454770875,0.020285900914806042,1.984375
0.025373009587495648,-0.2221944116205899,-0.16163082500390896,0.7471025541730231,0.030998283276597656,0.019773660097835613,0.019634668879337885,-0.1428615840691604,-0.3579412751975791,0.01382882865299144,0.05001421518397706,0.007361070250841557,-0.018763094427431008,-0.01116838842075991,1.9921875
0.014541751019701597,-0.12870175653520194,-0.09313843193856841,0.4326526280537927,0.018301226245972167,0.010882118072850843,0.011564144786552731,-0.08327293118343383,-0.20698957913020288,0.008022497088730122,0.029303196435541915,0.004254953002780791,-0.010814449348499738,-0.006266952141260653,2.0
-0.033762093272970035,0.2890167223174176,0.21209023333663962,-0.9742374524378165,-0.038586069300658006,-0.028677036767592572,-0.02450696799730928,0.182897919531596,0.46528784449298644,-0.017989924488072198,-0.06320400871753636,-0.00955227945766915,0.024743639421671355,0.01561105669847213,2.0078125
-0.014571674117231636,0.12219581836451796,0.09001124558116769,-0.41387833723558315,-0.016004820955767475,-0.012955634817677426,-0.010131113707317108,0.07708065052430789,0.1984754858760863,-0.007614613733862803,-0.026469379927055645,-0.0040395634103707655,0.010586852151943778,0.006920853800752359,2.015625
0.04075539937872884,-0.357460281949947,-0.26046248698955793,1.2005512131859084,0.04915750170263002,0.032377914241148664,0.031240233163020964,-0.22773041416804254,-0.5717947034154542,0.022242397710280793,0.07948375848074206,0.011802762321635315,-0.030201525360850946,-0.018171265186257925,2.0234375
0.05928686233943742,-0.517861244948732,-0.3773492565361834,1.7406719212918302,0.07096127067241109,0.047568008304009216,0.045034900551861386,-0.32955111463059594,-0.8303289739829546,0.0322314314134133,0.11492991119457022,0.017101795423747193,-0.04382827593523104,-0.02659645339201127,2.03125
0.06645566986963632,-0.5791985911421198,-0.4219877351063583,1.9465995633468067,0.07937016138077096,0.05340061502483391,0.05028424631382708,-0.36895725127620405,-0.9298055697463593,0.03606063788152406,0.12856765451425392,0.019144989260051083,-0.04901954053863653,-0.029811882124954583,2.0390625
0.07487449614788441,-0.6515009038758018,-0.4751312007971389,2.1902840296226582,0.08931251214283667,0.060248978517953855,0.056558506845325325,-0.41565189695670574,-1.0462172176475089,0.040557141548810544,0.14465973520037703,0.021553640889778354,-0.05520237411447666,-0.03357393972667578,2.046875
0.03473531874807307,-0.3039840948394681,-0.22154922548023645,1.0221091137622178,0.04205949367486332,0.02740249621174999,0.026650167356363875,-0.19458867607035918,-0.4880980553289756,0.01887005826114681,0.06787718587426751,0.01007141939874919,-0.025719290635927955,-0.015409979178261634,2.0546875
-0.014714051802398874,0.12385197331194019,0.09141988275632822,-0.41895625160500644,-0.016284227661546663,-0.01302220344685961,-0.010292765932861896,0.07836205594733539,0.1986911723996011,-0.007837319755181574,-0.026703131210918742,-0.004088145129517065,0.010693086844408716,0.00693073868352689,2.0625
0.001568262083065396,-0.017462584154390486,-0.011062620441323646,0.05287479566153796,0.002810578481114002,0.00035171092332604407,0.0017737747153194477,-0.010940138032808917,-0.028554531087406115,0.0009473305906357013,0.004580968880378093,0.0005524489712309127,-0.0012066896801286313,-0.0004620024407316846,2.0703125
-0.009413058294123339,0.07723383647468894,0.05820396237968872,-0.26517205353971735,-0.009936463701816526,-0.00861482685324529,-0.0064073422122822654,0.04926198341657721,0.1241110535829736,-0.004890801534219233,-0.016284051566378504,-0.0025875354837773977,0.006848521939729834,0.004506392077387896,2.078125
-0.13826963906646106,1.1927498437220487,0.8724359309958315,-4.012232558649647,-0.16140761244462082,-0.11408127880202924,-0.10247489375847355,0.7587040322767831,1.91681443057795,-0.07429189450949315,-0.2628602473051166,-0.039434637544220254,0.10154986730114654,0.0628253208162694,2.0859375
-0.19811475352722904,1.7112972355565244,1.2506653421963014,-5.7530657375738015,-0.23190642544573364,-0.1630792491444046,-0.14707581595083624,1.0883677615951142,2.7498925382360846,-0.10656995709562771,-0.37749686384976633,-0.05655115103166559,0.14555587021702907,0.08991678845681292,2.09375
-0.01854578585008492,0.15715078274267547,0.11531149503916142,-0.527129821368726,-0.02069817761711678,-0.016142625533723528,-0.013051324866051758,0.09911396438826994,0.25285881803424565,-0.009782217100816842,-0.03393874262625188,-0.0051899435428721195,0.01349687539032031,0.008668130371501022,2.1015625
0.16491422458778915,-1.4310763191976177,-1.0447766755601924,4.813022718708356,0.19527992321053605,0.1339716368263333,0.12387998529457324,-0.911898337710841,-2.2986348970620787,0.08917171225971646,0.3171106646275459,0.04729273910439597,-0.12146875304226783,-0.07434046441298418,2.109375
0.07327683417257126,-0.6377777981001881,-0.465271029575687,2.145159870750015,0.08751723521607044,0.05895877326093305,0.05548022783466689,-0.4072078916763742,-1.0238163787528896,0.039801491262637774,0.14165489387772698,0.02108265026408332,-0.05407513187121348,-0.03285410099443975,2.1171875
-0.1034462902139826,0.8923059542292411,0.6525487564990454,-3.0022217576360597,-0.1206006880256549,-0.08565406294954254,-0.07648683696786755,0.5667797114004205,1.4346997541733735,-0.05554798949194184,-0.19663655473376704,-0.02948034665391353,0.07597716749731229,0.04713868232012383,2.125
-0.03944963330662034,0.3381488691411313,0.24800923626132826,-1.14184813215347,-0.04545137260205848,-0.03326135542765739,-0.028803524631677027,0.21461253468006275,0.5447393320901129,-0.021141982477107617,-0.07414973118960319,-0.011178017341647353,0.028945011855085183,0.018178771294926167,2.1328125
0.15528272688010833,-1.348291329092827,-0.9837603805296538,4.529306971868107,0.18379513545179255,0.12608618536335028,0.11654036257734456,-0.8583492568005257,-2.1644263539988557,0.08385848840265078,0.2985870661617675,0.044549386718749355,-0.114361452417742,-0.06997580059533326,2.140625
0.16891407338616643,-1.4665502764992155,-1.0702255868726291,4.930247918146142,0.19999085544064493,0.13722016723880068,0.1267809430251628,-0.9337249717214954,-2.3549434282970334,0.09128861895477323,0.32466398331454727,0.0484707391641136,-0.12445650486116044,-0.07617976764715596,2.1484375
0.01568540865813484,-0.13930428628904035,-0.10080317852026739,0.4689152993040988,0.019635889959357652,0.0118432133918937,0.012433119209970757,-0.08936065523603848,-0.2242138903106167,0.008689933746393338,0.03136085263200205,0.004622723818221729,-0.011681114427789432,-0.006840536674944441,2.15625
-0.08371390455212353,0.7218462204510122,0.528329616875976,-2.4277951724262343,-0.09741857903001493,-0.0694811489778848,-0.06180696662769908,0.458608638292121,1.158071254569942,-0.044950646124022324,-0.1588111596899179,-0.023841721287406824,0.06153232573638885,0.03815566240083164,2.1640625
-0.08370756019561379,0.7209705458232195,0.5279433342316192,-2.4256276602658984,-0.09732098896337496,-0.06951173780945796,-0.06181754248227073,0.45845233778909006,1.1578318831653496,-0.044955149468959975,-0.15860258532966853,-0.02383729436137923,0.06147741154797969,0.038140182648716055,2.171875
-0.06403049902580456,0.5492003920823759,0.4025818135642868,-1.8479704331449858,-0.07406603501306376,-0.05344947220282676,-0.0470689333174659,0.3496326038706101,0.8844972758714673,-0.03431106737482891,-0.12081688534023251,-0.018179840243970992,0.04687078186917295,0.029212571572074082,2.1796875
-0.04362990238555744,0.3727588131047113,0.27327909628114894,-1.2553252864970337,-0.050157760948141186,-0.036727843986888505,-0.03180046767480915,0.23714279237678654,0.601584013529514,-0.02331631634624778,-0.08187475776372638,-0.012332220504048672,0.031868295879869696,0.020008795346007566,2.1875
-0.03083495158946249,0.2637130830692924,0.1928600391849192,-0.8894180603021158,-0.035224594622873445,-0.026200884652980823,-0.02229077206474781,0.16684359070064297,0.4241603506526977,-0.016457003350380587,-0.057558996625430466,-0.008684941600851545,0.022593327440064894,0.014290259941655283,2.1953125
-0.047529363603906416,0.40908870148616305,0.2987861741783656,-1.3780326940862275,-0.05482130325228256,-0.03983788544286741,-0.034791344318558654,0.2589110127748075,0.656263041520922,-0.025460188052918116,-0.08949872246237209,-0.013476454950538811,0.03493371423335093,0.02187259502163626,2.203125
-0.0467893477182421,0.40176840294757327,0.29405611596522563,-1.353263018498281,-0.053893855936069636,-0.0392086868227377,-0.03420407701729988,0.2548926049060199,0.6456240651047098,-0.025027322580824907,-0.08794994530928606,-0.01327608170878395,0.034320646950582144,0.021482956299333954,2.2109375
0.013824889662433306,-0.12385239218237593,-0.08919145525006895,0.41421944433791175,0.017350838999179344,0.010441722869858333,0.011094255007103804,-0.0788700896595654,-0.19789836756732102,0.007672492641090191,0.02805883572342237,0.0040590034059994635,-0.010321961268472249,-0.006019146854561126,2.21875
0.07320308304955074,-0.637684564045415,-0.46457584796053386,2.143614367226402,0.08719383425953824,0.05903688266516032,0.055424399518816884,-0.40602164327351864,-1.0242548199826067,0.03969102180854462,0.1415788301268411,0.021056903378158864,-0.0540022283047526,-0.032911067191434405,2.2265625
0.08649954755427827,-0.7526030718368615,-0.5489224853712561,2.5317790513820246,0.10298197741561071,0.0698433426863428,0.06533204321461603,-0.4796582481366785,-1.2090064070384008,0.046868277878197064,0.16698986611126285,0.024875971185302145,-0.06381646130572136,-0.03890377899007221,2.234375
0.10069945276807178,-0.875820062048488,-0.6388626823562861,2.944940799231667,0.11978644035066097,0.08138945466486251,0.0759059151812456,-0.5581573896435863,-1.405488686791733,0.05451901530819592,0.1942061694116561,0.0289285753884742,-0.07430116127218388,-0.045296296724948025,2.2421875
0.10902492801602161,-0.9475958919660133,-0.6908591638046374,3.184050673961212,0.12951947223212718,0.08818420638079225,0.0820627719046433,-0.603892183792736,-1.5206813304851339,0.05898951733807818,0.21010152161777626,0.03128511765441334,-0.08037660715902178,-0.04903993956461978,2.25
0.034656732926149174,-0.30301887468707606,-0.21978830908320457,1.0168796756410523,0.04197208492592384,0.027320281716754716,0.02648929349929954,-0.19402939307990638,-0.4868886789437669,0.01889895970816345,0.06772598448969014,0.010006098537689518,-0.025588443693814255,-0.015378891249036786,2.2578125
-0.07874019946704418,0.6783419530275916,0.4971069399257478,-2.282553882571743,-0.09143310189288452,-0.0654880794461627,-0.058147962658856175,0.4306838289150878,1.089676120806391,-0.04222188854182286,-0.14919946932993033,-0.02241813570281451,0.05782650880556607,0.03592424309271439,2.265625
-0.0911247891503173,0.7842276886589864,0.574477165845142,-2.641189151179691,-0.10608796340303363,-0.07559037857168327,-0.06732477873203806,0.4990833302818898,1.2620143944998488,-0.04892274060807517,-0.17278805008716644,-0.025950240804403318,0.06688581466055912,0.04150725973258367,2.2734375
-0.012578428442741348,0.10392674868638047,0.07714900417703095,-0.354983914167367,-0.013796495453576888,-0.011252007245488891,-0.008657802791101888,0.06669972708469947,0.16929372512358679,-0.006623419628147033,-0.02254189109473668,-0.003464949619692139,0.009107563784070107,0.005950161522803688,2.28125
0.0028465725327448247,-0.028271455127740833,-0.02036130012459094,0.09413698596916838,0.004416461233273058,0.001366784326982521,0.0028283211948940605,-0.018294168349938456,-0.046248983913501185,0.0016887706023122468,0.006816204573276044,0.0009798152913118496,-0.0021938923158629437,-0.0010202733372185646,2.2890625
-0.07816773790616487,0.6743488325658058,0.4922193081765777,-2.263132679789397,-0.09073308192364889,-0.064999957112927,-0.05766763782068069,0.4276252626331434,1.0804768798323836,-0.04195156848737871,-0.1482480398291524,-0.022183356238318457,0.057420036239560164,0.03567382740823333,2.296875
-0.12190302252554203,1.0527368828388328,0.7689146959696429,-3.536907899837481,-0.14219913678943538,-0.10080866162550157,-0.09027459597945571,0.6683648765457776,1.6904270770761591,-0.06551594645287878,-0.23185025016819089,-0.03472823179064056,0.08956663597818117,0.05549546895051637,2.3046875
-0.05694815276858557,0.48927788512301407,0.3580239598304667,-1.6477127483580032,-0.06592360770740546,-0.047580345850355844,-0.04172725001775712,0.31067643241112103,0.7884059739370988,-0.030511472916352558,-0.10748265575834856,-0.016184261764473046,0.041740865629030836,0.02609528886661512,2.3125
0.026644209474603272,-0.234972814237841,-0.1707150140665245,0.7857140098905933,0.032392160985732284,0.02089111914515876,0.020676430598209384,-0.1497179643375507,-0.37467743346548454,0.014554610801573518,0.05250683765044641,0.007727149354753511,-0.01977348598876412,-0.01176697293834733,2.3203125
0.037136643273386984,-0.3253670585544417,-0.2367100837222372,1.091610017454647,0.044806055818218705,0.029465938465121598,0.028455100029393093,-0.20752974195688248,-0.5216625528218739,0.020221097500750188,0.07261174076116442,0.010734664734079673,-0.02746344621487937,-0.01653313210338836,2.328125
0.011835842546255587,-0.10574929616698163,-0.07611646061591971,0.3541490630057575,0.015047788786236471,0.008730992824249217,0.009533731504221512,-0.06806266285199877,-0.16990576684884282,0.006570703600533616,0.024196559359666595,0.003483742791892993,-0.00881044923615006,-0.005075792015377574,2.3359375
0.030401543356712066,-0.26662628627981644,-0.19352625135706278,0.8946103272290832,0.03688250955293249,0.023931136867311246,0.023414769448575432,-0.1702637313383074,-0.42801479631542716,0.016571861287169278,0.05969668483590201,0.008793307439050307,-0.02247932977539737,-0.013478436360615477,2.34375
0.07947251769708974,-0.6919854098850142,-0.5044036703980539,2.325475187921277,0.09470126764748682,0.06410214079711594,0.06007135553747363,-0.4407879813203145,-1.1112033829437526,0.04305906038562564,0.15361513513192449,0.022857728189036815,-0.058619860862442384,-0.035707123245405196,2.3515625
0.08765046240007222,-0.7629356734506825,-0.5563171610325305,2.565339834785587,0.10442231976150128,0.07078187844390754,0.0661662364116346,-0.4861467043315882,-1.2257715240589455,0.04751272380105202,0.16933319390673698,0.02521267227487414,-0.0646495017930075,-0.03942578015499884,2.359375
0.04918679985044975,-0.4298947320661026,-0.3128659020328881,1.4452621812517654,0.05917250991698738,0.03928389605517847,0.03744411297864513,-0.27431348544765,-0.6906994889476007,0.026778613415086815,0.09576384045691783,0.014196312131997808,-0.03635994729743123,-0.02201803221304964,2.3671875
0.012778390410816753,-0.11494982554322296,-0.08274758721864445,0.38458483106341085,0.016278649487837655,0.009473300393612152,0.010267204361425685,-0.073537923172945,-0.1835382451834373,0.0071148471185185245,0.026040709637220934,0.0037754375392624736,-0.00959674605024432,-0.0055270183634501474,2.375
-0.013150007714524415,0.10935025675184619,0.080995737274674,-0.3711674254394632,-0.014299109490080205,-0.011765108157445902,-0.009127290501070107,0.06953616454292151,0.17769740543326887,-0.006885468360647296,-0.02367623391657236,-0.0036296375003131336,0.009499918209202643,0.006226908011441759,2.3828125
-0.03281705260380794,0.27987629753111243,0.2058293783767535,-0.9453210121530327,-0.037510742386612186,-0.027874817109788296,-0.023876193960285844,0.1779834632109282,0.4514336036201229,-0.017477464578340953,-0.061384858210748565,-0.009259758931436995,0.02402422259902328,0.01513295950930238,2.390625
-0.01225571213467073,0.10201158179061068,0.07649790564121516,-0.34725344521349016,-0.013333580847851616,-0.011044503300781529,-0.008537467553110826,0.06463830236658938,0.1654094409311671,-0.00638303073489241,-0.02203980197852745,-0.003399391712209519,0.008884267510000089,0.0058075414853886,2.3984375
0.024739197756777735,-0.21818900240808123,-0.1574293851471493,0.7302230636919813,0.03022820836592868,0.019231458008340894,0.019123455932069933,-0.13927379321441505,-0.34915348746160296,0.013530546891694755,0.0487787781329492,0.007179454321694335,-0.018372616837013137,-0.01093542455216821,2.40625
-0.023703515200607015,0.20228245520512336,0.14863501644336485,-0.6818785528309501,-0.02681546285077326,-0.020437079257950477,-0.01701989354196752,0.12770984998994936,0.3249919569006569,-0.012648735595339048,-0.04397854276200832,-0.006666849120229954,0.017359800022772372,0.011054574933251817,2.4140625
-0.13634949424415174,1.1791934312343748,0.8610002785629591,-3.9639195722559863,-0.15946732573376973,-0.11264458080422948,-0.10109321543323727,0.7485437511027707,1.8923697746776624,-0.07341616225158164,-0.2596626414665307,-0.03889133491192895,0.10038684999528628,0.06210987871251594,2.421875
-0.1367763871991238,1.183000594250427,0.8633901547981796,-3.973881957996539,-0.15993422257667464,-0.11296657711261945,-0.10132189292212651,0.7508752208721037,1.8982365972887867,-0.07361723662769157,-0.26047792882279575,-0.03901354721083239,0.10065843037770496,0.06228453408158048,2.4296875
0.005026492269623813,-0.04658640536763985,-0.034352521409179,0.16051722877876093,0.007115301590326253,0.003156637625425593,0.004625743829258016,-0.030738391525640854,-0.07528740725838134,0.002901286411550814,0.01109538089311451,0.0015755545141187437,-0.0038831104377363493,-0.001987392725375087,2.4375
0.08853347322028005,-0.7713639337324283,-0.5631347216479133,2.593652357095676,0.10548098251095081,0.07156976913007221,0.06693811214666917,-0.491127829124438,-1.2380460620694433,0.0479789232901188,0.17112644098933388,0.025488728472752402,-0.06542800934257373,-0.03984378821487143,2.4453125
0.029653310778012608,-0.26202514866530235,-0.19056844237716897,0.8775622445664851,0.0361482172967494,0.023403937464762322,0.022905528188579515,-0.16674236127658956,-0.419155883685023,0.016268113132755915,0.058480762635465255,0.008639991558265335,-0.02206220382490742,-0.013198616574249004,2.453125
-0.01206236290831633,0.0992211100300142,0.07363182673790564,-0.336069254198456,-0.012931950411630583,-0.010768245597743697,-0.008244129931042605,0.06318257854852892,0.16176214453553697,-0.006208779591109663,-0.021443351033085003,-0.003309444707695489,0.008630795715980903,0.005678187820445861,2.4609375
0.03170528265478636,-0.2795279214140319,-0.2028785767466527,0.9398982518750658,0.038646704072665614,0.025008820045021984,0.024425966991745093,-0.17786816191000143,-0.4467997066718775,0.017356549894636027,0.062270950950572765,0.009206295749307324,-0.02360786496074655,-0.014139249094630785,2.46875
0.027765532624933875,-0.24455331108044542,-0.1771983577122958,0.8206592506869536,0.033920194632742755,0.02176335028504929,0.021386471904297495,-0.15590552116875264,-0.3922042882322832,0.015160151058109637,0.05471641468389503,0.008065999414323894,-0.02060657053955709,-0.012322343709275421,2.4765625
-0.03358354194052982,0.28761965755511754,0.21177427152192152,-0.9731284335317697,-0.03851484509826809,-0.028460626023895392,-0.02450905773366609,0.1824675691474532,0.4615379037255559,-0.01795729013607234,-0.06278631995184492,-0.009515602601817432,0.0247103976926727,0.015503825241425712,2.484375
0.01307130853724016,-0.11629341787074172,-0.08308906605477713,0.3834045071780821,0.016297301403413796,0.009692456301738398,0.010342895693200821,-0.07447434771496786,-0.1864500978925978,0.007220685897219711,0.026370974796552444,0.003814490947424288,-0.009582426365591444,-0.0055870288279380766,2.4921875
0.14134020587343588,-1.2273344302193727,-0.8947373605162753,4.12124237708177,0.16737655109026256,0.11463031434046711,0.10615908400860807,-0.7814249062227938,-1.9702373606784847,0.07639900657176431,0.2718220134861651,0.04052267899746623,-0.10404992266755952,-0.06364941241162193,2.5
0.1130618532375376,-0.9823173689745178,-0.7159520812191345,3.299987912296812,0.1342176470357766,0.09144399205500095,0.08504580850567961,-0.6259114325696181,-1.5772883169566159,0.06112910936323044,0.21778717906600703,0.032445325016721024,-0.08328413557254834,-0.05085217757250654,2.5078125
-0.08037040661228832,0.692876116570244,0.5075297855699376,-2.330442121502742,-0.09341820808596933,-0.06688876032214586,-0.05934095140310941,0.43965801247636455,1.113018597036631,-0.04316556777165607,-0.15229685597274328,-0.022897292522993655,0.05904439090982947,0.03669132560018618,2.515625
-0.15228216644612774,1.3152108095925825,0.9616930398269653,-4.420834525180785,-0.178061674349184,-0.12569116806263933,-0.11292310884712489,0.835778804668065,2.113355230935746,-0.08188787782716861,-0.2898517489030723,-0.04346618974692075,0.11191080330087254,0.06921014108999297,2.5234375
-0.0018830748828199634,0.012437568078132257,0.009304653412264916,-0.039997298229863545,-0.0010770720819061135,-0.0024793728694493824,-0.0005686564292874216,0.007202739555654149,0.02112925438477671,-0.0007760499234947902,-0.002021600530264776,-0.00040920484279610833,0.0012023038588606166,0.0011137072557541763,2.53125
0.11166860765715442,-0.9708585208243178,-0.7095488967727519,3.2650471492142272,0.13250338173368575,0.09052433280576626,0.08417948153261949,-0.6181904299787109,-1.558872186631954,0.060403836611200315,0.21519651108529472,0.032111398297202956,-0.08233865249643511,-0.05028067146070282,2.5390625
0.009981050620656629,-0.09047845496957493,-0.06648520979084022,0.3054400726754575,0.012834939265806563,0.007255266260185566,0.008251601272829373,-0.05782741241952292,-0.14472172719432538,0.005561069020905568,0.02047874143851459,0.0030385539220101855,-0.0075366226773309645,-0.004262629888122814,2.546875
-0.12603828976959677,1.0869508934551233,0.7939174933006278,-3.651509827741417,-0.14710539450716245,-0.10411333256182642,-0.0932502434444156,0.6913903607435132,1.7472069642759231,-0.06772535948911608,-0.23983344569019255,-0.035875360202634925,0.09247035190963065,0.05727910981005838,2.5546875
-0.09019954899325391,0.7768214587763237,0.5678656074455304,-2.6103610293679846,-0.10481148171804634,-0.07473676446197,-0.06652833741730903,0.49377195113882627,1.2485984201513458,-0.04838632325798429,-0.1711477151193805,-0.025646776002734004,0.06610002303473697,0.041067705614456294,2.5625
0.022973639648829456,-0.2023206165651222,-0.14662783863957227,0.6764505667721563,0.02834297403744386,0.01792691783088373,0.017807389311402157,-0.12961656339547256,-0.3255369863585755,0.012573191186998511,0.045524196386756526,0.006685096377346828,-0.017057045285780805,-0.010107375133984376,2.5703125
0.03017121679274581,-0.26419772164859184,-0.1911546494934752,0.8823089103179845,0.036740002295656854,0.023755101407539947,0.023078557464410673,-0.16908271419995852,-0.42537419275662347,0.016431689649839612,0.05931611716835128,0.008711200857496203,-0.022264727467051944,-0.013342339296489293,2.578125
-0.028995356051403104,0.24787756534246003,0.18294143831272258,-0.8360866269006655,-0.03289753667991534,-0.02474719913586663,-0.021040125196290393,0.15685367075029083,0.39754958509731564,-0.015404204105600006,-0.05394277069656365,-0.008209533518324102,0.021264681998614865,0.013408133888575993,2.5859375
-0.016323539374815437,0.1378360240634253,0.10222014553336156,-0.4641551226178748,-0.01803048685388626,-0.014380848477720651,-0.011499380429413815,0.08696242367231272,0.2210133349274456,-0.008538596007008025,-0.029733398067319193,-0.004566060505609489,0.011938751924293141,0.007652371513261319,2.59375
0.04039834206445696,-0.3535508611748079,-0.256797661187223,1.1845635484584667,0.04857649548986339,0.03203971462083269,0.030849267698567048,-0.22547008106560423,-0.5673414155587018,0.021977564173809323,0.07880870198908635,0.011656474581075419,-0.029767160993603888,-0.01798858665381794,2.6015625
0.03642641272152336,-0.3194937027341768,-0.23204902485279652,1.0674550227478428,0.04380765806215275,0.028728053455658615,0.0278814936937469,-0.20358072771406607,-0.5105645299165004,0.019768025820693078,0.0712344200263292,0.010513577679438474,-0.026869502361607567,-0.01614687608871498,2.609375
0.007526118832469796,-0.06924567981337504,-0.05000206665818909,0.22933533231466643,0.009856871447381461,0.005050815752909124,0.006346903565310594,-0.04453491808341195,-0.10799525217618969,0.004195307074868492,0.015913354766985605,0.002271738874291232,-0.00567421639606256,-0.003063695300593645,2.6171875
0.03871927323610542,-0.33886519015904365,-0.24751533118846722,1.1395681910450206,0.04666690958350009,0.030665864226799885,0.02963583522879348,-0.21645883762476717,-0.5431792821163888,0.02105125040487691,0.07554950116948927,0.011227074582223372,-0.0286342096642334,-0.017216919974044148,2.625
0.07756818652371483,-0.6752834246612482,-0.4925841305809455,2.2690056638993736,0.09241376052309187,0.06255761141951327,0.058587505091509166,-0.4303073761677082,-1.084904870221712,0.04201704111779516,0.14991529123236777,0.022331752241654613,-0.05718601528431205,-0.03483878563348107,2.6328125
0.038189080832043636,-0.33517832230976485,-0.24313274223675999,1.1229001693022427,0.046070262279337686,0.030326270716503137,0.02920515266039297,-0.21322456933563258,-0.5367722815363074,0.020807706837306338,0.07464922233017117,0.011037499733509568,-0.02825390271429925,-0.017038894407147717,2.640625
-0.02905554134281043,0.24678782837068722,0.18170142509060985,-0.8308925604949107,-0.03303146622981278,-0.024756970214743053,-0.020893139823783304,0.15712230094316057,0.39948991632579534,-0.015422691140636935,-0.05406787294578206,-0.00819422263884988,0.02113192374375261,0.013390016496641918,2.6484375
-0.04511952677104819,0.38699016832233585,0.2829890044466771,-1.2971452115188855,-0.05188473604688253,-0.03788799797604337,-0.03283718756845643,0.24549479816637795,0.6223127546854351,-0.02407890210833576,-0.08498793680393138,-0.01275976527401247,0.03294962560943868,0.020664558325090798,2.65625
-0.043088218594406265,0.370425693358752,0.2706861995119918,-1.2410739303950908,-0.04945769052444221,-0.03615852660230042,-0.03138320528314372,0.2344051097827945,0.5926451219561043,-0.022983625565576815,-0.08116727689732195,-0.012177731232951381,0.03154081855343148,0.019747121869487575,2.6640625
-0.056475761552544725,0.48586950975210935,0.35591469006259685,-1.6327129063162953,-0.06520228281555134,-0.047101410947010175,-0.041440515283033066,0.30832017108293003,0.7788627670084171,-0.03019557796981516,-0.10663103361995847,-0.01603835503755286,0.041426296370454335,0.0258016766674961,2.671875
-0.03173415944183836,0.2706570225253838,0.1992714264072393,-0.9109165039743135,-0.03610215416960658,-0.026915344792028614,-0.022974944340165962,0.1719609036180917,0.43578852289243875,-0.016880224273222243,-0.05910904767017634,-0.008975607104796092,0.02318261428214985,0.01460474657864472,2.6796875
0.028299261748810686,-0.24897625733418702,-0.1807258528474651,0.8364269840378307,0.03453139090028006,0.022167803144085493,0.021821001503274956,-0.15900182135491814,-0.3992861115475506,0.015430678516524394,0.05582299335122967,0.008212298224617113,-0.020982273278335777,-0.012542652914809445,2.6875
0.02371854339984429,-0.20825072740903974,-0.15161810548692728,0.6982447145181019,0.02913965075194591,0.018441006227367645,0.01834017372625148,-0.13390023732436623,-0.33654017913669726,0.012931739463933079,0.04703900066803007,0.006910493885436043,-0.017523364318605482,-0.010424403045793207,2.6953125
-0.04277000261075886,0.3678478494103263,0.26906932904494896,-1.2411560715976997,-0.049149581197498245,-0.03594421171417944,-0.03130971313238473,0.23249681465972175,0.5886391014857497,-0.02290048666067218,-0.08026180811370572,-0.012121839736004498,0.03145465641255101,0.019705479482081456,2.703125
-0.03545294581478391,0.30369627417404765,0.2225110005913777,-1.0259344619464201,-0.040654128479682874,-0.02999586504192302,-0.02578389466676819,0.19238976934297536,0.48865046075834145,-0.01894170348302493,-0.0664018580040464,-0.010033387011987645,0.026025474639591654,0.016390988229284125,2.7109375
0.0631190747437272,-0.5508382969858618,-0.4013763808366544,1.8485904231874408,0.07526038488341881,0.05059579047802292,0.04785731551800684,-0.35056981505079376,-0.8814451122529674,0.03420233150929126,0.12211735774271384,0.018183818738874414,-0.04657617785864708,-0.028253969207128107,2.71875
0.09382744816828664,-0.8169760463710299,-0.5956994948385629,2.7439207072366463,0.11143306784839455,0.07568825221981607,0.07077060395413996,-0.5198108958545561,-1.3090183484736027,0.050768429941854626,0.1809106139869959,0.026983916683311748,-0.06919028475255619,-0.04216402902781521,2.7265625
-0.006796866128109795,0.05474379930393738,0.04102784922416188,-0.18760769713346032,-0.006886106231628539,-0.006642106687816134,-0.004374000800156783,0.03446934360296243,0.09013220126926569,-0.0034666335615199813,-0.011564441988128362,-0.0018151403442205009,0.004854755262480915,0.003392403880942277,2.734375
-0.09202289449607291,0.7929024195887344,0.5804083976442147,-2.6689076585785934,-0.1071157529219667,-0.07634682725131747,-0.06798055842580071,0.5039871679857673,1.2752547963696146,-0.04940600612992968,-0.17462549065222172,-0.026218126939143382,0.06753172562010216,0.04194707465926472,2.7421875
-0.04374297530822983,0.3744384650513649,0.27508422496173346,-1.2598712375615444,-0.05026280620985157,-0.03679613789459366,-0.03190219658262409,0.23799170682773826,0.6026586834993326,-0.023355631476714364,-0.0822121150491911,-0.012404235055423922,0.03195691058027448,0.02002882867885143,2.75
0.05851845397414114,-0.5113887116866003,-0.371924670259238,1.719386557161905,0.07009641878566239,0.04691502636245224,0.044439312085360914,-0.32545328622428277,-0.8207101086677172,0.031802601936812225,0.11353418164220591,0.016868828376767026,-0.043282677477271256,-0.026290168413646814,2.7578125
0.08282132835249813,-0.7214672151372858,-0.5257412690155973,2.4241205208732364,0.09865248035803446,0.06681272446210897,0.06254491471134078,-0.4593734192639103,-1.1581587061478436,0.04489317130350906,0.16006750746706874,0.023822038851307063,-0.06109336147217822,-0.03724227094915013,2.765625
0.015789397440416512,-0.14024168731071343,-0.10158814131522068,0.4686882796687674,0.01969016736398422,0.011981817038909708,0.012476934922348724,-0.08998695964153793,-0.22456036041691005,0.008714844423729544,0.03177350724950679,0.004627508886782587,-0.011698111805415218,-0.006844057096331342,2.7734375
-0.06536046615984198,0.5630765724608752,0.41187784465856414,-1.893786752282684,-0.07583056546200007,-0.054371883364634735,-0.048090075974536205,0.35724498997561804,0.9040270796830088,-0.035043558895834694,-0.12354331223596568,-0.018592661215735638,0.048036036343022295,0.0298752748270209,2.78125
-0.08543703564232594,0.7371557671678796,0.5387687470078125,-2.4755308023426035,-0.09943030485507934,-0.0707606637024624,-0.06304410548809786,0.4679514718829359,1.1821502516368967,-0.04584465454992721,-0.16200576993728857,-0.02431791634353484,0.06279240487969664,0.038916750733597,2.7890625
-0.018326649186251837,0.15578547912005947,0.11395062350862864,-0.5206737922494513,-0.02045377601371117,-0.01585443034618236,-0.012922788367403272,0.09821578977888935,0.24850868854581776,-0.009666501591011133,-0.03363755316851449,-0.005102116566975348,0.013381423521625533,0.008535768067359234,2.796875
0.07431024758627615,-0.6468510645378074,-0.4722107073851496,2.1750390551812893,0.08856791329761747,0.05991482217579537,0.05623219452453751,-0.41222908198075714,-1.03918107155361,0.0402418705014509,0.14364058666501986,0.021397754836510165,-0.05480938445287966,-0.03335828399129088,2.8046875
0.07641442341671464,-0.6650238401607064,-0.48524847765551127,2.2348516327234016,0.0911340724472965,0.06159808606545788,0.05777848142724263,-0.42396353967626654,-1.06803909645887,0.041359242602312475,0.14773100396053565,0.02198607911185361,-0.056362016328183086,-0.03427883876863161,2.8125
-0.02392153977034855,0.2043127867708967,0.14998085744014883,-0.6868160383854758,-0.026833038642804636,-0.02058036580801814,-0.017162373280772747,0.1285966331490949,0.32738883932039176,-0.012713695245962059,-0.044249750120260445,-0.0067315759109381704,0.017473169222702162,0.01114673959569244,2.8203125
-0.07927258034537125,0.6831789585914174,0.5001737487366746,-2.297318537846565,-0.09196732606919028,-0.06598226676729607,-0.05849602938855282,0.43329389521810974,1.097464498389346,-0.04252181730815437,-0.15018408702160857,-0.0225689023314037,0.05816205206795374,0.03619278552335484,2.828125
-0.0012861119967995153,0.006198684455171458,0.006188117933715912,-0.024722270903349722,-0.0002728914590310982,-0.002221723212000308,-0.00025193317099959635,0.003563656085992121,0.013243270998149806,-0.00046206717829435913,-0.0009246727089237122,-0.00024482152978622725,0.000696028718722048,0.0008733710041980762,2.8359375
0.0780508120452761,-0.6817036652783949,-0.49613948922420065,2.2851838856753246,0.09302309615065053,0.06275613148399474,0.058978791704603815,-0.43325905672930926,-1.090304013910563,0.042293080928198556,0.15090930374769007,0.02246561083030715,-0.05769776954684917,-0.03505028588654007,2.84375
0.02540501944509837,-0.2247560916074437,-0.16264224861299562,0.7488492802621054,0.03101068766038325,0.019778287832996677,0.01962034209996405,-0.1427440392297693,-0.35869193982709013,0.01387337588009744,0.050096414510057384,0.007397159739820365,-0.01885724559211919,-0.01121457197062324,2.8515625
-0.05711827698146514,0.4911593947751944,0.36001345442955796,-1.656493321819469,-0.06617850587900784,-0.04770684088357546,-0.042023424744063384,0.3121566467174127,0.7886819326497826,-0.03063524081235942,-0.10788831265770271,-0.016228922146585174,0.04197076337048891,0.02614390826352132,2.859375
-0.024540834945255316,0.20905211605287163,0.1537487669891132,-0.7055655641877855,-0.027874475755609543,-0.021071637966790156,-0.017637857347605684,0.1325178159959884,0.33580432382859765,-0.013056600373042805,-0.04552777935612866,-0.0069101897470908525,0.017995789649800937,0.011389740717240018,2.8671875
0.04011817995535943,-0.351208586884252,-0.25582035951837007,1.1807673957946294,0.0482481861013302,0.031820680445357734,0.03073141194275697,-0.22396037309279504,-0.5628277241031666,0.021822696693331787,0.07822791422470723,0.01159867976133806,-0.02963190828514851,-0.01787675680613649,2.875
-0.003828488111306056,0.02962249035541939,0.022133283174687393,-0.09930873223350849,-0.0034523509562267066,-0.0041136306516511385,-0.002069683924604151,0.018187636323681887,0.04897285585205706,-0.0018620812632063896,-0.005896023658622122,-0.0009737072170202189,0.002712965141884409,0.002032453323135625,2.8828125
-0.07839910061965756,0.6754567333347742,0.49410251281342266,-2.2732693967120774,-0.09121618785528862,-0.06508641904102606,-0.057806959323127884,0.4291998383494206,1.0859373042552343,-0.04204947782567062,-0.14857586598846995,-0.02231488828537199,0.05761351103768441,0.03578617973638285,2.890625
-0.046157193851659,0.3958536233458071,0.29016274744539367,-1.3339870697286669,-0.053201671311482485,-0.03866440951104944,-0.03375614816181579,0.2515038252859649,0.6364676210661199,-0.024637956037315275,-0.08679279007312171,-0.01308828150254614,0.03385669783551117,0.02115867333575026,2.8984375
0.02996657417030965,-0.26328073492030524,-0.1914701567961403,0.8859723490429092,0.0365282568460093,0.023656276882506672,0.02313179979884332,-0.16816610274981042,-0.42332626079424107,0.016423258383693223,0.05891101518173384,0.00869966605841559,-0.022222809962560652,-0.013335007475967924,2.90625
0.03577201399781201,-0.3131134541664961,-0.22823739700647788,1.0569715502308903,0.04341917062390459,0.02842350483807536,0.027510166147488795,-0.20024498811534083,-0.5043299908029808,0.019551824890527075,0.06999631566344243,0.01036586494479463,-0.026512007099528157,-0.015973421980233098,2.9140625
0.01859268569923776,-0.16445143669293233,-0.11963941651957412,0.5554001666126717,0.02312318120542943,0.01433914341792986,0.014649046219217768,-0.10542640961002922,-0.2651102820239016,0.010258304953876661,0.03713996027277412,0.005452599567866966,-0.013835887949038452,-0.008180212992056863,2.921875
0.03850448772956362,-0.3369680393011183,-0.2453751309520777,1.1323436796047988,0.04648328297317879,0.03055094635255558,0.029432211657791096,-0.21503557631615278,-0.5417610091298201,0.020925380844574456,0.07525924485166963,0.01114673409736719,-0.028452874049128593,-0.017159036195309414,2.9296875
0.02779552241091221,-0.2435064887137939,-0.17695554506586877,0.8186573537638797,0.03389497640015996,0.02170469171823709,0.021384245003395898,-0.1561723623644442,-0.3923416398731706,0.015088898754968001,0.05468662420112088,0.008071487965837128,-0.02056829575527679,-0.012279709254305575,2.9375
-0.030651864029129915,0.2628951022205018,0.19305678244592445,-0.8831803548827767,-0.034880347407963204,-0.026143542715367556,-0.022240941943607373,0.16572226603920756,0.42155136199333526,-0.016409576129461666,-0.05723266729711052,-0.008661114835255728,0.022419418634521366,0.014187684124073285,2.9453125
-0.029419544412046684,0.2509821756265033,0.18460919569566586,-0.8469057374852178,-0.0334820044781914,-0.025113929211576267,-0.02128084231675534,0.1589524192207208,0.4053569860632282,-0.015667278800814123,-0.05482712554370174,-0.008306153888927073,0.02149293066189904,0.013633002309573712,2.953125
0.03823880779833161,-0.3359350996532358,-0.2440276169799985,1.1221048839813434,0.04611773559038502,0.030243270382056667,0.02925257363420872,-0.21386243757803317,-0.5356365802905109,0.020855665633499356,0.07468928939844797,0.011058877816781455,-0.028289564719314604,-0.01697434636331113,2.9609375
0.0447147723420726,-0.3912664626282879,-0.2848287390022825,1.309691889999861,0.05379025137627084,0.03550744479848775,0.03408801381857987,-0.2496893219463664,-0.6265767295523305,0.02431709360200792,0.08700517663142214,0.012914396565251025,-0.03304344617486949,-0.019893588167261892,2.96875
-0.011936904408357641,0.10020295401730574,0.07373659963622319,-0.3378297602749611,-0.012833373922017341,-0.010836568273165313,-0.008195465524338008,0.06250566568813348,0.16040823080748606,-0.006263786301838578,-0.021457214527623066,-0.003287800359586622,0.008625653540415546,0.005715964351339919,2.9765625
0.0012918600116324321,-0.015182432236956868,-0.010395346240557166,0.05113053328950252,0.002716913485409752,6.581632161823413e-05,0.001703849604322069,-0.010022019159886996,-0.024052383992855832,0.0008872602903116089,0.003956160325526661,0.0005098508059197869,-0.001146738518524047,-0.00033365820854436073,2.984375
0.06569133634907284,-0.5742410096848855,-0.4180893818708175,1.927599910656124,0.07845023396939654,0.05280902318364616,0.04978930700562595,-0.36457883730504,-0.9196911126896579,0.03565667203420783,0.12729468418261458,0.018936036167494442,-0.04853928547983387,-0.029514788952916104,2.9921875
0.009548440406062656,-0.08804606710547441,-0.06249415080298541,0.2914501262628781,0.012324347247646063,0.006821639228781952,0.007866467894411571,-0.05534301991241759,-0.13836830702940453,0.005409176409983337,0.019824886939518845,0.002854998114145177,-0.007182119491635044,-0.0040879140635948046,3.0
-0.1664135007962657,1.4369307443342432,1.0510992721459336,-4.833149388138599,-0.19478041584175043,-0.1372140271327004,-0.12349355018029137,0.913946295235936,2.309478789044734,-0.08947698753826205,-0.31695704375567746,-0.04750612811925615,0.12234769614190022,0.07558373655980037,3.0078125
-0.23511744532590467,2.0329243545650666,1.4856462859308541,-6.834155035409728,-0.2756088942600543,-0.19336608054657334,-0.17476680076372106,1.2925168898970731,3.2649685696610464,-0.12655039433464987,-0.44840000879052005,-0.06716465693045894,0.17292448643590846,0.10669265612340331,3.015625
-0.07814084284412959,0.673776006493592,0.4924970190751683,-2.2654576462688207,-0.0908528084287087,-0.06477705164270595,-0.057588720725365215,0.42793225073752617,1.0810599000943555,-0.041944293730299016,-0.14798254348058795,-0.022247769190629468,0.057423640775954674,0.035640862129383555,3.0234375
0.13371147379201248,-1.16132449000945,-0.8474954901379619,3.9007776086939683,0.15839657113803163,0.108624708684715,0.10050973294185676,-0.7389874926057878,-1.865707264898946,0.07226062399126701,0.2573510482042488,0.03836952441618047,-0.09845206854327372,-0.06025212564638189,3.03125
0.17982713887370455,-1.5612529926714145,-1.1390787574063652,5.243566023952198,0.21258579543284595,0.14626700056105335,0.13487857275396464,-0.9931015746617431,-2.506440086282672,0.09712660850033177,0.3455080438509213,0.05157198332345288,-0.13237906965933766,-0.08111869470956583,3.0390625
0.07757196037662704,-0.6753680206656258,-0.4922100962634876,2.2675082439677205,0.09232282420572972,0.062481625708143064,0.05854080555472347,-0.4302501305087916,-1.0834159675596557,0.04201326263991941,0.14980552833135227,0.022321910875143274,-0.05715310517011845,-0.03480535794092367,3.046875
0.01718762472576374,-0.1511987742898804,-0.11010263935718616,0.5097414007919037,0.021488039696918818,0.013044586807646748,0.01352224807337086,-0.0982758966791621,-0.24355828202098176,0.009472511652643631,0.03429001942996924,0.005039666278888052,-0.012764934720142838,-0.007437511086045315,3.0546875
0.06390797121346571,-0.5551981621837407,-0.4056205580366636,1.8713366523549042,0.0766511069573806,0.0513006180303092,0.048471646127668355,-0.35605129580949363,-0.8941146831627774,0.03466287234576962,0.12377976206104432,0.01840214743839398,-0.04721119307409365,-0.02858802301221242,3.0625
0.07788421570339296,-0.6771972742807482,-0.49450375774123984,2.2824547398281596,0.0931067727024711,0.06274366119108483,0.058941164014785496,-0.4329086624938618,-1.0893214197740124,0.042196388666633784,0.1506289010504859,0.02241726922358225,-0.05756514307632108,-0.034973244704056716,3.0703125
-0.030058365707279214,0.256091164290929,0.18765901071924687,-0.8564735619021889,-0.034034045154446885,-0.02559457166995903,-0.021648655401552745,0.1621877100225178,0.41156772937909314,-0.015993278792389137,-0.055890905908030905,-0.00844133965542878,0.021836555263455643,0.013819178389505528,3.078125
-0.13357883472769475,1.1519912908624321,0.84243978356351,-3.8719792944667812,-0.15599336489161936,-0.11031091605683606,-0.09897133160663739,0.7328922931764462,1.8515213539189435,-0.07180712493284279,-0.25403549634778316,-0.038061762770813856,0.09806053478766778,0.060668735332822875,3.0859375
-0.10378842979507187,0.8944199539145201,0.6546766093591214,-3.0109379396655207,-0.12103090881528551,-0.085956986831564,-0.0767971609874582,0.5689794535903114,1.4378119435371763,-0.055770248622950554,-0.19707019327295053,-0.029573051289438906,0.07623384419639018,0.04724248196880256,3.09375
-0.019277222885610963,0.16305882673895136,0.12080321732003371,-0.5557145012703997,-0.021599890623202507,-0.01684853736494746,-0.013763822505706805,0.10338009452614871,0.26306423656676947,-0.010225639677848612,-0.0353390378499198,-0.005424775860321735,0.014109664365404688,0.009053046956673026,3.1015625
0.0029179243234792097,-0.029254331549453925,-0.01953529992567541,0.09016356547703644,0.004533271446743868,0.0012843332772716485,0.0028007740718357355,-0.018986442946112063,-0.045229619534798454,0.0017561318608961445,0.007124090062209782,0.0009239252290750158,-0.0022262292326531807,-0.0009784871469444502,3.109375
0.011744145564605643,-0.10629576916788663,-0.07589371560281291,0.3501225306598459,0.014897717456382865,0.008528455959210776,0.009438340525579191,-0.06754822373823105,-0.1677027017263347,0.006541542992254384,0.02395729137997589,0.0034629155537854728,-0.008753383643883351,-0.004998576549410123,3.1171875
0.06745126032885555,-0.5891016031353914,-0.4288120602595198,1.974698266188795,0.08041527330395958,0.05418426932221166,0.05108570177807299,-0.3742525828340645,-0.9424503318856151,0.03658408530594078,0.1305260282329399,0.019409778204735637,-0.049766670246861114,-0.0302433350507861,3.125
0.06972848506045728,-0.6084593668930224,-0.4434297848031806,2.0425447644607537,0.08311215169537721,0.05614513250737516,0.05283236055788646,-0.38668813493961957,-0.9748249835993187,0.037815681971748165,0.1348826966693004,0.020070389551356194,-0.05145859060127624,-0.03130529113378414,3.1328125
-0.04590890949368716,0.3937847264118479,0.28808975759869787,-1.3230858462365496,-0.05294104514648932,-0.038408724072690636,-0.033466831957124174,0.25039698248654535,0.6324448639094677,-0.024521895080304033,-0.08645197921596075,-0.012999504819411761,0.033624968570493005,0.02100233127282309,3.140625
-0.1283289284671614,1.1082623444287636,0.8097171742257331,-3.7233992829023412,-0.1499885518749089,-0.1058608913659368,-0.09501195505944428,0.7045103922593992,1.7787374482910603,-0.06897461149683817,-0.24426108050569523,-0.03657880607206853,0.09431411332188545,0.058311505530300796,3.1484375
-0.04947039761093857,0.42578167912481485,0.3113912698695984,-1.4310258860866711,-0.05725938090941583,-0.041389676162657575,-0.03621233766223336,0.2700040566036018,0.6830407129648859,-0.026494274352588713,-0.09336149582245246,-0.014036036708850048,0.03636595651582188,0.02267636177824898,3.15625
0.0659634097057235,-0.573844531055288,-0.418455906631065,1.927161725974272,0.07866635974371149,0.053051585111117336,0.049895859648478494,-0.3662860894324079,-0.9220671964975521,0.03573991028342598,0.12766283226015618,0.01898073473385078,-0.048556347596117676,-0.02952829231578246,3.1640625
