AF3,AF4,F3,F4,F7,F8,FC5,FC6,O1,O2,P7,P8,T7,T8,time
-0.04098308414142094,0.35101391864634784,0.2568003033010091,-1.1795906267041942,-0.0471872539740507,-0.03445083337233551,-0.02980671324861561,0.22320644489731314,0.5649624804079534,-0.02189294332944712,-0.0770670360351438,-0.011580336863656927,0.02998508571562416,0.01880019969386126,0.0
-0.09936243504777822,0.8554853497422151,0.6257020201816661,-2.8772970033106304,-0.11584225920827156,-0.08217040321651593,-0.0733609840352955,0.5448324972455328,1.3761593840158468,-0.053352362361089124,-0.1885694953253776,-0.02828164374269672,0.07290286739839905,0.04518231349007298,0.0078125
-0.009168486409683834,0.07377241947735824,0.05470393698261628,-0.2501916944629614,-0.00950739160229962,-0.008359696830241903,-0.005967925951769964,0.04731433851014297,0.12187127071550476,-0.004669354978876409,-0.0157949297029772,-0.002481147930417139,0.0064562693075573135,0.004374752637385482,0.015625
0.06571974926763995,-0.5742951151801396,-0.4189458885438436,1.9293133615109328,0.0787334754220117,0.05285230031778723,0.04993885821058783,-0.3657513153470596,-0.9187919210236182,0.035735932892907545,0.12743392359047542,0.018941435163318865,-0.048679377883939105,-0.029472869830858516,0.0234375
0.03155570033969111,-0.2775825299327736,-0.20206564078277073,0.9324593277802509,0.0384657588664887,0.024809269879526242,0.024341034845826167,-0.17746033925773144,-0.44350378023693654,0.01729169047580356,0.06190987198225332,0.00916103582187161,-0.023472659993969892,-0.013990460655656218,0.03125
-0.011029573913720246,0.09149387922830388,0.06815989100743457,-0.3094105538991375,-0.011730147680447516,-0.010094635638284725,-0.007557151278671539,0.057268448276638344,0.1479894010833883,-0.005702253420334658,-0.01955103008338948,-0.0030335763991427914,0.00795112199730763,0.0052758009415510235,0.0390625
0.008069477772244833,-0.07381479517259577,-0.05214433143824945,0.24563976578304775,0.010772217614338848,0.005492185575902367,0.006645037366356762,-0.04811441082242074,-0.11801266767424125,0.004576012704285518,0.017077098024075532,0.0024198156269354754,-0.006070645559444198,-0.003363536133970184,0.046875
0.018652761399101134,-0.1646042984819424,-0.11853515227236179,0.5530825003091966,0.02327084532584821,0.014114246180846132,0.014514414134245195,-0.10637051200246495,-0.26498049968248083,0.010244278466379701,0.03722911850618016,0.005436865266749372,-0.01384107571053557,-0.00813657855655174,0.0546875
-0.020379480118110825,0.17482325684105016,0.12910998808327484,-0.5851841456116094,-0.022735543555120346,-0.017835998060713117,-0.014658905498386306,0.10916321163180165,0.2777134652581178,-0.010866351686696819,-0.037653713020804565,-0.0057420677880888685,0.014946420862533996,0.009537360459044767,0.0625
-0.03096761515450279,0.2671937228798706,0.19624499311576546,-0.896037324603791,-0.035359547026687206,-0.026470575543705258,-0.02255978926837581,0.16789513794364988,0.4246578737439018,-0.01661769318008624,-0.057971752961559396,-0.008773731036660126,0.022812722732279894,0.01434005754660721,0.0703125
0.03290911780254313,-0.2866063003855916,-0.20875882826497488,0.9634903592418775,0.0396861089556355,0.025872087565444186,0.02520451071142202,-0.18399843240922514,-0.4632122651527617,0.017842917137019257,0.0643409590648656,0.009516754529339979,-0.024187522044106267,-0.014557164887441208,0.078125
0.08432651999389702,-0.7330934119568743,-0.5353077348486495,2.4635478119409444,0.10016507575927291,0.0680761391922114,0.06369395838154819,-0.46718903454216054,-1.1775992752321043,0.04562112020860026,0.16281554928671932,0.02424700342937748,-0.062082333558318756,-0.037850301526286115,0.0859375
0.03721579077380563,-0.3260537091729603,-0.23794352283942966,1.0942331164854733,0.04474356954886897,0.02967188084674616,0.028570186772518488,-0.2072939681583321,-0.5227285334875681,0.020253537165743813,0.07272412093138793,0.010773772444241672,-0.02746322254357414,-0.016581261090377105,0.09375
-0.059798481912958064,0.5134006590563132,0.3756659832302237,-1.7313820511651832,-0.06940761814686251,-0.04966090978333695,-0.043879658030169605,0.32736638752859054,0.8258582674757919,-0.032059514996528884,-0.11286680118543353,-0.016985670900831994,0.0439010635071392,0.027303376713500086,0.1015625
-0.10759762199867429,0.9263751049825841,0.6777661550254108,-3.123649462264859,-0.12564436639476984,-0.08884560995639623,-0.07958777217765794,0.5904998828586658,1.4911120827164999,-0.05783202328233588,-0.2043262160911016,-0.030652601426417504,0.07901659333762062,0.048951937522253006,0.109375
-0.09157389576474077,0.7865360008651355,0.5759364394634561,-2.654105701061819,-0.10674909378211787,-0.07581072032728296,-0.06760394470628897,0.5019755279929138,1.269211765809673,-0.049148094022557175,-0.17370878831372163,-0.026049374785671615,0.06713581655480597,0.041694931549984944,0.1171875
-0.053497416621163786,0.4568272923049006,0.33523061763268047,-1.5429985852671286,-0.06184799964859335,-0.04465474949926702,-0.03916355024704673,0.2920901345633543,0.7393817046280384,-0.028567157163296917,-0.10087545384812105,-0.015151631747099853,0.03908639307870852,0.024435361922005957,0.125
-0.009673963605035096,0.0791439181924713,0.059030940511603985,-0.26873832462665903,-0.010124960178798563,-0.008816597122916178,-0.006484470927608076,0.05036804499403389,0.1287226007465615,-0.0049455182134332575,-0.01700889929361124,-0.0026319470724885594,0.006904420508722548,0.004618949097636087,0.1328125
0.035407872936580105,-0.30913619595081726,-0.22530442213430285,1.0425840470595216,0.04308293185381735,0.027939904802001484,0.027154654796190707,-0.19861879635629595,-0.49862595231892953,0.019328987267592794,0.06925356679067025,0.010250226217176776,-0.026206090569691566,-0.01572531334334413,0.140625
0.0674726288402205,-0.5865854963876801,-0.42832812978375856,1.9798294450861955,0.08090130199032713,0.05404128939495725,0.05116547810659658,-0.3758835039040148,-0.9440136037203101,0.03665012082425875,0.13061308414839828,0.019428033648677304,-0.04983584440196137,-0.030220321297982,0.1484375
0.08923990790797105,-0.7763828915780685,-0.5664681721127569,2.6171499921113948,0.10651645430741657,0.07185449650057113,0.06747640220977079,-0.4960005535032311,-1.246610904786191,0.04845277731495902,0.1723267341850806,0.0256622439806645,-0.06592379999756304,-0.04011332746971617,0.15625
0.10068512956553025,-0.8757544359193854,-0.6383589940566786,2.947342737953933,0.11991224410836313,0.08129412989635278,0.07593267205688621,-0.5587451956514425,-1.406164205736084,0.054584055483745654,0.19426540369821574,0.02892582568825646,-0.07432033117887143,-0.04530953284883161,0.1640625
0.06649993277217754,-0.5783314808274621,-0.4211229716980417,1.945576716574307,0.07950952753488678,0.05332126289084445,0.050253887376802406,-0.3697829965588334,-0.9303337143268803,0.036000708396422484,0.12873499128189586,0.019128920693817955,-0.04904091309806106,-0.02979020576544458,0.171875
-0.015817146040002377,0.13520644961737013,0.09960315418456973,-0.45382430615034286,-0.017604796620721033,-0.014072312095516834,-0.011237692559798453,0.08436176754902787,0.21561860384036471,-0.008473470852992398,-0.02896082117696595,-0.004421924140758967,0.011630346318713795,0.00750672368832726,0.1796875
-0.06942283665438338,0.5981907041211785,0.43770397356542423,-2.0133086596381085,-0.08082998310244902,-0.05786033469876782,-0.05117412694200564,0.3800979040078428,0.9612144338427951,-0.03732353650400742,-0.13154818910241414,-0.019744275310313582,0.05107296099953774,0.03174088966328161,0.1875
-0.0474950841286655,0.4069209401786401,0.2982637639986607,-1.3739041486814711,-0.05496747540298955,-0.03974999854261367,-0.03475046299628676,0.2594622251579291,0.6548723076927652,-0.025427357113854545,-0.08942727489061306,-0.013459916972431698,0.0348789728921959,0.021758082959146764,0.1953125
-0.008701941792171541,0.070822618869214,0.05280036122405663,-0.24498221859376768,-0.009222215739337588,-0.00791437257717546,-0.005799753058120994,0.045801789891734036,0.11461899096638323,-0.004517374138013379,-0.015087278082551126,-0.002361956667902174,0.006293366627438585,0.004182402909879047,0.203125
-0.012430815616776444,0.10328445293964923,0.07647210520798454,-0.3548290838516294,-0.013654842025170623,-0.01099893641303362,-0.00859029215680167,0.06631504474932588,0.16759701770423163,-0.00655191992057536,-0.022241752027154647,-0.00344228869905243,0.009044056849694606,0.005901802496456281,0.2109375
-0.04137235085654393,0.35389755977559717,0.2598733394684819,-1.199305136973782,-0.04777878285113465,-0.034738083693745044,-0.03021353271203977,0.2255663890293755,0.5711953838331988,-0.022142896213372808,-0.07762447505513166,-0.01174513100891614,0.030377957683252542,0.01903247418960333,0.21875
-0.06634593826612323,0.5707770659850625,0.41854938481413995,-1.9265681593084885,-0.0770638673929457,-0.05520345294698748,-0.048907741409864494,0.3628192110608439,0.9178002050131661,-0.03560461753563957,-0.12536574552486537,-0.018900452672423153,0.048767601322904884,0.030328372840255195,0.2265625
-0.06950645927578288,0.5989715988006032,0.4386212964212685,-2.014009261751397,-0.08059327608742509,-0.05783688129662105,-0.05125311423125978,0.37986601401233566,0.9605889256440507,-0.037321713619999385,-0.1314441049520503,-0.019780321808286972,0.051028794663038966,0.03172667588075228,0.234375
-0.012287681417083415,0.10304452555777575,0.07556375500338532,-0.34164204772487017,-0.01317722076538731,-0.01106890832946929,-0.008408674041378737,0.06430824993819627,0.165001133699485,-0.006427268656685229,-0.02203708363636067,-0.0033688745056812794,0.008822873273316904,0.005811951259942195,0.2421875
0.08716072206073806,-0.7592186457398202,-0.554408465048349,2.55544669033594,0.10385665717779705,0.07032303028173459,0.06593410121692099,-0.48377409652851533,-1.217634908556511,0.0472844393244371,0.16829022225765888,0.025097593518620707,-0.06438707565922586,-0.039191793025024395,0.25
0.11273778993898424,-0.9805474072439876,-0.7156953432002784,3.2971069002877647,0.1340159134680826,0.09131676450085413,0.0849956088549666,-0.6246629781395476,-1.5741638754294711,0.061114971358473706,0.21733983223044948,0.03239901865894527,-0.08315878264785526,-0.05076338901958031,0.2578125
0.029516287700983794,-0.2590294885208028,-0.18855902036045294,0.873213442866788,0.036143597946399424,0.023218939959476388,0.02281349531596567,-0.16602325142163843,-0.41740499869531333,0.016213472839785976,0.05807108191182297,0.008583183660060159,-0.021903386857569946,-0.013104528919244601,0.265625
-0.027669074740558727,0.23581439556895115,0.1727719849945498,-0.7890270358406707,-0.031218812362031105,-0.023667856074480235,-0.01985299491322346,0.14911824722280437,0.37922617599806846,-0.014651391240768825,-0.05150697817393807,-0.007761673556967643,0.020123992109003744,0.012783005689939099,0.2734375
0.010453959619341997,-0.09523870181593162,-0.06879741221042478,0.3210458754725502,0.013496741641557152,0.0074388260538201315,0.00860939765839643,-0.0608379812836994,-0.14920269557735222,0.0058787361790356195,0.02135712007413035,0.0031459501779325747,-0.007939466916108829,-0.004443850027145802,0.28125
0.02242437636115288,-0.1983863172119585,-0.14355994058182453,0.6643560847898792,0.027485761424069294,0.01722697743517009,0.01744000206051705,-0.1265162805164985,-0.3158343806500042,0.012273752304802791,0.0442735905280034,0.0065376547273998335,-0.016653480571876548,-0.009839743464627041,0.2890625
-0.044034774238639426,0.37848741458101487,0.2781767895437045,-1.2758417999968712,-0.050764676636258305,-0.03710743451777354,-0.03227706824934375,0.2400180213737938,0.6072219204232818,-0.023622772996780984,-0.08292730540733867,-0.01250935425234197,0.03234916253904371,0.02023787591597797,0.296875
-0.04729371290298082,0.4069123044621142,0.2988900380064198,-1.37135342802322,-0.05461857610380346,-0.03972400240279178,-0.034699256208338254,0.25808163462302075,0.6524215537579543,-0.025385561081816707,-0.08920203663591161,-0.0134452645225878,0.03474832229638004,0.02170598708264446,0.3046875
0.05101351306742979,-0.4451215374678259,-0.32377112920936535,1.4929125592131993,0.061110689282466935,0.04076190029928065,0.03875078730937762,-0.28383580724290247,-0.7141450043493618,0.027655491603578213,0.09902157598933183,0.01469256223081928,-0.037643817137180305,-0.022784063942543436,0.3125
0.06617528333882629,-0.5765222466500921,-0.42020736019986576,1.9352271325705193,0.07903621851972382,0.05321664277466767,0.050085751593268904,-0.3676990866736613,-0.925220628487505,0.03585891339715434,0.12823751050870358,0.019036992421163433,-0.048809708911848056,-0.02964279138744943,0.3203125
-0.06296322656080376,0.5421691608323664,0.39646610757058665,-1.8254660500962019,-0.07292659108035968,-0.052399352289518475,-0.046329199883591216,0.34379746997254873,0.8698900858288532,-0.03374773013190949,-0.11878470011161239,-0.017905971211007742,0.0462646693859514,0.028798968624578706,0.328125
-0.12848013348998244,1.1092772225068042,0.8105707947324551,-3.7334620491054293,-0.15011487956082975,-0.10596616675511375,-0.09522862492801876,0.7050035643264825,1.7807029832586585,-0.06905127689380162,-0.2441887219273852,-0.03664409085640459,0.09451742705454837,0.05843998861536843,0.3359375
-0.022248029127497147,0.18843130943652361,0.13827043199554384,-0.6387166746421269,-0.025165832377338125,-0.019045013689338794,-0.015899225602908698,0.11987428535782246,0.30347102795983627,-0.011778851179219355,-0.040917923934295386,-0.006245398143075201,0.01632542949452028,0.010339301767907353,0.34375
0.07308186821695221,-0.6379366591491943,-0.4649119198640585,2.140895443744022,0.0870248840389989,0.05888432317312979,0.05529860157392682,-0.40533608755505995,-1.0221886943020149,0.03959555209352326,0.14150904117477545,0.02103692739928281,-0.05390924421645115,-0.032840290519455966,0.3515625
0.030317571429612458,-0.26794135138605446,-0.19453248870268142,0.8997035689245166,0.03672393859302218,0.023797502859000418,0.023416304197866267,-0.16977082974962138,-0.4274825713370083,0.016544037215740715,0.059585620836920025,0.00881858810664724,-0.022531750858206533,-0.013516178896820306,0.359375
-0.004462777977855833,0.0337181982577725,0.025624966398834423,-0.11227007381585018,-0.0041563442210951216,-0.004686210059392791,-0.0025306189547604856,0.021729116194597862,0.056039882268058325,-0.0021762586153228915,-0.007109502553519301,-0.001119825325646292,0.003033444731572625,0.0022226910487421576,0.3671875
0.07514297036455643,-0.6545003554472004,-0.4772134119085336,2.2024632986593393,0.08963124604779586,0.060498378527680474,0.05685633739949851,-0.4170635441990199,-1.0511636108634652,0.040738451419989594,0.1451744337493885,0.021646940923692192,-0.05551317401067739,-0.03377278743539264,0.375
0.10676412128649572,-0.9273784929582856,-0.6763769303878135,3.1188530355600412,0.126934304752653,0.08638333898584709,0.08039534248038258,-0.5914318236487244,-1.4902131440294126,0.05773540160707107,0.205701616135318,0.03067018734456222,-0.07874526925980346,-0.04802565994862231,0.3828125
-0.03654393015882839,0.3140318430781934,0.23064686343204951,-1.0567943222909757,-0.041698865787570025,-0.030962943806191322,-0.0266363587516415,0.19806628163207357,0.5042208502391583,-0.01956049726893496,-0.0685676593233729,-0.01035139019204024,0.026738025231804963,0.01689582558862639,0.390625
-0.16793744041692843,1.4523526960054403,1.062011461014277,-4.88361038891901,-0.19631280814568514,-0.1385586051761287,-0.12475107539985247,0.9218987688344198,2.3320268898971177,-0.09037834969881073,-0.32005836406511917,-0.047952577133616364,0.12347429069920543,0.07639630830543327,0.3984375
-0.07949823484758387,0.6868690330621491,0.5023371853344211,-2.307550041711828,-0.09218569758977231,-0.06615699029884815,-0.058716709736558945,0.4345456555746893,1.1009265180249692,-0.0426542839309404,-0.15077654610126942,-0.02264246758533677,0.058435450337532044,0.03635280477462711,0.40625
0.08435018022849557,-0.7330446645520597,-0.5351988445997671,2.4663864596097707,0.10061042075324182,0.06802132738829247,0.06368225966955063,-0.46813166364477926,-1.178937073854516,0.04572044339526158,0.1628911065694836,0.02425969288185137,-0.0621734255517394,-0.03785784777733688,0.4140625
0.055883315718141535,-0.488656180920467,-0.3563877166848087,1.641357352708325,0.06695798762524732,0.04477556021407668,0.042537208172465764,-0.31105615664157704,-0.782935996447983,0.030404399962933502,0.10849522707202369,0.016136376933890716,-0.04131821138111001,-0.02503211895335163,0.421875
-0.09952692776687937,0.85614638117464,0.6264944375212056,-2.8819903067267534,-0.11608267907469616,-0.08240525225893634,-0.07344537677202753,0.5454855947818605,1.378866276198376,-0.05337680009601979,-0.18889983334206595,-0.028334383294300575,0.07301509337650694,0.04526879350955461,0.4296875
-0.1074257170980167,0.9252794783745278,0.6770544890337629,-3.113037882716495,-0.12541741966672754,-0.08883160140598008,-0.07937890792514674,0.5892271023074366,1.488467682569654,-0.05766636848429816,-0.20399649059362074,-0.03061828168003008,0.07889477942556898,0.04883475743721522,0.4375
0.03768267373767147,-0.33073865831585686,-0.2408145740360952,1.1102652269181736,0.04536850305753319,0.02999652140700679,0.02891348391028104,-0.21021069107252016,-0.5300313590237041,0.020532685969803104,0.07376503622593956,0.010891812429545908,-0.027830488895799626,-0.016830601654008272,0.4453125
0.1055562238632348,-0.9190609601046079,-0.6706192064603695,3.0851769048489315,0.1252312066252296,0.08555298944429415,0.07954971293011687,-0.5842140164264943,-1.4738784622325447,0.05711008238550086,0.20368106586857132,0.030325651213900753,-0.0777954445074052,-0.0475362332645717,0.453125
0.06745661507356036,-0.5895299470258776,-0.4293876757139836,1.9741856642104223,0.08034714938630656,0.05429454002304247,0.05103339940715503,-0.3742221306679475,-0.9436979987024298,0.03654268181003627,0.1306615532761883,0.019433369068759313,-0.049781157671591435,-0.030281531217433853,0.4609375
0.08197418339402351,-0.7145062525614908,-0.5202971486808353,2.3951542406001,0.09741563245968733,0.06610900062295894,0.06180864728579343,-0.45406436312008563,-1.1454221935825308,0.044330429162888374,0.15828796156327793,0.023579009128006277,-0.06043344465626275,-0.03683649211627839,0.46875
0.11338779325930054,-0.9851959442683003,-0.7182822149662965,3.309229176515799,0.13446747869647405,0.09181047740264521,0.0852749248624577,-0.6273160636940428,-1.5821926310807928,0.061262796894679845,0.218365883265938,0.03255498145927465,-0.08351396468091754,-0.051028085507372464,0.4765625
0.01042320578541818,-0.09227040861836212,-0.0664670402584732,0.3110829237970149,0.01345891955265001,0.007525264734828368,0.008437401538780413,-0.060523434542189794,-0.15018178969680931,0.005778983410764845,0.021384061903877025,0.003082676583849829,-0.007742439513272035,-0.00439558889805301,0.484375
-0.11925265513982962,1.031485769073665,0.754343649395996,-3.4655814733927515,-0.1390243265047731,-0.09866571623093007,-0.08840115872087274,0.6536083969116128,1.6532678343151845,-0.06413199556166435,-0.22675456740153246,-0.034034685310767206,0.08767712526002638,0.054319005337200243,0.4921875
-0.07467746259599335,0.6452122014143656,0.4723148729450701,-2.1675585598923917,-0.08654722550989859,-0.06221719113909016,-0.05514314672087428,0.40801584696033316,1.0334258111634473,-0.0401144557444478,-0.14145812957599405,-0.021281324591086507,0.054860601810413454,0.03414612369333854,0.5
0.01902522622202313,-0.16734865551696715,-0.12139716355681492,0.5638805959351657,0.02370849069446413,0.01450997782837583,0.014878255657303217,-0.10825186765555246,-0.2697934550525664,0.010436018325249284,0.03791089411158232,0.005557201596376433,-0.014140950486609339,-0.008288011439655034,0.5078125
-0.06922079937217379,0.5959749674821548,0.43580092629179895,-2.0019228193604706,-0.08015636918050796,-0.05767470790049198,-0.05092166180046514,0.3779335780819246,0.9571026215415351,-0.037081161142627855,-0.1309422633429853,-0.01965404430951862,0.05075505597505047,0.03162177786560821,0.515625
-0.20217630724602365,1.7469172210234516,1.276422316561559,-5.872137093715202,-0.23668700401417403,-0.16650497693520813,-0.15016995947590614,1.1107320728140369,2.8060539039931993,-0.10874733520336625,-0.3854780214474629,-0.05767872986224085,0.14860115564928536,0.0917849098445301,0.5234375
-0.10981584281198671,0.9463565348600801,0.6919783872865246,-3.1833850227076286,-0.12809360361931463,-0.0909149895128401,-0.08122567648404956,0.6022140443682589,1.522112809614183,-0.058970452533110534,-0.20880068666010468,-0.03126076134428151,0.080645292953057,0.04997882850194235,0.53125
0.09691588048467696,-0.8446400518229252,-0.6159180329865034,2.8358985132635817,0.1151494670589048,0.07836602358607694,0.07313931034329862,-0.5367839171801584,-1.3524860486667503,0.052491832360421826,0.186916935950167,0.027871116663321868,-0.07151451535693175,-0.043605529759702825,0.5390625
0.13276674916418504,-1.1549226379138333,-0.8425612047494195,3.879409318844548,0.15734492131866024,0.10780984734803668,0.09992333722897746,-0.7344718609741955,-1.8512945433500048,0.07183566742840848,0.2556462429760417,0.03811178261708326,-0.09791961728009518,-0.059854764040814835,0.546875
0.04325923249828627,-0.3793096088405654,-0.27617135436051776,1.2728384167152844,0.05201103917793691,0.0345542417948647,0.033090650990638855,-0.24129905295062004,-0.60700531531116,0.02356956431847837,0.08436379995729863,0.01249551222359686,-0.03203892279050722,-0.01935109797569415,0.5546875
0.04396515048273553,-0.3856134947417115,-0.2807454958812566,1.294451332537113,0.0528643300163196,0.03504793597698129,0.03362139731201247,-0.24511879295455502,-0.617174918158722,0.023939138466541946,0.08572065142124725,0.01270364144151115,-0.032550422710623486,-0.019667141618119586,0.5625
0.09064763574528226,-0.7898468611963647,-0.5758985315846948,2.654083581822847,0.10784549227791224,0.07321687862763851,0.06847618477742877,-0.5023620091662325,-1.2666412478423987,0.04910436910380139,0.1751201618164254,0.026061027934045404,-0.06689561967340571,-0.040789388463108554,0.5703125
0.040161110543461664,-0.3513603084406948,-0.2557050333778983,1.1807148907979514,0.04841576766587621,0.03194330499804667,0.030737629402243376,-0.22412616472893857,-0.5645323751014412,0.0218547170177289,0.07847485589853537,0.011597246044235964,-0.029684223022148785,-0.017918354301485813,0.578125
-0.010741959365467142,0.09063428966565173,0.06703329516320712,-0.30544182802272696,-0.011540962355179691,-0.009697858781612176,-0.007329936954820863,0.056502616786510154,0.14368059313820972,-0.005631243387583146,-0.01907290538746441,-0.002984355214509632,0.007842543627957027,0.005151189339970663,0.5859375
0.05412402852400131,-0.471478799938868,-0.343269044598723,1.5829831275447062,0.06481120519773984,0.043315139102409854,0.041060961078782356,-0.30096255363007807,-0.7582386112393009,0.02934325429018441,0.10500478997578554,0.015583180771830994,-0.03988864060263869,-0.024191625293293703,0.59375
0.0756059501549182,-0.6582076333430589,-0.47925637737062765,2.2088599363573427,0.09011635127337486,0.060815603340553005,0.05705284247155927,-0.4195318290913301,-1.0569372993615673,0.0409472195410344,0.14612805622934416,0.021747523944975138,-0.05570281023704835,-0.03390535012589316,0.6015625
-0.08566170529549483,0.7389434762301677,0.5410918917749924,-2.4896697490991193,-0.09975041923692553,-0.07116288448700281,-0.06340937510879771,0.4690565538538694,1.186355315479614,-0.04602488962018578,-0.16257472681507837,-0.024392755665627184,0.06302527010904362,0.03911354372688399,0.609375
-0.22640336062043595,1.9585873599921257,1.4312938604713532,-6.588898872267714,-0.2654456156272875,-0.18630323838498858,-0.16847145106941858,1.244644787154237,3.144293472118333,-0.12194799482357452,-0.4320091475084653,-0.06466632308300527,0.16661430752344544,0.10283207027195167,0.6171875
-0.1257516928034174,1.0864239855381028,0.7939514076774402,-3.652898230432204,-0.14689083758872212,-0.10392811245057615,-0.09322132210961184,0.6899327805181867,1.7441237855457001,-0.06766596732853354,-0.23928922357750815,-0.035857770130111606,0.092452888983552,0.057238158494804306,0.625
0.06253505154367267,-0.545281935244529,-0.3975158225504945,1.8348482752556445,0.07481817545555454,0.0501495601190241,0.04741523351996789,-0.34767773201389895,-0.8753988196513454,0.03390262082233429,0.1212305545901425,0.018026143520326277,-0.04618541340174031,-0.028036139346232385,0.6328125
0.08055238986933835,-0.7016609926861846,-0.5112973706825782,2.357587798260188,0.09599621860361714,0.06491639281030714,0.060831167534507694,-0.446891611154598,-1.1260213684387332,0.04364176061359462,0.15575401820236912,0.023172298978395893,-0.05940911048686121,-0.036187470262678885,0.640625
-0.012872388694443208,0.10747975436773448,0.07978169599059388,-0.36583213448847607,-0.01397382606960813,-0.011517069259183279,-0.00893263681232497,0.0678242399809607,0.17391676219357147,-0.006723102901444395,-0.023067910876043787,-0.0035712925423218057,0.00936052732409563,0.0061286556280828125,0.6484375
-0.016284223751550194,0.13659848948126396,0.10083329652400987,-0.46042027901362953,-0.017857588790350248,-0.01432507649944711,-0.01138296992472928,0.08628062613114847,0.22114917463395567,-0.008538298961101259,-0.02952373008124051,-0.00453363598055089,0.01175298265559798,0.007642524458439869,0.65625
0.041778705831272994,-0.36681428975615415,-0.267245393813578,1.238622013015661,0.050562469270455844,0.03319668363306933,0.03208722991526651,-0.23373014521244148,-0.587283288054462,0.022792361191344132,0.08165527307331061,0.012113592956767429,-0.03110482058298805,-0.018716671298022392,0.6640625
0.018979981275653254,-0.16946318215906492,-0.12344654362137712,0.5758902123586945,0.02358840826958467,0.014616751813786077,0.01509441408473198,-0.1076384664667594,-0.27017771272676633,0.010502839011049347,0.03789569081376063,0.005607987351390651,-0.01431025591965712,-0.00842598873176791,0.671875
-0.03935179190989456,0.33586699081140947,0.24579318110629647,-1.1293192893763597,-0.04524554799563967,-0.033059586363719355,-0.028520435227645847,0.21417075799754945,0.5421898358568313,-0.02095097690798929,-0.0739120053327111,-0.011101461851018658,0.028722840326962772,0.018027001299944927,0.6796875
-0.006531989176686009,0.051916601406995624,0.03903226677706742,-0.18007276346731246,-0.006608718101665061,-0.006262692116057514,-0.004111623834883205,0.03313681840990507,0.08632871460263383,-0.0032634533809673565,-0.011107169061548995,-0.001750964280472962,0.004640059815140116,0.0032364340553215805,0.6875
0.06671892649472254,-0.5815975638127949,-0.42335251132423535,1.9501337053639325,0.07971520490113819,0.0535724909638432,0.050497212666618434,-0.3708475067562495,-0.9329754006872311,0.036192900790694385,0.12915882294049225,0.019178910761208656,-0.04922865386716562,-0.029884797088483142,0.6953125
0.04986181165194912,-0.43435749878397056,-0.31618450013496385,1.4575009531765737,0.059885714959588596,0.03975692197370674,0.03786654267896134,-0.27791664532409077,-0.6990295707562341,0.02704951096169187,0.09687614599130485,0.014351577704333715,-0.03676424426361579,-0.022234658668857692,0.703125
-0.031230422626214595,0.2685497570567561,0.1968001309347618,-0.9052038810694334,-0.03564042112107464,-0.0265588339898518,-0.022685251866335125,0.1692246251780981,0.42924187319916346,-0.016697545811119003,-0.058394576854950565,-0.008842902473965073,0.022970277483695137,0.014489095291461251,0.7109375
-0.04892980977828553,0.421602578489591,0.3086378861367372,-1.4195925676271164,-0.05651428945746534,-0.041036048456938215,-0.03589503863782381,0.266886975352401,0.6760266195788348,-0.026235514410910397,-0.09225290989563255,-0.013901221548111806,0.0360101602456174,0.02250167128523129,0.71875
0.026375369984002577,-0.23091808188875926,-0.16789839384772837,0.7758263739098727,0.032142879131102725,0.02059067570151721,0.020328174022818692,-0.1480752932712904,-0.3717666743240599,0.014368286526521046,0.051955923776571745,0.0076537383648276735,-0.019424088150463013,-0.011611796210899281,0.7265625
0.10463902385460497,-0.9091921184951817,-0.6634547026321527,3.05632417786262,0.12425046400172236,0.084719900424058,0.07877708641110262,-0.5791983548651117,-1.461547318056935,0.05657672709958387,0.201798215683349,0.03006222360937294,-0.077043707589346,-0.0470834238335116,0.734375
0.09163288872195881,-0.7977991134540454,-0.5818224946482712,2.67824532577392,0.10885370633426311,0.07415609517761397,0.0691185551058177,-0.5073287916715652,-1.2812394179386675,0.04961474074558555,0.17692751250037253,0.02634995764007983,-0.06750792504716467,-0.04124019748061242,0.7421875
-0.017776539624127133,0.14840293246454878,0.1100775347122372,-0.506058378952737,-0.019988875534371165,-0.015446096002516656,-0.012525381523964112,0.09547369611881192,0.24115672461758014,-0.00933051991104186,-0.032452756605492586,-0.004959397914913987,0.012961793351738428,0.008264270438838109,0.75
-0.12155346252081511,1.047287675708709,0.7669442902041506,-3.5261269735769964,-0.14205901894342218,-0.10051496917785191,-0.0900366438368678,0.6669529383490038,1.6852720530983232,-0.06531863438583435,-0.23108752044290964,-0.03465394779626947,0.08928874680425689,0.05524931093734099,0.7578125
-0.12200430393135078,1.0525615387327945,0.7701542552173621,-3.5390496199071486,-0.14241680636517293,-0.10091322465030311,-0.09044195807663497,0.6691446504989323,1.691386963207016,-0.06564185286962844,-0.23199922888733254,-0.03477087291904587,0.08958271939484741,0.05547389114366742,0.765625
-0.06323995424034078,0.5443824756527439,0.3982383668716887,-1.828371079312672,-0.07312938272260112,-0.05274715475586479,-0.04656182322479696,0.34520844591884625,0.8738517116853827,-0.03396541316885646,-0.11952352563137392,-0.01795026723077246,0.0463071196547569,0.02888806307453358,0.7734375
-0.04405441946947481,0.3778328385176555,0.27648378677655683,-1.2690518037030605,-0.05050816791165182,-0.03703410329388491,-0.03213681046120012,0.23927918626859285,0.6076439919183504,-0.023535734246316175,-0.08273176045164737,-0.012471915258540666,0.03217950083013389,0.02022190172542255,0.78125
-0.030687503032967304,0.2618874627327691,0.1919062195058023,-0.8793801804430346,-0.0347564030987844,-0.026174618011975754,-0.02208493918159674,0.1653803073262553,0.42251804356393496,-0.016264403620115917,-0.057161212865654135,-0.008657266771173391,0.022366643035189253,0.014205820100037351,0.7890625
0.05030559939400458,-0.4388956727918406,-0.32007904912371254,1.4768287454456013,0.06054089746001629,0.040062355588866505,0.03834698844592333,-0.2808114865928792,-0.7038730641937956,0.027379058292489634,0.09768035678712392,0.014519046444462929,-0.03718898362475315,-0.022422040726917943,0.796875
0.11101360355292783,-0.9641325626728487,-0.703702861964391,3.241269040333816,0.13188350763521833,0.08977731697848962,0.08360482399864684,-0.6149665889908006,-1.5484220549564953,0.060066100462605555,0.21373750621965884,0.031882662853221146,-0.08182299554354966,-0.049896842316923526,0.8046875
0.05393004382206155,-0.4700450333704937,-0.3423792230975512,1.579080958602202,0.06465151678792165,0.043110673688039086,0.04098512360719684,-0.3003349466484128,-0.7547777287728553,0.029297674288843712,0.10460312318122364,0.015529628510681107,-0.03982060847462989,-0.024093904032431696,0.8125
-0.0013185717559864782,0.007780693668578906,0.006959312286573363,-0.025624015843728108,-0.00025807360044694303,-0.0020492727873926584,-0.0002313746126977616,0.003919587599250243,0.012482058763910293,-0.00046213144451867085,-0.0009004116857631929,-0.00027664817996077333,0.0007773604052816764,0.0008489583574074076,0.8203125
0.05674016299189034,-0.495581479782902,-0.36092281999195197,1.6681869859470537,0.06814030619650953,0.04554803675537657,0.04311435853033105,-0.31583331157142736,-0.7965552945593163,0.03083267780894276,0.11027252386512285,0.01637097578013279,-0.041988934847300693,-0.025485604261714662,0.828125
0.07610986256241564,-0.6636295367120111,-0.48402805036559976,2.2300936806350107,0.09071316897561392,0.06145698587772094,0.05755838015769084,-0.42195720719165103,-1.0656961687334034,0.04124430152292679,0.14719806493562163,0.02193376738440876,-0.05617440026162295,-0.03424345837829852,0.8359375
-0.05656716351684431,0.48553953654099496,0.3553416325546867,-1.6387955499402138,-0.0657953004190846,-0.047148200614259186,-0.041493861363926174,0.3095879407919536,0.7819517256288773,-0.030313625096389143,-0.10683967947477127,-0.016056747184776413,0.04160909464636798,0.02588278440215723,0.84375
-0.1319532363037026,1.138811894106469,0.8326671940360401,-3.836939510669819,-0.15465241009443004,-0.10889279671323515,-0.09777056391847914,0.7250606276821159,1.831923418818016,-0.0709764223405954,-0.2511224693119123,-0.03765984909269874,0.09716312422628427,0.06005506326524638,0.8515625
-0.0001401374525545921,-0.0026055116603488746,-0.0010408226881782855,0.0029042856391321738,0.0006317665857559307,-0.0010354667915597668,0.0006135495746723929,-0.001301615614529242,-0.0025908513212949346,7.704852349680917e-05,0.0011154859865577164,6.703614314407992e-05,0.00010278096412338566,0.00036506672169861747,0.859375
0.09971518735538952,-0.8674300833251433,-0.6326569400326668,2.9130805100112,0.1183845778147436,0.08064956772970787,0.07510312462990418,-0.5517491476324599,-1.3932651372057505,0.053910038909572126,0.1921759068456242,0.02866560287193599,-0.0734786350209471,-0.04487693113455022,0.8671875
-0.022153617235892868,0.18834591164755354,0.13888556878855923,-0.6353028894307001,-0.02485159876672156,-0.01917440144921908,-0.01595105789473851,0.11912760711863009,0.3016390463758435,-0.011800413040266968,-0.040946418536045866,-0.006213748785512133,0.016165997793399414,0.010295561012797562,0.875
-0.12329755629387217,1.0646850155527878,0.779297142985149,-3.5806256123791944,-0.14375474112005046,-0.1020024301847538,-0.09148392294919747,0.675797998646759,1.7093227074000918,-0.06633529596269118,-0.23429583459393954,-0.035180152641060294,0.09058286259202177,0.056109010475649125,0.8828125
0.013882660469396492,-0.1236865127461517,-0.0889261414084169,0.415753775352456,0.017724662891427795,0.010307715839252293,0.010999443007957386,-0.08014252571143614,-0.19843677417960037,0.007658993077652217,0.028288925287499097,0.00407963161207985,-0.010419959963920339,-0.005992255435573216,0.890625
0.15216411108045907,-1.3217461227265008,-0.9644885180284087,4.444424496077873,0.18043098616788944,0.12353747665189643,0.11433725958364573,-0.8418238108989818,-2.1221213468338274,0.08228332801523132,0.2927641159903674,0.04367617151633193,-0.11222570771208935,-0.06860982471345305,0.8984375
0.038275952676038456,-0.33488097568153813,-0.2437993347039785,1.1274091506599253,0.04639556310005988,0.030339392942928603,0.029340684049802435,-0.21430888291098363,-0.5381077371724718,0.020919510644507738,0.0746988647461559,0.011086314309674496,-0.028379332408227674,-0.017049884949254985,0.90625
-0.12465383957163963,1.0770812807171246,0.7877252097922796,-3.6197104184263633,-0.14537698814671976,-0.10300448122667394,-0.0923365246569407,0.6833521233162495,1.7285483652033333,-0.06695070270744467,-0.23705314255968482,-0.035567700157507855,0.09160955900351074,0.056730115573088366,0.9140625
-0.05400348982433976,0.464792962522118,0.3404510457001792,-1.5636575007320541,-0.06239998802809293,-0.045160842796704494,-0.03958828795680044,0.29439864335534177,0.7466166052215761,-0.028891266083607387,-0.10183679188136308,-0.015362153154854702,0.03966465554761316,0.0247604565213844,0.921875
0.10911471717489868,-0.9493139847811622,-0.6929926691300676,3.1885912439680317,0.12939874274726584,0.08833076375131774,0.08227024550539765,-0.6040012012802036,-1.521741251719319,0.05907025643537483,0.21019460372797424,0.03134888975016382,-0.08040796880899335,-0.049086173688337925,0.9296875
0.06668226322085148,-0.5822479086354297,-0.4253911051523465,1.9571070599699711,0.07953520872798743,0.053548056851917866,0.05064787107646133,-0.3703775075375147,-0.9321552844343794,0.036212259331334436,0.12892590912992952,0.01925005449961343,-0.04924389648125798,-0.029895979078980332,0.9375
-0.1316645274526819,1.1363030172856103,0.8301425228907175,-3.8170258582389573,-0.15370510877614996,-0.1088134576261104,-0.09748020619580398,0.7221452629428298,1.8253489805192495,-0.07076182925532448,-0.2505243919402431,-0.037502294816815475,0.09669605950730117,0.059863519726911146,0.9453125
-0.19860989513078714,1.7161836315427437,1.2546361234426082,-5.769137292539456,-0.23251450483515584,-0.16356628820272331,-0.14755867641550371,1.091161745303875,2.756209463278703,-0.10691159039252546,-0.37849481061794155,-0.056691635251069405,0.1459755531479331,0.09014789226215908,0.953125
-0.05532336109275984,0.47424702222134313,0.3481184903358816,-1.6001347765616754,-0.06406919762954857,-0.046250728020845636,-0.04063019072325049,0.3020552582985788,0.7645040948938137,-0.029670089284832904,-0.10428924672233462,-0.01572008431075433,0.04053424784776798,0.025293627639129884,0.9609375
0.1038774169346645,-0.9048564424585205,-0.6594406451651216,3.035216736029194,0.12323832755692792,0.08404725078158434,0.07824184065424766,-0.5750892563181131,-1.4487955894154283,0.056182877810091424,0.20030073982934873,0.02983319833200978,-0.0766289927973743,-0.04674869427260793,0.96875
0.11926672358374611,-1.036975032391264,-0.7563677794553254,3.483147279569899,0.1414235817885254,0.09664174683286325,0.08972437712580253,-0.6599276444446766,-1.6634908887556645,0.06447267842955988,0.2297141545107005,0.03424411440896148,-0.08790871861524631,-0.05370197413715435,0.9765625
0.052995443231981625,-0.4616809062344133,-0.3361166959088173,1.5495905556629541,0.06343921373334953,0.04245328837546597,0.04018247624534873,-0.29446290873962344,-0.7431794034143216,0.02871065665720068,0.10288570763099952,0.015271408945562646,-0.03903990139410791,-0.02369954839218505,0.984375
0.05746363279297341,-0.49999856757167405,-0.36401882561193183,1.6761763072434166,0.06870315356756779,0.04618249960639363,0.0434844519615431,-0.318841976444861,-0.8062069895528324,0.03111877999601707,0.11145972790693838,0.01653402879751911,-0.0422802504487208,-0.025720182516325865,0.9921875
0.1391927214908941,-1.2081084080228237,-0.8816274415670097,4.059246824054331,0.1650113685086986,0.11308417840708043,0.10458414465434226,-0.7694920395447644,-1.9430114361732926,0.07522746890374185,0.26791696689740885,0.039923638939056906,-0.10248956738155897,-0.06272724130727964,1.0
0.13521726550208493,-1.174147651335863,-0.8571864915804359,3.9505163529265754,0.16040913946991056,0.1097581589945686,0.10174432496743764,-0.7480387861610927,-1.8870847541591982,0.07313347544343286,0.2603138217278624,0.03880574196480041,-0.0996503699160306,-0.06094972878882438,1.0078125
-0.03607931865360864,0.30876981460161124,0.22620164250627353,-1.0353792714690784,-0.04130067277682035,-0.030520535100994763,-0.026113459650425414,0.19575135584935924,0.4965130163150766,-0.019195193574475453,-0.06757510474018726,-0.010195544869374148,0.026403086794653946,0.016588688029749093,1.015625
-0.20918517590152955,1.8074789124284323,1.3213149613627586,-6.079775687701625,-0.24514098585748434,-0.17222027234902437,-0.15543632261063875,1.1496194094974848,2.904919975361015,-0.11251970660420288,-0.39889940144485453,-0.05972504281995956,0.15383783670534423,0.09497478786886443,1.0234375
-0.19310790189253235,1.6682051639135056,1.2196831567319364,-5.613988336331477,-0.22616340833876067,-0.1590555451984984,-0.14351119027192288,1.0608450394005067,2.68121044095367,-0.10386586107409627,-0.36808443931340407,-0.05512394061096732,0.14201177675581939,0.08771743147747932,1.03125
-0.056272127856725425,0.4833490186078892,0.3542209666025761,-1.6274593572668126,-0.0650186778203418,-0.047100059366071506,-0.04135043079448777,0.30668740269176226,0.7777794312117462,-0.030126910533104956,-0.10617380039160293,-0.015971368361997026,0.041265760611720596,0.02577030667519543,1.0390625
0.004044089337467322,-0.03880240173099872,-0.027139863132255936,0.13122219234873192,0.006014064378480861,0.0022001622891947947,0.003712947223978935,-0.025696165527786738,-0.06094253223892689,0.002352534950707931,0.009226603740018378,0.0012843791755942672,-0.0031801596487456385,-0.0015397658554810512,1.046875
-0.01984881512103563,0.16839366070562573,0.12396647597206749,-0.5646147393240695,-0.022040635635598858,-0.017365386009942325,-0.014113262111094853,0.10583873067635255,0.27142855495953344,-0.010549718241111011,-0.03651304496172105,-0.005548568635194659,0.014358902964778182,0.009286265610131255,1.0546875
0.007874159964223226,-0.0716413147860519,-0.05175864349261053,0.24195914745953895,0.010636787282710353,0.005382094601023251,0.00659687300007544,-0.04701673432206189,-0.1146063797487489,0.004403803069715661,0.016595284261176204,0.0023910824123843273,-0.006053636967435725,-0.0032580655833437866,1.0625
0.08349758695452768,-0.7270970658642525,-0.5305250457703133,2.444448046382807,0.09954007676493293,0.06733292552577824,0.06309773908055817,-0.46344921354715873,-1.1667747746549513,0.0452098996588209,0.16135869318038865,0.024025416221315193,-0.06166992512816999,-0.03751161012069687,1.0703125
0.08109176774207613,-0.7068128200669096,-0.5154115124929912,2.374888783805809,0.09655301435137802,0.06539674102289145,0.061349116054998695,-0.44978864084386483,-1.1333667210036344,0.043965730082848514,0.15673424274124367,0.023323530890448148,-0.059843146341918084,-0.036451394298369987,1.078125
0.00048150895487916403,-0.008434899916619042,-0.005285840389022413,0.026653118122830697,0.001660812915828113,-0.0005272188873460068,0.0011773145645770802,-0.0055164694045630415,-0.012490288901412296,0.0005433881818589408,0.0024536839070783303,0.00025229297895390925,-0.00048226556392569233,3.0153314573002542e-05,1.0859375
-0.03202532896528454,0.27373192053347295,0.2006471531711859,-0.9222842747551624,-0.03657240471169914,-0.027073270577818373,-0.02313286984580027,0.1736299132011527,0.439253329494057,-0.016995371241991426,-0.05975030564553136,-0.009046726149393138,0.02347324600104005,0.014757258648645992,1.09375
0.019464806983171344,-0.1721663943314684,-0.12487029194639754,0.5749052838829121,0.02390876391754241,0.015062305183336936,0.015240570756835423,-0.10967897186122087,-0.27653223482729616,0.010708476894531926,0.03872853698092662,0.005684113061776519,-0.01436701031271443,-0.008536126967479614,1.1015625
0.06434992142538558,-0.5612278196669098,-0.40871684586533874,1.8816362886170772,0.07659939771212046,0.05172632294900642,0.048697542179949,-0.3565725962312097,-0.899934923866333,0.03485129910853963,0.12451342145124132,0.018523455895517897,-0.04736496246678321,-0.0288450379926391,1.109375
0.045277982588545894,-0.39583073908953453,-0.2879241536610371,1.327272578726523,0.054235942801344396,0.036067230890494975,0.034436971337939555,-0.2516918285641135,-0.634439323343762,0.024540357126078206,0.08799380459337036,0.013071445407469715,-0.0333633387346339,-0.020204193416897217,1.1171875
-0.0008021250959593221,0.0037990768669536466,0.0038165000392347175,-0.014282985089098334,0.00020172997232537098,-0.001639726327618379,2.5848519101334672e-05,0.001590074002370941,0.00587743518481048,-0.0003084412296592266,-7.850629310669573e-05,-0.00010676434462029466,0.00047834730810675995,0.0006587449533281498,1.125
-0.026829471301184137,0.22915975194770813,0.16849827915960483,-0.7723226910358619,-0.03038233877249853,-0.022927738888048416,-0.019403701285095602,0.14473457851467803,0.367425948802135,-0.014332323230226058,-0.04979855557998084,-0.007554491105052058,0.019594147892694723,0.012430367366128847,1.1328125
-0.031135232163146922,0.26591965268182277,0.1953340765558485,-0.8960334700923501,-0.03552559790548937,-0.026450682994054047,-0.02257702507015901,0.1686465703800013,0.42738728952685545,-0.016627839136903737,-0.05807916018018278,-0.008784162769632436,0.022757254303867654,0.014356681663079183,1.140625
-0.030687529000209445,0.26196611921016966,0.19209689318640924,-0.8806566535561974,-0.03497337014709436,-0.026069437687605914,-0.02217638906404314,0.16623526514707043,0.421261561923059,-0.016339837401418623,-0.05728063267136876,-0.00864827194933626,0.022423014830547188,0.014144769995713834,1.1484375
-0.026748836163020928,0.22839747579189826,0.16740900503381542,-0.7669615010776064,-0.03019749345825537,-0.022832226782201624,-0.019214946588496602,0.14421891942672355,0.3663696659377514,-0.014166852645362675,-0.04969541413945028,-0.007528872531754172,0.019534029119407353,0.012388138635018888,1.15625
-0.012939410616661293,0.10913834384244016,0.0806077288497274,-0.36827262603259503,-0.01386869544068316,-0.011554180894643898,-0.008936699507628097,0.06782074142973803,0.17422703096585632,-0.006701939843761624,-0.023178133331985918,-0.003601347642607976,0.00939907791250673,0.006173032002428171,1.1640625
-0.0024786469351885027,0.01799857372358421,0.014300651969047644,-0.06310663913301197,-0.0015976995991597513,-0.0030360824062839113,-0.0011213353492638902,0.010139918780425791,0.02881959744859931,-0.0010814523402652967,-0.003126806050770339,-0.0006121211814005577,0.0016787599656728402,0.0014308972741804555,1.171875
-0.015273296767013477,0.12770603664496136,0.09436369565854826,-0.4298728817508086,-0.016713069783401483,-0.013539124740110126,-0.01060393171125486,0.08068741459169508,0.20703593422599692,-0.008006096738795395,-0.02761156213377307,-0.00424605486007207,0.010999994648764043,0.007174650267796453,1.1796875
-0.03416952205066632,0.2908511292406188,0.21349019141037254,-0.9767564579374038,-0.03898373470459382,-0.029031906710621405,-0.024682840737520525,0.18482666098286185,0.4702470672006621,-0.01819816308364113,-0.06378863318188216,-0.009634715025302934,0.02485667913374904,0.01570571696801815,1.1875
-0.021445869639088917,0.18142392045385644,0.13356917952760744,-0.6099210469371193,-0.02404780794756913,-0.018630372398522936,-0.015255246790765726,0.11487496754486758,0.2933687001072014,-0.011335860754288116,-0.03954045288814835,-0.006003377049552185,0.015579233272418808,0.009979046448931697,1.1953125
0.01187417246316383,-0.10609718254183394,-0.0767516256283383,0.3559683689518982,0.015127955123850602,0.008677054357483652,0.009546817818230248,-0.06842727718970329,-0.17049022674675576,0.006612015834404223,0.024080943814666862,0.0035293796124499584,-0.008829548964229003,-0.005070176207511339,1.203125
0.0179675890079734,-0.15903262653478284,-0.11572800451023603,0.5344636641834666,0.02227408734179797,0.013715415268176458,0.01410958608781873,-0.10186928377261038,-0.25532914989569017,0.009877283496848138,0.03573195196226638,0.005292404482913514,-0.01331913555932736,-0.007837690310293199,1.2109375
0.0013150742693792492,-0.015716793430306998,-0.010800338560091508,0.05135333499893847,0.002625261677672264,9.353736942038462e-05,0.0017163225962577363,-0.010187781331484307,-0.022837963191116854,0.0009019472789361382,0.003983476927831362,0.000524114328176141,-0.0011217197255026423,-0.0003126294531743563,1.21875
0.016402115782531642,-0.14615793540258068,-0.10566627904417983,0.48697785497900103,0.020311990221726636,0.012446451388180351,0.01295103546160557,-0.09324913648654591,-0.23206127809066668,0.009043578521997976,0.0328972321577674,0.004800470575598565,-0.01218363336088312,-0.0071207319892300485,1.2265625
0.06629720581540413,-0.5769768858939172,-0.42038900844146926,1.9349761232083318,0.07903183168949073,0.053343140207017366,0.05013088873174255,-0.3678517774434348,-0.9270500303160336,0.035921903826156044,0.12831641709440314,0.01905219849521035,-0.04880339433578151,-0.029692050333119047,1.234375
0.08525188607286087,-0.7408769157686634,-0.5402320678927487,2.4882607317272702,0.10140234325071011,0.06890400692446533,0.06426324445242254,-0.4720753433158326,-1.1922244814034673,0.04610143371585299,0.16460688263789772,0.024495599270660688,-0.06275472968046773,-0.03830735072632854,1.2421875
0.041402980958473314,-0.3623710446544628,-0.2635657017959707,1.2166057896430642,0.049788453324780664,0.03298346625195035,0.03159126496865689,-0.2305122477967631,-0.5824113368797186,0.022447424315411774,0.08079201468022708,0.011971742459772925,-0.030581720973172116,-0.01850463139126605,1.25
-0.013503118750688225,0.11247376774000095,0.08324634367120304,-0.38079743854886416,-0.014933855985098346,-0.011984987969655874,-0.009314050006610688,0.07198189734645857,0.1822426507374415,-0.007130166228922931,-0.024309315388488118,-0.0037458079670337776,0.009789383675062487,0.006347539254829514,1.2578125
-0.027362612673374812,0.2333293146727296,0.17108101213313057,-0.7869290391767928,-0.03125163477048794,-0.02329554341680175,-0.019643903625800013,0.14832570497028835,0.3752226443895806,-0.01456354906356775,-0.05096804726704476,-0.007722234206883126,0.020041214379591794,0.01265063830263064,1.265625
-0.024619136710625877,0.21020382607126517,0.15420887693342625,-0.707871289240465,-0.02780592390411915,-0.02105966189496261,-0.017664964343386668,0.13280344425537727,0.33656609713675906,-0.013044179254812155,-0.04571712918683713,-0.00692742191233431,0.018026359938423286,0.011428874368755103,1.2734375
-0.05782924986406463,0.49723374906019224,0.36452907722152894,-1.6727459246473442,-0.06661751398547476,-0.048352724661100674,-0.042519974018124074,0.3150475156904866,0.7985885909163004,-0.030910603863132595,-0.10912159839529313,-0.016417795931133787,0.04237142027727014,0.026469949787335696,1.28125
-0.1158210800594466,0.9988270673865475,0.7311339869295933,-3.359761078836821,-0.13479282169208137,-0.09589654725500754,-0.08578343600437273,0.6342113526865324,1.6057325167988357,-0.062161886148844304,-0.22003627121813174,-0.033011783278232135,0.08497283481170813,0.052727159356031644,1.2890625
-0.12470149022358869,1.075813243339928,0.7868338774919786,-3.618404206331712,-0.14538728605318021,-0.1031203727367364,-0.09234612626748209,0.6834725573906767,1.7291695011697807,-0.06697669382013091,-0.23709618947455346,-0.0355512723684949,0.0915370523468044,0.056741647544456555,1.296875
-0.038549002202532455,0.329830888011716,0.24162521794103553,-1.1096889148721807,-0.044162234127493476,-0.032546199954299936,-0.028028174423094417,0.2092282881637289,0.5304543254163322,-0.020571879928104955,-0.07224303127752772,-0.01089047271065417,0.028204169183458295,0.017725796848526598,1.3046875
0.09113725484226569,-0.7932323240310191,-0.578493405925437,2.6669699228807837,0.10840499052279061,0.07358790207480037,0.06874662299606016,-0.5052901672102952,-1.2732023740331029,0.049321457974410406,0.175999198538364,0.026215069474842048,-0.06720887649156843,-0.04098532623140452,1.3125
0.1463102156998561,-1.2705446982178132,-0.9271005465072328,4.272970526475266,0.17332924725587856,0.11873114801761336,0.1099388182547234,-0.8093732326804396,-2.0400989589267606,0.07905790797009145,0.28157463543219446,0.04198183613800754,-0.10781413573188126,-0.06595148629984933,1.3203125
0.06617401350317756,-0.5762944824789755,-0.4202033755849255,1.9390809883557771,0.0789747466456136,0.05316647482083979,0.05015566807601626,-0.3676569006298523,-0.925303042654488,0.03585565291939917,0.1281128003276346,0.019042495902441194,-0.04884062034098314,-0.029678606010721833,1.328125
-0.04994365865862034,0.4284873708106679,0.3136989834576718,-1.4403967973806338,-0.05770614430650666,-0.041866425656866026,-0.03650482437004814,0.27230385749230573,0.6897028439520427,-0.02671511634278967,-0.0941641606711105,-0.014161518095472626,0.03658976477067011,0.02286487900326326,1.3359375
-0.03428663613822179,0.29221590635260714,0.21408847848078158,-0.9826085466525206,-0.03919687432793066,-0.029062884850526417,-0.024802823934311262,0.18586194060151437,0.47187580550182406,-0.01823020609055395,-0.0641509337059735,-0.009658480708561066,0.025027939016672135,0.01577523960865202,1.34375
0.10989536396881101,-0.9555678522760974,-0.6976242661279222,3.2130766460345224,0.13057667927650446,0.08898191385055043,0.08282890941166074,-0.6086918001226348,-1.5335822268001362,0.059488330826724015,0.21184426315946342,0.031579343683430516,-0.08105629587856417,-0.04945483871979029,1.3515625
0.17252018873949768,-1.4966869456788678,-1.0927213488109109,5.029676215841366,0.20418590600749384,0.1402906513947358,0.12950515212181318,-0.9533426228399933,-2.404529559219834,0.09317406210704393,0.331662125360595,0.049454322028075724,-0.12703651011343542,-0.07775997057434915,1.359375
0.031254264155978845,-0.2734084463748553,-0.19848806295805702,0.9119883311959962,0.03771977622810644,0.0246564655313362,0.023937714240545308,-0.1744105942441118,-0.4395846505278742,0.016969193823246652,0.06118947793877196,0.009019396757824278,-0.022984117388068066,-0.01381254247660831,1.3671875
-0.15567784338292542,1.3447320724057161,0.9837860982872835,-4.5287664849033336,-0.18234374316650592,-0.12838263186914442,-0.11563473682435892,0.8556192339139034,2.159856736761689,-0.08378008019328746,-0.29662624932466425,-0.04444147866465957,0.11458169030521792,0.07076358249499365,1.375
-0.18649160931360495,1.6114928675959634,1.178426881412222,-5.4219030642983315,-0.2184756252026782,-0.15359567129014204,-0.13858091124592295,1.0250404320025814,2.587463664072577,-0.10036370095169324,-0.35550896548843114,-0.053240262999965586,0.1372088796158266,0.08467701456795504,1.3828125
-0.09729324371190112,0.8388647874861271,0.6141501694675202,-2.8238129408611172,-0.11338093916630895,-0.08057634159661195,-0.07197151445934927,0.5333381259876819,1.3469028707802577,-0.05228470310637331,-0.18466787503583448,-0.027725704225665806,0.07152114195190086,0.04430509265629103,1.390625
-0.037565708458217814,0.320758754154762,0.2358815603358106,-1.083996955266286,-0.04305041703020622,-0.03173271731653122,-0.027385754035598734,0.20407364655285362,0.517371948282446,-0.020056447124475418,-0.07035281286055332,-0.010626999933951076,0.02749290247928756,0.017287017070518374,1.3984375
-0.0072931099733495605,0.05827748676873407,0.043505796243071916,-0.1983320484966764,-0.007326988911997832,-0.006988311664202773,-0.004706195552756902,0.03683286925071686,0.09667936013834841,-0.0036542061871656707,-0.012477864647585407,-0.0019283039103402148,0.005113282631255398,0.0035774354650257006,1.40625
0.07532834736623378,-0.6563352211346541,-0.47935751946375654,2.2104843590269456,0.09001536281748074,0.06067120383562078,0.05707341860949665,-0.41871531580978966,-1.05346662053691,0.040906749355800145,0.1456821015959383,0.021722316558216527,-0.055711906165598984,-0.03383821958632132,1.4140625
0.14683101558061615,-1.274815717534881,-0.9309045819896518,4.289677057459929,0.17407925313707506,0.11922310297823731,0.11041979979887416,-0.8123675300823491,-2.048273969366766,0.07936331147986904,0.28262443410190013,0.04214197353314861,-0.10823530850156954,-0.06619494440083856,1.421875
0.07423491200630933,-0.6463597566117425,-0.47102866706807883,2.172331398495992,0.08847220937474941,0.059766602388195936,0.05611710871627789,-0.41195016996459777,-1.037606368557367,0.04015295224954471,0.14370102406045357,0.021337829555336908,-0.054735432064012025,-0.03331745055994687,1.4296875
-0.07949804461376422,0.6847304071149719,0.5012929692440293,-2.3017377641956434,-0.09238234354354212,-0.06608132875523456,-0.05864722180096036,0.43486074482627923,1.1006425098848933,-0.042681121502558914,-0.15055407940421187,-0.0226330896327726,0.0583319991357519,0.0362480320821364,1.4375
-0.10570796647314654,0.9118555369741407,0.6667295367249451,-3.060850675811999,-0.12298735738073846,-0.0874812227803739,-0.0781232059059318,0.5787991861901868,1.463864399168492,-0.056729171176334824,-0.2006982770792916,-0.030104867043975775,0.07751362308106499,0.04807293050009167,1.4453125
0.01519613502390119,-0.13531341641536215,-0.09803243333518233,0.4578912821534195,0.01930684084196815,0.011501327235174729,0.01213702135002885,-0.08721307343436427,-0.21778252766104678,0.008457826491842403,0.030684109779206593,0.004482245400648338,-0.011433230102427805,-0.006638669323250411,1.453125
0.08172760501812044,-0.7116636271296997,-0.518619036286668,2.389367794255767,0.09733694227536954,0.06588546945732049,0.06170669419396248,-0.4532470609428802,-1.1412191428856044,0.04427362724017436,0.15789553708334167,0.02349160241926433,-0.060254491906965045,-0.036684409656910326,1.4609375
0.03198717347723785,-0.2804763350401278,-0.2038474725934404,0.9384748563957984,0.03863526952823038,0.025113465877280878,0.024532556419785037,-0.17900204429931196,-0.4484934611042674,0.017425552793039138,0.0625890293422767,0.009249316892285865,-0.02357387786310203,-0.014133565770618323,1.46875
0.03609515233618637,-0.3157907837416096,-0.23001666679873917,1.060027212992908,0.04353519081724129,0.028517072291652682,0.02766126197629881,-0.2016909396832774,-0.5070921162654166,0.019646655437332017,0.07044286087662179,0.010438338632625235,-0.026648416390172562,-0.016032197958193897,1.4765625
0.12003336613515336,-1.0433919184145355,-0.7613692989312327,3.5057883856020213,0.1423508393931078,0.09728220600383566,0.0903734474831006,-0.6639849941027498,-1.6757633618479857,0.06491535667940741,0.2310837037811202,0.034474021577475346,-0.08847805460405032,-0.05407120659922259,1.484375
0.06229302920327998,-0.543712505951787,-0.39613849070874013,1.8229194291667667,0.07430210574264513,0.050018560284624695,0.04722789479282368,-0.3456803537763299,-0.8718345253319641,0.03378803660903882,0.12054181052425862,0.01795517408019951,-0.045943463220363266,-0.02791461342742813,1.4921875
-0.16250998129185865,1.4041348030939607,1.026620286588571,-4.7260886903233175,-0.19028787362291874,-0.13399787524040718,-0.12067419636991335,0.8926966904917834,2.255968921503408,-0.08743148303539504,-0.30963587549222826,-0.046388393473796335,0.11958411922195333,0.07389496451473541,1.5
-0.2475566050822346,2.1414673883277597,1.5652711699509743,-7.203795542818653,-0.2902863237520555,-0.20357987665022118,-0.18420123512711178,1.3610301042449597,3.4385744162623193,-0.13331826565304433,-0.4722542457891549,-0.07074354729840529,0.18219022573263446,0.11240053565112157,1.5078125
-0.07292411146029203,0.6282035817971312,0.46018681349525264,-2.1163413276560425,-0.08472316260901795,-0.060628074826378144,-0.05380990055007346,0.3989704804409211,1.0090253844326043,-0.03918184806992243,-0.13799838925956878,-0.020762705578341163,0.05359604596966596,0.03331237530064915,1.515625
0.07810016937384553,-0.6810071678885085,-0.49618567630922805,2.2857464961523233,0.09299447134388195,0.06294465429298642,0.058981071163201504,-0.4330131275919304,-1.0915073995991158,0.042268936025009675,0.15093585100070253,0.022490128749651377,-0.05763984903965664,-0.03508662391084952,1.5234375
0.03630434282439433,-0.3191327319742132,-0.23223906706279354,1.071658280585349,0.04386142624620721,0.02871062705662575,0.027824588537702866,-0.20295166641606074,-0.5102484399865215,0.019783235883305886,0.0709125555933081,0.010551896594441048,-0.026928012086598806,-0.016180398229712484,1.53125
0.004851762695091432,-0.046439728780377755,-0.03310745965127237,0.1560887432213662,0.006957789860760163,0.0030183461329029437,0.004394217715937537,-0.02987492271584532,-0.07349313584618072,0.002864129703164469,0.010836079183468145,0.0015350224724248744,-0.0037984604585292385,-0.0019563989318521183,1.5390625
0.0931981300406877,-0.8118345657909438,-0.591914215023379,2.7280911888732096,0.11095969705091882,0.07539763072372478,0.07038808235793174,-0.5165545102344498,-1.3028793352200498,0.05051265442489908,0.18002808403812587,0.02678917561800302,-0.06882270418739185,-0.04196821241823061,1.546875
0.09655764539279406,-0.8407626088600125,-0.6130907739585303,2.82550434996517,0.11485679621760131,0.0781515594001361,0.07288123441866089,-0.5349513378339801,-1.3495308112695148,0.052310558311746795,0.18644892528625298,0.027744908238500444,-0.07126453477995198,-0.0434897749370183,1.5546875
-0.05329278077836457,0.45835312066843853,0.3353648775168701,-1.5388027501474633,-0.06152419719891474,-0.04455405212466151,-0.03904807704768928,0.2905653329513491,0.735079072654656,-0.0285218478032874,-0.10040676796545275,-0.015127513472065784,0.03908476616676442,0.024373680567181668,1.5625
-0.10736796617135116,0.9277529718718248,0.6778603741716397,-3.1139626511895946,-0.12511126652992235,-0.08887625597320985,-0.0794377352191527,0.5882658078391914,1.487536479737864,-0.057702460911596865,-0.20394859341797972,-0.030598099946208598,0.07891403886497235,0.04888946808299166,1.5703125
0.03488790770694834,-0.3046812456632415,-0.2222953309065588,1.0290593162256017,0.04238794479142965,0.027516313271617833,0.02680862455412767,-0.19574919715609249,-0.4906945944756412,0.01901907451359794,0.06828077655342076,0.010106205980144419,-0.025827048987142342,-0.015488937921959512,1.578125
0.12809285163342263,-1.112941172589591,-0.8122061562204876,3.743390598018435,0.15211485259931898,0.10379024112278125,0.09640710765351657,-0.7093901555037709,-1.7866785160917287,0.06930634002061127,0.24666974300156821,0.03677001222986519,-0.09448478317763254,-0.057685175104121474,1.5859375
0.02404904455091015,-0.21230372605905795,-0.15363879913542955,0.7117786871897744,0.029607137137860163,0.018637338474160017,0.018653952150771078,-0.13595012596091866,-0.33925105657134075,0.01319581715171393,0.047568964117104526,0.006985014409454536,-0.017905525795485943,-0.010595389379941748,1.59375
-0.08562120401756664,0.7375971267474075,0.5407185757384718,-2.4844555074551,-0.09958869226397885,-0.07114597879346655,-0.06331595765223728,0.4686811059295887,1.186526374651106,-0.04598168697604747,-0.16237485467289497,-0.02440449160747126,0.06287051816233954,0.039058718283549974,1.6015625
-0.031059839581166173,0.26520063050211595,0.19553105006414326,-0.8967902344567811,-0.0354803428821368,-0.0265484993203799,-0.022592956256698098,0.16823821112118267,0.42818494721120226,-0.0165803961454516,-0.058101572184535405,-0.008780796953221787,0.022764593486592627,0.014390867035562643,1.609375
0.06281742635764775,-0.5476578511650264,-0.3988448890102887,1.8366874749132516,0.07492565753300005,0.050270099465251954,0.047543499154423394,-0.3489713512414686,-0.8773709350223814,0.0340506480501126,0.12144464002877092,0.018101208529184273,-0.04629534605234064,-0.02808022216776456,1.6171875
0.023720794561588057,-0.20890864709919676,-0.15193088366390686,0.6973333924034857,0.02879128462044704,0.01838043775228543,0.018391762237801437,-0.13318559892517887,-0.33435322479675855,0.012965445962632627,0.04664607077078207,0.006921135868412279,-0.017470846303788232,-0.010399411987998512,1.625
-0.0934622129649181,0.8058147554792331,0.5891183237476585,-2.715374664901263,-0.10922868752886919,-0.07735540091575852,-0.06907232168849162,0.5130334197105142,1.2941690625171496,-0.05024056900017377,-0.17748493022584905,-0.02661402881377576,0.06881536253041089,0.04259307496346205,1.6328125
-0.13030959506575576,1.124564197807397,0.8219349055743184,-3.7860514695675103,-0.15251588576968103,-0.10742769522398302,-0.09653737913108228,0.7160261778805282,1.8058049694856062,-0.07009863215241391,-0.24786714432809806,-0.03715757007675017,0.09589020314958499,0.05922967201473972,1.640625
-0.060436656603755995,0.5191867404888905,0.37971107172492263,-1.7475360908817015,-0.07003580828795695,-0.050272966499374926,-0.044324133545093715,0.3303671907608035,0.8340574359785659,-0.03238797278778542,-0.1140703354025066,-0.017159140113068176,0.04433611549494934,0.027588976788629812,1.6484375
0.027114480777132372,-0.23908045303172676,-0.1740787346369426,0.804030980786799,0.03317853883370729,0.02134723011030458,0.021047706782286763,-0.15246030259027518,-0.3832357357397746,0.014827911517222079,0.053496826190365464,0.007891252745229282,-0.02021053484605199,-0.012045947334878179,1.65625
0.07895860765231445,-0.6880908687765452,-0.501787862742766,2.31366553015815,0.09419912969864584,0.06379243932088348,0.05973603330243274,-0.438007615133749,-1.1041990176166219,0.04277517501577975,0.15270728393122518,0.02271850419611013,-0.05839018374466593,-0.03552580135797544,1.6640625
0.10420804927883692,-0.9068787558105889,-0.6612422981167426,3.0487884872770343,0.12391022876644009,0.08442840663106807,0.07857625675056501,-0.5771540072402273,-1.4553314761105143,0.056424133509750146,0.2010368868825446,0.029941089753231197,-0.0769484005963887,-0.04695260184029454,1.671875
0.10374364457184741,-0.9028805804399528,-0.6580094900008896,3.0346970426833133,0.12343781006660744,0.08391902650749092,0.07819849696590217,-0.5750389563078849,-1.4484422875897425,0.05622349647188007,0.20014644585681732,0.029810111173453092,-0.07658045747197818,-0.04670178341143101,1.6796875
0.060911701209979706,-0.5314512118624041,-0.38663331835726655,1.784375146958877,0.07305321940808907,0.048727135058150205,0.04613830683582287,-0.3393491992230947,-0.8521417007233365,0.033108646733827705,0.1181208742705726,0.01754727155448822,-0.04500516496179848,-0.027252056658257088,1.6875
-0.014620094829121678,0.12375534712774205,0.09160301910572767,-0.4183739317344138,-0.015924174060642334,-0.013134626155169582,-0.010324316761600958,0.07690624894639315,0.1985317502460954,-0.007691149086190894,-0.026493692058822977,-0.00407999243851267,0.010672901902645051,0.006974747408939213,1.6953125
-0.0859948287350305,0.7428010293379292,0.5432117200314144,-2.4950702346540448,-0.09997167521640661,-0.07152628677557561,-0.06358897640147286,0.4702737240593224,1.190755894413954,-0.046195661589510724,-0.16307935211984312,-0.024504296915737973,0.06325435860886827,0.03926378358722904,1.703125
-0.11612777805778776,1.0036048994597755,0.7335026201017866,-3.3668296452375093,-0.13537912623180148,-0.0961599861401033,-0.08600585180574728,0.6363356439453062,1.6090683827981227,-0.062396044992988335,-0.2206930554273791,-0.03310599900496754,0.08539046000873884,0.05284536804365336,1.7109375
-0.08348709470052215,0.7197704565363547,0.5265382468195028,-2.4140531377741152,-0.096963135690178,-0.0694085967243536,-0.061603345779442514,0.45677480418913824,1.1547592827016504,-0.044784097894416355,-0.15822072508811627,-0.02374842342142628,0.0612943797692792,0.038029506665673375,1.71875
-0.009202216935703654,0.0753730006374737,0.056224171159297225,-0.25451843141141417,-0.0096856577707415,-0.008548534406095792,-0.006157863875997575,0.047903951506196724,0.12237487081459628,-0.004785084352878542,-0.016097546889033337,-0.0025007066754840768,0.006603369733886259,0.004418551869295326,1.7265625
0.03719875634683894,-0.3265599667775926,-0.23754785485432955,1.0927538323681718,0.044771744204670755,0.029482576802870215,0.028500152338791794,-0.20762230298034748,-0.5215491784347683,0.02019856800795817,0.07266438041324338,0.010756900449491031,-0.02751682306206461,-0.016539955949339945,1.734375
0.015987418845174756,-0.1422485022945321,-0.10337696471680359,0.4743645620561021,0.019783484370711066,0.012150593856818407,0.01270781565314545,-0.09081033699650234,-0.22592741870512337,0.008791093546480099,0.03200127990626425,0.004684927319273351,-0.011883550472177496,-0.006915764234334711,1.7421875
-0.014617528742591156,0.12298318342643683,0.09039579634052235,-0.41730805958240147,-0.01622218778851517,-0.012863569746610754,-0.010139871757048497,0.07800948739279819,0.19903099640773325,-0.007679275836868679,-0.02668402537657639,-0.0040594127714285,0.01063805843284607,0.006922438208648042,1.75
0.014524290236051687,-0.1302006589609631,-0.09396070877904926,0.42976984275283503,0.018024869974918572,0.011031236483279912,0.011579719663818433,-0.08221033226277244,-0.20706944317859224,0.008020104001598078,0.02904814187184868,0.004285937929221159,-0.010824102637691168,-0.0062950631615317255,1.7578125
0.06127796552271751,-0.5359774497694081,-0.3899959317811003,1.7916907088518128,0.07302181440828197,0.049298980852127625,0.04647114452674669,-0.3398078922702509,-0.8572989684729108,0.033210135849754636,0.11863931630664937,0.01766082271487668,-0.045249102321592814,-0.027470919951924414,1.765625
0.044915543351536615,-0.3939724701992444,-0.28652080042738176,1.3177998452609365,0.05385539870772324,0.03586029352075974,0.03426370007678243,-0.25000954637964207,-0.6296605637895842,0.02440547088050164,0.08746368717903835,0.012977861368546862,-0.03320290279502673,-0.020062858113619814,1.7734375
-0.0009175442410145915,0.004202218155205786,0.0039267668703766665,-0.016042256503956093,4.947590722671273e-05,-0.0016836543192258293,3.319577719742026e-05,0.0022176208554927817,0.007042596420837272,-0.0002742847779883315,-0.00022586092542852419,-0.0001360063642661424,0.0005666724657491925,0.0006894302382427694,1.78125
0.019364223687693354,-0.17055108543522718,-0.1238047849207751,0.5731769645609772,0.024014255895856727,0.014924062721454459,0.015147531533004865,-0.10969466459710743,-0.27600309671366907,0.010668840313933706,0.03857843821294096,0.005660804281508784,-0.014325865819788902,-0.008486931438481414,1.7890625
0.08986034116723934,-0.7810146773277236,-0.5696376520036387,2.6262191242456927,0.10708049273947108,0.07261089643308262,0.06776603664597754,-0.4983988077944229,-1.2567247712503384,0.048660543888734475,0.1735711483795364,0.02582364684799573,-0.06623277073570155,-0.040395902597436896,1.796875
0.09486857429654334,-0.8246631661829771,-0.6015334455797112,2.774960323452216,0.11308523310307453,0.07664790239377443,0.07150842967654902,-0.5263621457337159,-1.3260642705210943,0.05135017347741429,0.18325797196776514,0.027259758321199843,-0.06998726565319345,-0.042667702066929644,1.8046875
-0.015776667433938435,0.13328586613598167,0.09815228426528771,-0.44414673213051553,-0.017135459564507044,-0.013968104436594382,-0.011082178230432714,0.0831936973644649,0.2131847757042118,-0.00828688658041671,-0.028503250037747584,-0.004386548437504379,0.011404211608748658,0.007402182347852811,1.8125
-0.16876308813456828,1.4580251892526026,1.0658230147546792,-4.898171350489468,-0.19733954938543635,-0.13918922354373026,-0.12527584106194062,0.9264228274879248,2.341512651252565,-0.09074418712733047,-0.32138724994372014,-0.04815619254888057,0.1240249714172004,0.07663916198715716,1.8203125
-0.24209337060843705,2.0932160770369186,1.5298867646835281,-7.034479349546928,-0.2837910276485184,-0.19920035732561,-0.1800193215576634,1.33078233291134,3.362279130742757,-0.13028612055124725,-0.4617920826718242,-0.06915148114353163,0.17804933420250632,0.10984073589313241,1.828125
-0.15600734798719781,1.3477403627639573,0.9855593911448364,-4.529672935871109,-0.18248726465224138,-0.12875516858837374,-0.11576540739610598,0.8565121763151948,2.165497480404656,-0.08390383050219016,-0.29703043675980695,-0.04453532469247305,0.1147052926295903,0.07089950299117012,1.8359375
0.03750567802803647,-0.3288662145969323,-0.23892318830528786,1.1040376668696912,0.04533677825786231,0.029630358272253795,0.0287270173233111,-0.20984985740606016,-0.5264039695253214,0.02042015899727799,0.07334193804963911,0.010840378118456387,-0.0277727399916538,-0.016684127565483896,1.84375
0.1589134149096191,-1.3812315391637102,-1.0077753782661485,4.639755203434985,0.18827789694803282,0.12904680904089846,0.11942297973073031,-0.8788534336365231,-2.2159276766240796,0.08589285756852391,0.3056628253058746,0.04560573430284902,-0.11719941862334987,-0.07165469144787384,1.8515625
0.10481144257711612,-0.9123791216340325,-0.6657564724426055,3.064215321732699,0.12457055712532189,0.08481358369985056,0.07902915152401294,-0.5805743151787477,-1.4636640729866368,0.05670712984368392,0.20200202358907088,0.03014387951571972,-0.07737716651890066,-0.047169916874811306,1.859375
0.0011003960926420184,-0.012793352923833658,-0.008850872073560877,0.04114619115695928,0.00236143149495983,-7.80567975706026e-05,0.0015148721694381207,-0.008708997537167916,-0.020282074879809334,0.0007316190012627642,0.0033595948473864805,0.0004551279626320585,-0.0009404363185237299,-0.0001934984946639308,1.8671875
0.010731607630382436,-0.0954741342062662,-0.06896616497433605,0.31752837671118433,0.013507457967282036,0.007781242346896253,0.008643038586802,-0.061371875538471794,-0.15311066336821416,0.005892399274014652,0.021724444948098394,0.003179156257407601,-0.007905730909714137,-0.004514400848215477,1.875
0.08307876133259456,-0.7226262227784999,-0.5268054996238792,2.422986320540198,0.09860335627001794,0.06703305034298469,0.06267753719824484,-0.4599775508193185,-1.1591316209280689,0.04493849834580817,0.16027727915930196,0.0238659874802847,-0.0611162280029483,-0.03725612629837999,1.8828125
0.08043800813935423,-0.7005377559972138,-0.5107537097477076,2.348136841309121,0.09564075382935508,0.06495928538153797,0.060745032442405256,-0.44578450123317365,-1.1232056221262785,0.043580273484588795,0.15538805409357365,0.023126578864936784,-0.059233966201617354,-0.03608874998870573,1.890625
0.02774914461099941,-0.24446915318114235,-0.17770587320859035,0.8170808118112748,0.033807296373764846,0.021882545868436118,0.02142568354666152,-0.1558113751433661,-0.3914952833137375,0.015206454633624392,0.054665664955719825,0.008072054653568302,-0.02054889259088239,-0.012282241924882442,1.8984375
0.018860767232290472,-0.167619040054162,-0.12138106178809661,0.5612140742273194,0.02340281033702372,0.01457786271954526,0.0148259986552545,-0.10691304423927127,-0.2686029018243485,0.01041430975787401,0.037709792441975205,0.0055284799160589615,-0.01407248423766898,-0.0082999851208064,1.90625
0.007491501115051205,-0.06934740507474402,-0.04943597469160039,0.23210954076396945,0.010002330019234737,0.005217138177962697,0.006385796759284849,-0.044241100746527054,-0.11057651578543999,0.004269574225458885,0.01597940614737229,0.002259739119363207,-0.0057225354432202825,-0.0031726865014900666,1.9140625
-0.08418996330233373,0.7248280316049803,0.5305040190925644,-2.4369254750705127,-0.0978828596266262,-0.06985866066562392,-0.06205854524276799,0.4608367906625497,1.1648099253722242,-0.04517945112910606,-0.15949098857426552,-0.023978045946967296,0.06176532526212225,0.03833667644378328,1.921875
-0.17040614100738188,1.4720963817775319,1.076071578279647,-4.9471205668156575,-0.199278136887992,-0.14045685537667463,-0.1264546476830308,0.9356978505440923,2.363913201004458,-0.09166225906777915,-0.3245336684233362,-0.04863573429551908,0.12522685126386326,0.07737674257023185,1.9296875
-0.12809010240010768,1.1061970843901099,0.8087721794867877,-3.714644805004722,-0.1494068132453385,-0.10585983667510629,-0.09488895557948358,0.7024131000415542,1.774961261327096,-0.06882260267183057,-0.2435863417797126,-0.03651890669974613,0.09409000634091992,0.05822437874677212,1.9375
-0.012703215909687742,0.10709667997911448,0.07924249271072642,-0.3566070479990032,-0.013630234474501597,-0.011440694354311201,-0.008808000765921075,0.06674843846725396,0.17009546806312562,-0.006616563607872741,-0.02280026079918624,-0.0035073676857329886,0.009211270244453389,0.0060065107028270245,1.9453125
0.03876468296115879,-0.33889125047480373,-0.24615712718726251,1.1378213520580358,0.04681104793840887,0.03067279160828407,0.02951234784231198,-0.2165444659121744,-0.5449225824530236,0.021065489487124372,0.07564970273021393,0.011209622087433544,-0.028603087919411928,-0.017253998184396414,1.953125
0.028593201388085094,-0.2512865918867314,-0.1819789042501094,0.8394563829304036,0.0347376532258697,0.022321282374712047,0.02190014659562761,-0.16042147074796698,-0.40256055153310827,0.01553143807408378,0.0561947796425239,0.008291760096544044,-0.021112162583634287,-0.012620728721208174,1.9609375
0.05368772944015361,-0.4688473820468153,-0.3412617392622184,1.5728647730817071,0.06433183754244463,0.04284747248170835,0.04076857531854929,-0.29904854140455245,-0.7513781494862344,0.029114819524108444,0.10429174245376789,0.015472574304922885,-0.03965478269735973,-0.02398206689676531,1.96875
0.10415455873785583,-0.9057040233185444,-0.6612911901566075,3.046335463728376,0.12385428296367029,0.08420157839051187,0.07859450607904898,-0.5775066061016179,-1.453279472564958,0.05642292459454847,0.20087173658062182,0.029931379492082546,-0.0768612417986349,-0.04683310818238436,1.9765625
0.0726339610628657,-0.6324968887025586,-0.46247196595659024,2.1294322808228867,0.08676516527461695,0.058470640422248484,0.05508299414966045,-0.40378897220021387,-1.014394612820194,0.03944645645873504,0.14044151740814598,0.02093933545187663,-0.05366120517607418,-0.032555121925038746,1.984375
-0.04625752744677478,0.39700728658310586,0.2898166807114881,-1.333914513941867,-0.053268273519079215,-0.038833298628991174,-0.033743816242709244,0.2516282223883461,0.6396623398406953,-0.024719903414255572,-0.08713755710980245,-0.013081056996046902,0.033864535385718986,0.021262153612306916,1.9921875
-0.11565292803282334,0.9976240238010701,0.7296483716741423,-3.356516608202131,-0.1350584421100231,-0.09565154807277729,-0.08560893390651791,0.6343583590159654,1.6045257527252939,-0.062186007931621066,-0.21987478718647363,-0.03297681002853148,0.0849619836040784,0.05264413578107932,2.0
-0.05105025996139862,0.4378892182418803,0.3215652980436983,-1.478341449025496,-0.05914857158231186,-0.04271557792039732,-0.03743066468991409,0.2789071632025487,0.7050803751257149,-0.02736368116737824,-0.09621233431159903,-0.01452127600888944,0.037482715067333465,0.02336984927908434,2.0078125
0.06373938494118417,-0.5560967261284926,-0.4046590644741506,1.861069017577254,0.07584917340790462,0.05134150782941209,0.04820367562974703,-0.3530708645724031,-0.8924557066753228,0.03451488597201762,0.12339391119364365,0.018338653778716116,-0.046906052720013434,-0.02859422761589814,2.015625
0.1104869760461076,-0.9604293833917152,-0.700420388389004,3.2225499011149097,0.1309318809558077,0.08960340847082066,0.08308866954124078,-0.6107294496492218,-1.5434613711955254,0.059711069037707766,0.21283129878093826,0.03173843374260577,-0.08129442387294,-0.04974951732521145,2.0234375
0.07867988118696845,-0.6846371372701286,-0.4987973711486702,2.3001047020263186,0.09372108957530298,0.0634616302617277,0.059404059845064895,-0.436150176020354,-1.1012758147862365,0.04259853779805458,0.15204132427440725,0.022629368028596157,-0.05798060679715663,-0.03536076092795429,2.03125
0.013257106685074965,-0.11852515525862788,-0.0848047977262643,0.3977427511905677,0.016866641389537723,0.009856334939524699,0.010624575646227185,-0.0761452448023884,-0.1905048650653111,0.007380962771460913,0.026901031582345938,0.0038928483032268963,-0.009938545368896063,-0.0057529823557725315,2.0390625
-0.0604901019664077,0.5193629055804381,0.38103652176596203,-1.7498237373730798,-0.06996249867831944,-0.05046227328118735,-0.044417962243184866,0.33022968027663285,0.836305260073656,-0.03236379560482657,-0.11424173987179648,-0.01719670791921796,0.04430547779928087,0.027643945458884076,2.046875
-0.09659913292435839,0.8320690068847375,0.6086334389331741,-2.8001761080616583,-0.11247312742464395,-0.08000472403037456,-0.0713478310344862,0.5291198066610086,1.3385332373050873,-0.05184308378687671,-0.1833404548581723,-0.027501740765389502,0.07088239783243606,0.044000976494097094,2.0546875
-0.04686292175641907,0.4019975619841726,0.29373942298891803,-1.3476089798513369,-0.053812295231169247,-0.03938040132683141,-0.03413698301179805,0.25464962077356934,0.6459601459097112,-0.02502028774223216,-0.08811202343941596,-0.013260961784940638,0.03424072919608623,0.021475486583348708,2.0625
0.023796378514739137,-0.20964102412810826,-0.15305907863175272,0.7121246756086282,0.02943873322918331,0.018373537295707745,0.01864340371391691,-0.13491826787262848,-0.336832482817641,0.013085572986346663,0.04713095696181874,0.006951392272461871,-0.017796994533316138,-0.01051141606551456,2.0703125
-0.007676804668878857,0.06291356094488113,0.0465118698731753,-0.20898596823438154,-0.007699947199709778,-0.007383568942318288,-0.004975227175238374,0.03875008650959964,0.10183520641244104,-0.003915744963231941,-0.013139194647835438,-0.0020594477151717936,0.005435376958555071,0.0037755560813693724,2.078125
-0.1072990404658791,0.9262105542320433,0.6774424571161368,-3.11666013109476,-0.12512279369196386,-0.08888133020890188,-0.07952099361247764,0.5880378155980754,1.4876193935568043,-0.05768424961460459,-0.20385357040477217,-0.030571742643543936,0.07889894187233504,0.04890771709421394,2.0859375
-0.10547860230211299,0.9110787666247466,0.6663313599386114,-3.0643129647286416,-0.12305669989673683,-0.08735445482086639,-0.07819142703508535,0.5781976611609526,1.4612144440834307,-0.056726802030623295,-0.2004074976391431,-0.030061221524255836,0.07762125908027301,0.048053928933777704,2.09375
0.02491436313907872,-0.2185729647806458,-0.1589089663892554,0.736639592627879,0.030424233642850504,0.019419522614239796,0.019258393480096392,-0.14016501811238025,-0.35295766045910437,0.013592792334284719,0.04915664086320167,0.007242555836023774,-0.018409339176928444,-0.011026449201747111,2.1015625
0.12010356909163451,-1.04385650009313,-0.7615441950697368,3.508032404728377,0.1424466407403474,0.09738221896583196,0.09036915298526828,-0.6645625859316574,-1.6758342914727637,0.06493366498158358,0.2313828440192151,0.03447337664155013,-0.08850577219290082,-0.05410011358156212,2.109375
0.10213679288566482,-0.8883684154661834,-0.6477384455161719,2.978946359783573,0.12123913292257633,0.08268782666682466,0.07690285085530454,-0.5655225431392216,-1.4245756173649378,0.055250364928827456,0.19700297585928314,0.02931949958347797,-0.07521663934507694,-0.04589158780338666,2.1171875
0.078765476049863,-0.6857920577732355,-0.4998076165982353,2.2968603957925393,0.09371154119876356,0.06353840332611867,0.05946731286485703,-0.4367442111857984,-1.0994692401949537,0.04266276605632769,0.15222090988534998,0.022629471989937856,-0.05799101923566133,-0.03529197459618128,2.125
0.1036771521311645,-0.9023581941709675,-0.658092288842503,3.0289851229165476,0.12308654579294541,0.08392152527710092,0.07818525204594695,-0.5740080633376149,-1.4466860678749691,0.05612804330294961,0.19987262477482418,0.029781208211965553,-0.07644009019672932,-0.04663786196042713,2.1328125
0.07142623726195206,-0.6241069188213049,-0.4546830435365528,2.0957084731656157,0.08516392060106516,0.05752895746233096,0.05416066659708174,-0.39629613956831855,-0.9983361602278195,0.038762170502372614,0.1381727115030896,0.020579802472717797,-0.0528072200966293,-0.03210124584621622,2.140625
-0.05900122529052067,0.5058068598358769,0.37081105149287974,-1.703453862606841,-0.06837028629204163,-0.04924269092102106,-0.04328450302760949,0.3223917235330141,0.815743980123867,-0.031574046260944365,-0.11145597061696266,-0.01674016404478677,0.04321743305229105,0.02694162918919185,2.1484375
-0.1570641950553997,1.3564084262415763,0.9918727208041789,-4.560854564678612,-0.18375206347539735,-0.1295445247585867,-0.1165296369612033,0.8626886538212176,2.1789335258640863,-0.08447418335931524,-0.29918600680631835,-0.04481221166359836,0.11543179526876457,0.07134251614640974,2.15625
-0.13387193662596328,1.156237089691738,0.8452581373432558,-3.8829004740192974,-0.15630150785469374,-0.11059270690650262,-0.09915745080800958,0.7346820869839478,1.8552956222621741,-0.07198000172572162,-0.25480447922334737,-0.03817290233400454,0.09830407877955226,0.060824797965654855,2.1640625
-0.06430549782212065,0.5537164320710858,0.4051685996074901,-1.8559433435232744,-0.0743252865540141,-0.053670379605642145,-0.047229007463339065,0.3511134196909415,0.8875106125981257,-0.03447767840330888,-0.12161354636586605,-0.018259710512022888,0.04707316699885968,0.029333579343676672,2.171875
-0.017190229806594442,0.1458412993371991,0.10758852063949899,-0.4888103199063028,-0.018966518107103852,-0.015115196870482673,-0.01217072474505603,0.09150313221482331,0.23283893090138516,-0.009094714408099386,-0.03141648582844166,-0.004792284096452193,0.01250116002962217,0.008052363476346174,2.1796875
0.03695958582872392,-0.3228154301710106,-0.23465817917884868,1.0826343939875926,0.044632163945146866,0.02922079951170524,0.028193178331384582,-0.20670809943690704,-0.5197752394917584,0.02009398487520871,0.07221157590185069,0.010678750744609104,-0.02723436435386089,-0.016411441850031894,2.1875
0.08263404794814948,-0.7185334509703232,-0.5240353837795815,2.4120314943765613,0.09840815101349548,0.06665823181735347,0.062344382423643034,-0.45842135770657644,-1.1548420658051817,0.044751000569817165,0.1596632901063116,0.02374508079653857,-0.06084405035016669,-0.037070304957753084,2.1953125
0.03996728666837556,-0.3495261127733763,-0.25472233969053815,1.1711980852741226,0.04827387263530455,0.03180465201472273,0.03053684726116456,-0.2235137280362479,-0.5611406591738294,0.02177614683326537,0.0780970925907612,0.011550088963186723,-0.029496152275549567,-0.017760458470183496,2.203125
-0.04556979289988291,0.39077367259867934,0.2862109356501698,-1.3184542469823766,-0.05243594715976774,-0.038177270885889576,-0.03332613245177809,0.2478827493412845,0.6286827340620781,-0.02435860075669329,-0.08555236495028792,-0.01291741710112347,0.033417766027101135,0.020935572057948236,2.2109375
-0.02134652545918794,0.18065238677438009,0.13295942147760018,-0.6112395093792363,-0.024033789930197884,-0.018388343447458832,-0.015225418923798641,0.11474192376858823,0.29136969306276445,-0.011331826325886835,-0.03924269664138604,-0.005983201427981513,0.01555956989453031,0.009930768752553184,2.21875
0.10145728651653044,-0.8828227536143449,-0.6439723131465556,2.966555991344967,0.120486672046765,0.08205597455620414,0.0764777252747791,-0.5618238519731769,-1.41686240804529,0.054877486127365316,0.1956785200326202,0.02916295702250076,-0.07483156962147187,-0.04566738631899271,2.2265625
0.12898288691647292,-1.1208678538483978,-0.8180592403719695,3.767888751098344,0.15294946384072172,0.10453673835575389,0.09699784404299916,-0.713749511184634,-1.7987398775295982,0.06973880326261349,0.248318398148155,0.0370402907397556,-0.09506489484595257,-0.05808722135624939,2.234375
0.0009664988989347518,-0.012368657700531843,-0.00821002853409729,0.04025501673368387,0.0022881720606194506,-0.000259698476693665,0.0014149568435055352,-0.008525476097218024,-0.0167777060837001,0.0007341644965460166,0.003373073397667353,0.00039793974852443985,-0.000846148578723096,-0.00011572998781321987,2.2421875
-0.11001972434680198,0.9481110221386279,0.6936472877967582,-3.188776988225358,-0.12840033607415968,-0.09109501680848792,-0.08135765067652499,0.6031984880924922,1.5270576449227065,-0.05908115945683357,-0.20901162386065733,-0.03136688001352042,0.08078747974124256,0.0500838864883732,2.25
-0.08696093338339227,0.7484186012950111,0.5476941662797072,-2.51560514670191,-0.10128146060110611,-0.07218625114588603,-0.06406056304676504,0.47637192983498466,1.2050121653560786,-0.04661967848826713,-0.16498892839245724,-0.02476101931913435,0.06379750907960423,0.03960044785086923,2.2578125
-0.02509024580685568,0.2136201185411183,0.1568324394261758,-0.7169244911809854,-0.028403469747007123,-0.021490518880485785,-0.01791309056380764,0.13550192901173463,0.3431252620800598,-0.01327171746179608,-0.046712505935169894,-0.007051821942512858,0.018309833437904575,0.011599316641789006,2.265625
-0.01664870905011388,0.1412395860207847,0.10414655947152408,-0.4752119192508308,-0.018402649996165144,-0.01456236612340026,-0.01172015684685442,0.08893857003178716,0.22523195490313722,-0.008777340188032128,-0.030562980341183228,-0.004644415597501822,0.0121277293486396,0.0078026049844719635,2.2734375
0.0002985822561133428,-0.005570288801730606,-0.0027723876918299647,0.016951255399682473,0.001579173017256497,-0.0007323626607911735,0.0008671444659092772,-0.00453677347751526,-0.010669141621504435,0.0003144729856395541,0.0019625469288953807,0.0001975055917190501,-0.00036099731282495946,0.00013835913802256675,2.28125
0.06763767800224167,-0.5885982914289094,-0.42874458716692776,1.9772259850577507,0.08085840082549374,0.05435118023363288,0.0511067430785672,-0.37576232091488987,-0.9475906363241832,0.036618612958050946,0.1309178282582396,0.019468382255549796,-0.049902337642125566,-0.03033181338237069,2.2890625
0.07848739412191415,-0.6823643867071668,-0.497422716594969,2.2917255268880368,0.09360527377521748,0.06326830654466507,0.05917281417155144,-0.43560698056133157,-1.0984407253276218,0.042477602560470715,0.15175433514354483,0.022577035880958045,-0.05782757312808459,-0.03522434495106339,2.296875
-0.029058732758780757,0.2480555661058056,0.1824418922444234,-0.8387994563364511,-0.03308132736865742,-0.024700352233130954,-0.021089069331122718,0.15724889341501247,0.3980958007070668,-0.015501922682685765,-0.05398525586848272,-0.00819089424730836,0.02132177312970456,0.013442310822684992,2.3046875
-0.11078303615566266,0.9543661119786324,0.6985338597916776,-3.2139015441813847,-0.1293721319519148,-0.09159148152371836,-0.0819847446577189,0.6078561977780306,1.5355241940356683,-0.05954072577455534,-0.21037631628209558,-0.03156432168015133,0.08139198561683704,0.05039509723787377,2.3125
-0.028853331938446098,0.24488066170018125,0.17981499346789584,-0.8255778154732764,-0.03292923540108263,-0.024569086808501304,-0.02072563992010518,0.1563344085392577,0.3962406738980611,-0.015330534886251407,-0.05366770412501414,-0.008118028449680821,0.021060788289090575,0.01330587461546993,2.3203125
0.09928197107698733,-0.8635572125126922,-0.630372706735508,2.9030609224633217,0.11795968876333682,0.08030372385681209,0.07491688221393217,-0.549997234899023,-1.3859911884668645,0.05377016957051966,0.19148351065854333,0.028529909746809228,-0.07318722474504341,-0.04465523597089031,2.328125
0.07078730254826568,-0.6164003951621321,-0.44979182923684347,2.0708191120034996,0.0844579219500785,0.05699467122992681,0.053595586809333975,-0.3931278702807349,-0.9895601997566081,0.03839953026086871,0.13697052272000643,0.020362257955473535,-0.0521809637379048,-0.031733384316568115,2.3359375
-0.06976075723238598,0.6002181343633985,0.43897943839397957,-2.0192638335836057,-0.08092268196447774,-0.05807290225459109,-0.051300082208239756,0.3811845499772794,0.9656604039285063,-0.03738659584932177,-0.13197654308665993,-0.019844046012617494,0.0511852262913467,0.031874219803776666,2.34375
-0.10038945630367141,0.8655899409969593,0.6325171958398953,-2.9072022275423444,-0.11687596247764397,-0.08321021326788333,-0.07411329601373906,0.5496324693844867,1.39211505634056,-0.05391639177681597,-0.19062709458830987,-0.028592645541910263,0.07362651307912911,0.045731269193408926,2.3515625
0.014925012050113476,-0.13226255272412324,-0.09637164831334304,0.44953395340446606,0.018879387399453853,0.01112806185024797,0.011913814457074092,-0.08595775770788064,-0.21168203253044227,0.008224215482451766,0.030014255504715134,0.004399620759979557,-0.011235556095843537,-0.0064500044401394965,2.359375
0.08324479686738458,-0.7238480390398719,-0.5277693567943457,2.4337237613576224,0.09920866976501659,0.06704089276339951,0.062766937810878,-0.46219878996457037,-1.162495524803808,0.04504187228550717,0.16078281732396338,0.023937377170574623,-0.06141790386185758,-0.03736010682374259,2.3671875
0.016809184084130093,-0.1491618326429457,-0.10730724935308932,0.49635409554420246,0.020991483946766427,0.012678513609214886,0.013095757824533805,-0.09584580126696424,-0.23931446137139653,0.009243465111326035,0.03369726133747644,0.004927627729964836,-0.012473884691590758,-0.007292689493308334,2.375
-0.03511183857792578,0.30008047289530426,0.22088485738757807,-1.013767318554117,-0.040029930367224756,-0.029770277297425294,-0.025601177546957458,0.19038649766904,0.48234028814805563,-0.018716849476762654,-0.06566104609331226,-0.009924889385616302,0.02568818479774974,0.01618433661176673,2.3828125
0.038145141114934666,-0.3345157730770787,-0.24278032103650155,1.1216593997619548,0.04614882526804436,0.030280158963237096,0.029175576077358368,-0.212900065208769,-0.5366333737268115,0.020797628774378015,0.07445822386112518,0.011035564641882167,-0.02825250696008597,-0.01701433172710672,2.390625
0.10968119580825746,-0.9543887882137609,-0.6955138531246107,3.2042888410943826,0.13005542605893222,0.08890864712538385,0.08260605995265267,-0.6063876869286989,-1.5314752927729536,0.059377767047303555,0.21126722730595876,0.03150281366781622,-0.08080546619525221,-0.04942271366306491,2.3984375
0.019487717223235,-0.173315115295075,-0.1251925527508493,0.5765675870249476,0.023644259655716333,0.015099335685126485,0.015298030957140841,-0.10906734833724079,-0.27665486066256245,0.01076237114604815,0.038654621885714065,0.005690244575070379,-0.014303748901842309,-0.008586093432756773,2.40625
-0.15614562328075487,1.3483680863637597,0.9856451124138998,-4.537436994261027,-0.18302490184496373,-0.12866941533366263,-0.1157529707193976,0.8582852896546748,2.166536627265454,-0.0839382208202178,-0.29735151804387083,-0.044575104314916916,0.11496194597882939,0.07094614923902245,2.4140625
-0.1912166425052545,1.6527554524022448,1.2074032408721769,-5.557091264599061,-0.22404723033727947,-0.15737875626338535,-0.14192075104148083,1.0508319293073216,2.6540360276415362,-0.10289307253322363,-0.36433793546623205,-0.05460726068044075,0.14067280632014406,0.08683280945299073,2.421875
-0.02707637450901397,0.23152391116320845,0.16924381044792672,-0.7759889371342967,-0.03061790439758395,-0.023078336960251963,-0.019487948010936475,0.14595034337293442,0.37022406333844665,-0.014464819680940636,-0.050193765551691985,-0.00761537696055907,0.01977453870647431,0.01252503773689981,2.4296875
0.13895948444234094,-1.2062495964274786,-0.8805831879183216,4.060198559103785,0.16494800509654217,0.11269503645390176,0.10435447001062924,-0.7691413844205481,-1.9392260825520182,0.07500985067784346,0.26745332707881425,0.03991311727920038,-0.10248640603158382,-0.06263244691365771,2.4375
0.12675431634598372,-1.1007464025665135,-0.8031258048185759,3.706092390739242,0.15062859065115236,0.10260603982009255,0.0952685508359639,-0.7020310429711027,-1.768408499407397,0.06845103404394974,0.24398451555882786,0.03641364450067218,-0.09357542611805272,-0.05709847700986959,2.4453125
0.010599359385745416,-0.09566969959282519,-0.06888465202024029,0.3235081352224221,0.013858664318661588,0.0075776175650616,0.00866749216082764,-0.062027177373737474,-0.15196906011083813,0.005901018969190861,0.021689448014229545,0.0031656504888851883,-0.00814162253773667,-0.004517760248521919,2.453125
-0.031622138712224496,0.26927663769081944,0.1975138888491501,-0.9087598947640328,-0.03594056088194793,-0.02685450276097298,-0.02281065441711206,0.1707483012088756,0.4350427199487401,-0.016799014603769116,-0.05902400939830225,-0.00891480592161459,0.02297537524571504,0.014599102204051648,2.4609375
0.0013638951207463573,-0.01611906539103467,-0.01097103682701092,0.0482425340738595,0.0028054578584183042,0.00019838819209646243,0.001752744478967852,-0.01082113966073059,-0.024083994022123797,0.0009971100269742677,0.004181342264475108,0.0005165310996480033,-0.0011759339404330098,-0.00031016308414844496,2.46875
-0.011852487363950033,0.09889059784571559,0.07337660158988703,-0.33806353940470296,-0.01279153344260759,-0.010670142346158302,-0.008174937261710358,0.06213488810412329,0.16022747375553079,-0.006140925265973564,-0.0210812711506927,-0.003288748088807931,0.008651701365774148,0.005695884177334966,2.4765625
-0.06040804254249601,0.5194172579675955,0.3808281398146989,-1.751396575522485,-0.06996343938752489,-0.05047470735758567,-0.044429296386223865,0.3297143944547502,0.835981679970484,-0.03232451305637278,-0.11398946213569795,-0.017194974387314193,0.04441353678994915,0.027680083340203734,2.484375
-0.03406753230758792,0.29134392052969743,0.21410666745667925,-0.9839418464803261,-0.03898386496611439,-0.02892361009575893,-0.02476000938759525,0.18464834577688796,0.46899370514122063,-0.018137339174185103,-0.06359980537684047,-0.009648658970621083,0.025034946487764734,0.015745778172791717,2.4921875
0.04044196993068866,-0.35349025022559233,-0.25709770517101216,1.1857330413208382,0.048638805398469195,0.032086475693567,0.030856164199002084,-0.22554019159652464,-0.5681746283861122,0.0219977139342402,0.07887871287363353,0.011679917061134493,-0.029774181004460373,-0.018004566909072053,2.5
0.04317900463473877,-0.37721770422032463,-0.27434195489254304,1.2666199034519448,0.05173454756799886,0.03434172124555809,0.03290673849048062,-0.24006822279111034,-0.6061769711425721,0.02344405631801771,0.08395920958484762,0.012464570699946049,-0.03178003392253947,-0.01927504706723408,2.5078125
-0.009377794652586357,0.07719968840962939,0.05759805537670578,-0.2614862416736385,-0.010170742480034032,-0.00867884986480698,-0.006301216653106599,0.049684275402857296,0.1252787628784107,-0.004889757104947956,-0.01667081439735885,-0.0025608287492011527,0.006856957038131875,0.004495554574283232,2.515625
-0.012199975351228092,0.10126415898571653,0.07477202444474458,-0.3418128705227575,-0.013352310136647429,-0.010972723812878995,-0.008372812747129208,0.06471489797136143,0.16425260168355948,-0.006384544273879966,-0.0219602621038335,-0.003346219054606418,0.008862102472182066,0.005773930547228181,2.5234375
0.022204265960945536,-0.19632486015140616,-0.14307135099276697,0.6615234347876927,0.02737873648224172,0.01726198464975194,0.017372841627768542,-0.12554704850261278,-0.31515599520220644,0.012206906850639592,0.044035708631343186,0.006505798106881035,-0.016542072966030493,-0.009807983461469565,2.53125
0.020632346263476944,-0.1824705918112893,-0.13306259460342204,0.6177912225556932,0.025683565003983444,0.016066382492236807,0.01628147249142723,-0.11713850299177997,-0.2937611898884044,0.011395888635065469,0.04108429437972553,0.006048571440705117,-0.015479859624619148,-0.009128944326698894,2.5390625
0.004816748003652231,-0.04561305205039144,-0.03292556255302346,0.15794318116317965,0.0070615050739455155,0.003119704176199697,0.004491819453794143,-0.029843089276976317,-0.07340751229100906,0.0028519738468269235,0.010755143804928757,0.001517837199116849,-0.0038929332321609987,-0.0019824995927581646,2.546875
0.0027695581727743292,-0.027709895405446314,-0.01953442513011292,0.09482686549850404,0.004515603329406249,0.0013304208151606186,0.002850930838709512,-0.018367960385361946,-0.0441397356612186,0.0016711326896418767,0.0067551903052988456,0.000926046364762663,-0.0023225325235393473,-0.0010124937816967578,2.5546875
-0.035672008121805515,0.3056684561985071,0.2244741961699282,-1.0310565202415996,-0.04090651517825951,-0.030240879399446963,-0.02602391489301215,0.1935951679634813,0.49123861340576086,-0.019122934162754082,-0.06681378311528628,-0.010093075996414872,0.026126715126068543,0.01645499090991065,2.5625
-0.08476900265682956,0.7310575452355352,0.5356109352867822,-2.4653379795991954,-0.0987828069746663,-0.07043735250248555,-0.06278330587128339,0.4642592084580822,1.1745194283533307,-0.04559666742704616,-0.1607076640547591,-0.02416286152416936,0.06238738788101124,0.03871895536856488,2.5703125
-0.0291526757221939,0.24922984995542466,0.1835717285065376,-0.8451355708183115,-0.03324391584202174,-0.02487794293713193,-0.021231868197711824,0.15778287784493306,0.4009651625473057,-0.015566848662921707,-0.05422717508029497,-0.008247798926333746,0.021457409994538153,0.013546795924819003,2.578125
0.08227552904243389,-0.7161482731972406,-0.5220232899209148,2.4046241895823597,0.09807598597555776,0.0663358526570112,0.062079347995476576,-0.45648640882252534,-1.1492547450474124,0.044563205368810296,0.15902285913608513,0.02365839093184222,-0.06064860476112796,-0.03691650582905567,2.5859375
0.056190675234859495,-0.4906497783756704,-0.3575209792941626,1.6499447210328642,0.0674576802221168,0.04496716424906853,0.0427106998711429,-0.3130400951325894,-0.7868893706498191,0.030539054552240402,0.10910061973269937,0.016210930636451557,-0.04153679167627277,-0.025146363827993283,2.59375
-0.08261685209182308,0.7115254880723545,0.5207378006507614,-2.3918840963848846,-0.09600246307561301,-0.0686605453325708,-0.06091781321649346,0.45191070983318543,1.1436840525941894,-0.044299433275779086,-0.15658207447575082,-0.023515760438997134,0.0606432820727687,0.03766943739895602,2.6015625
-0.08801037654062886,0.7588041505080098,0.5553637053470767,-2.55303276559188,-0.10250350875260172,-0.07306173439004593,-0.06500883305504904,0.48206795573450306,1.2189248154870886,-0.04723971143500504,-0.16699942063106082,-0.02507969084687555,0.06470901263910454,0.04013028898990359,2.609375
0.07571588669314386,-0.65910039090371,-0.48051610332379846,2.2123619504435807,0.09014120741687631,0.0610007418302461,0.05722868695996885,-0.4198320884703395,-1.0582583798359142,0.04103003511850233,0.14629825477161884,0.021766378766955474,-0.05576445366500194,-0.03396766185910378,2.6171875
0.1635142982950311,-1.4204671667282607,-1.0369572811520953,4.772368250930735,0.19355368141320364,0.13291996082536073,0.12288054978239271,-0.9038478224528829,-2.2796070146455247,0.08840680369006348,0.3144259362796058,0.04691322309942295,-0.12049521622703593,-0.07373564056636199,2.625
0.0661183384296876,-0.5775949580601364,-0.4214946899057855,1.940566247709132,0.07901826427802937,0.05319057169964803,0.05022962858344123,-0.3675541953355794,-0.9250018332867723,0.035906044865307254,0.12811770050492927,0.019068232011672702,-0.048932366885816085,-0.02967639896384436,2.6328125
-0.05697225395699573,0.4893164381936865,0.35784342713948575,-1.6443987267976425,-0.0658386378259626,-0.047634730696539986,-0.041746581317168394,0.310659154071924,0.7870457208763134,-0.03050575633510223,-0.10753564934195889,-0.016153828493090563,0.04168899861353206,0.02605380631927182,2.640625
-0.08868139721985112,0.7651391481724288,0.5595565546130132,-2.571136824085577,-0.10319446568880584,-0.07363998688364773,-0.0655342715515292,0.48561461283233276,1.227767104783418,-0.04763068740577189,-0.16835041109141882,-0.025241767412335813,0.06514513382483536,0.040430088879716886,2.6484375
-0.07906502268496199,0.6817523428310177,0.4989863816880281,-2.2913415878439203,-0.0918989075052118,-0.06574608020715877,-0.05835622900859629,0.43278459024622806,1.0935802044725809,-0.04242073725962162,-0.1499207444472272,-0.02249808518732326,0.05810401902559926,0.03606169983739739,2.65625
-0.06236388594964254,0.5361082233332825,0.39294489844134217,-1.8026716503801798,-0.07226408805741967,-0.052013211252323534,-0.04581780275788705,0.3408378489518874,0.8612837894831954,-0.03340631664600713,-0.11782096427760803,-0.01772341512826229,0.04574838719123198,0.028462292926684334,2.6640625
-0.01403839641299442,0.11717002907179674,0.08717081553499514,-0.3958038886440382,-0.015433330631599324,-0.012400879694386921,-0.009744222082324666,0.07471021600563055,0.18952439577051686,-0.007393355660747495,-0.025272766663810987,-0.003904184070632857,0.0101546181065646,0.006576788319196155,2.671875
0.04305676800540363,-0.3767125691348502,-0.27370740446719216,1.2633220552562507,0.05173387415023325,0.034350113742546706,0.032793403132974845,-0.2398004580894071,-0.6041697612009806,0.023353420917448638,0.08392813689551301,0.012429041701215914,-0.031801480898302745,-0.019232033046843514,2.6796875
0.07150393711749384,-0.622287523031428,-0.4536029552100878,2.0897290024788657,0.08523110694766978,0.05759480154568968,0.053988710281949355,-0.39666926698635596,-0.9993869568908142,0.038698464746190674,0.13826023639689655,0.020575481280829713,-0.05267828824324655,-0.03206174468376181,2.6875
0.0796402375814072,-0.6926731473997283,-0.5053885079873592,2.3279548294465764,0.09484544967880632,0.06421261643284262,0.06012112316898896,-0.44167085063687933,-1.1122932094187168,0.04311223898520836,0.15380016921373332,0.022908765602390416,-0.05869194865789879,-0.035732728669746444,2.6953125
0.05537989675152345,-0.48332123295281465,-0.35228603324681207,1.6233316040429562,0.06634236847894186,0.04438620005611111,0.04208443570339233,-0.30809605223794295,-0.7752914695026895,0.030063359358989093,0.10747933692852288,0.0159642744094596,-0.04090640996026076,-0.024779846991655193,2.703125
-0.02939330803947389,0.2501632065223736,0.18376832742467644,-0.8448620248255774,-0.03336517958821455,-0.024955526078845748,-0.021186590577793516,0.1588242825006311,0.4030914889430252,-0.015610993777281042,-0.05461279270669134,-0.008293582070810919,0.021449347540262682,0.013571927237604475,2.7109375
-0.11469449198641783,0.9891237676596735,0.7233538608341531,-3.329227275232233,-0.1337364205232471,-0.09483423933515552,-0.08488715396554003,0.6285851561273367,1.5896840885137185,-0.06159938069065357,-0.21786264759967802,-0.03269630467142528,0.08424553807555925,0.05220956612756051,2.71875
-0.10867160791685193,0.9376207723138107,0.685388314194714,-3.154143188365482,-0.12669790010074133,-0.09001969973022214,-0.08040322581847863,0.5953289295860573,1.5067252865822134,-0.05838212955854345,-0.2064642064315923,-0.0309673812650399,0.07984321188645443,0.04952331359215859,2.7265625
-0.027916307030111193,0.23844031344758662,0.1747101976684186,-0.8024069334599329,-0.0316631649774223,-0.023934537245474126,-0.02012351398120033,0.1504351915430438,0.3834234722142854,-0.01485362247187544,-0.051948416780460686,-0.007856853450613781,0.020411938112786188,0.01296547914057078,2.734375
0.06153750305902322,-0.5363184616476728,-0.3909907565032239,1.8032309855165685,0.07372178894812824,0.04936228073294374,0.04665067502183873,-0.34248110483379696,-0.8619246915114369,0.033397962409644245,0.11933950409646121,0.017738875685905223,-0.045448671807331066,-0.027565428750897285,2.7421875
0.13872369717027078,-1.2045803065923244,-0.8790254493748227,4.051595969675238,0.16460709840707213,0.11255637055817352,0.1042788121916441,-0.7677073291264492,-1.9359478609015202,0.07501915641582375,0.2670385349126135,0.03981626157626629,-0.10226362178883092,-0.06252627270817136,2.75
0.14022561584512452,-1.2177723148692539,-0.8883362116621775,4.095238271865947,0.16619572928849985,0.1137147500924582,0.1054011198600153,-0.7755178605924345,-1.9558843543468447,0.0758049667409665,0.2697223467753146,0.04023556392477866,-0.10333787085874056,-0.06320483563158555,2.7578125
-0.014284031565994787,0.11933109366676736,0.08904113732191776,-0.4045641717851151,-0.0158747451581634,-0.012792671033747137,-0.009976820665273287,0.07633845645826144,0.19410128793846085,-0.007514828002813217,-0.026079755966036833,-0.003976226520576325,0.010404092760176687,0.006728506576355194,2.765625
-0.1924561459544084,1.6617436233372223,1.2159334792137395,-5.59354758145312,-0.22558376385514245,-0.15858298612662736,-0.14302017956662014,1.0580771694137572,2.6722292044547817,-0.10358160508549814,-0.36694528452530145,-0.054955110463867675,0.14152405448198638,0.08737452804472952,2.7734375
-0.14771632101258458,1.2749604714242375,0.9326075259777634,-4.291901172293866,-0.17280293454732387,-0.12187725021093068,-0.10958970415848696,0.8112603131302036,2.0496948003343114,-0.07947198442419118,-0.28117905895196116,-0.04215740294652032,0.10858771120310025,0.0671472473752694,2.78125
0.047839035260555586,-0.4178114896542316,-0.3049650255282752,1.4026557155273707,0.05740868939686952,0.03827735027105963,0.03648797539896255,-0.26639690327172455,-0.6702974309230733,0.025980282145217,0.09309516665256198,0.013802410191438474,-0.035325497929413,-0.02135360214812527,2.7890625
0.07317914963528657,-0.6375144795529838,-0.46577362115948123,2.144302816088464,0.08724821292468389,0.05908583017830093,0.05547647514490962,-0.40611181750456693,-1.023341082758403,0.03971018636798151,0.14160494391580986,0.021079555933198487,-0.054000296055074684,-0.03286581090349733,2.796875
-0.055372398654083804,0.475398685475683,0.34753263739792234,-1.5949104348135188,-0.06397499662536531,-0.046138638999629715,-0.0404977615267335,0.3019914056118396,0.7635512690685134,-0.029566831127812387,-0.10434831629192655,-0.01568314723365163,0.04055267257471786,0.02526311977453656,2.8046875
0.0001877756416184037,-0.005122347759815954,-0.003115378332449393,0.02052668297243223,0.0014563772848183514,-0.0007391303970440301,0.0008996770412378416,-0.004197777808240456,-0.009487274057421289,0.0003207008945522848,0.0019602007543514195,0.00019800496017644044,-0.0003205368526946146,0.00013348850023429,2.8125
0.21404986328776945,-1.8562885645933742,-1.3552365325444242,6.2404214558248015,0.25311057156897904,0.17421860379809856,0.16045231980094057,-1.1824088572116187,-2.9830549762898375,0.11554617243857743,0.411099191599976,0.06136208064952206,-0.1576126992670838,-0.09657646155341972,2.8203125
0.17703127357627144,-1.5357524617725058,-1.1210305403670144,5.159907212626976,0.20954569870200584,0.1438613347005625,0.13276404147916343,-0.9785121597371782,-2.467281408773355,0.09560127859882223,0.340180458488544,0.050768980499300724,-0.13033367038322458,-0.07977063337495165,2.828125
-0.1285820002904925,1.1100378027210873,0.8118668945383447,-3.733643428286446,-0.15005808347114874,-0.10629970408879418,-0.09535110008236279,0.7051028573239793,1.783283382296987,-0.06911547797037199,-0.24459068435577175,-0.03666279258199735,0.0944857163085816,0.0585105948215626,2.8359375
-0.24787001479307108,2.142409730952424,1.5663254570678224,-7.202933855258563,-0.2904623096637604,-0.20391482339191505,-0.18433510482060214,1.3624360102984316,3.4421003193311623,-0.13343086250761488,-0.47276588612862896,-0.07080443777434038,0.18219458782558035,0.11244195418708804,2.84375
-0.0603673338454929,0.5186405288293142,0.38042758174332114,-1.7469528796226956,-0.06989535612264318,-0.050418826101814834,-0.044355684474817296,0.32970905389785876,0.8345794722879246,-0.03237524130107041,-0.11396114299551732,-0.01717974217022369,0.04425702458837274,0.027595881074566214,2.8515625
0.06551988111831841,-0.5710831152273329,-0.4156566353979925,1.9127912223033143,0.07823107103858222,0.05261113241115944,0.049551209798298704,-0.3638018236863593,-0.9156996015855369,0.035492471858422574,0.12685195059614962,0.018835310683730018,-0.04829239106407071,-0.029313088388814114,2.859375
-0.0013845917736830316,0.008527845542261879,0.0075462984836669805,-0.035540908267475003,-0.0004972936388839166,-0.002155180297399832,-0.0004348119282817078,0.004727227738011909,0.014877756877450889,-0.0005599637270230365,-0.0012327234698747327,-0.00029058890672979985,0.0009599532563033515,0.0009796635808191978,2.8671875
-0.010899622733208972,0.0904855046803675,0.06734465192375022,-0.3084321427932222,-0.011796650728244241,-0.009896248252557215,-0.007467071850308228,0.05734422252814754,0.14677275086692454,-0.005679117639581275,-0.01943138909050963,-0.002999356668870304,0.007918815975818056,0.005222536528478448,2.875
0.07266119583944126,-0.6336209140151862,-0.4617672497891843,2.1281376124568236,0.08645877682525432,0.058540446687214635,0.055036383939528116,-0.4028632663412961,-1.0156930573285037,0.03938826180142103,0.14049184792415098,0.02091359470706572,-0.05361393548767739,-0.03264479843972867,2.8828125
0.0376704993656323,-0.33030988892378355,-0.2407455578311522,1.1111950279248846,0.04543166793603743,0.02986438961241162,0.028976325629045573,-0.21047758302956734,-0.5291290371801733,0.02054685100869655,0.07355176026809251,0.010909051058435024,-0.027902960821165074,-0.016790967505022954,2.890625
-0.06681325376401386,0.5749940106173769,0.42009596305622,-1.9293688051929154,-0.07729569062375607,-0.055711079044490255,-0.04904555123366542,0.36461610661276267,0.9235605618833329,-0.035779869749059105,-0.1263342378210626,-0.018973456522367167,0.048943421136108584,0.030515315808438317,2.8984375
-0.02502314898118782,0.2127440453462006,0.1557042931012678,-0.7116405676849425,-0.028119108222254368,-0.021487692709019353,-0.017888564143764524,0.13444846117292908,0.3415311489905093,-0.013258803995272708,-0.04630552394453181,-0.007006919555744746,0.018186933678006688,0.011566941225182079,2.90625
0.09099328552482569,-0.7925296113779652,-0.5780511828369589,2.664924103313383,0.10821044109632351,0.07352248456713285,0.06869202649571786,-0.50419421907966,-1.2722096584116092,0.049282734188694235,0.1756706629394946,0.02618652479051538,-0.06713294283704864,-0.04097130809249987,2.9140625
0.0911548726804491,-0.7934972968243352,-0.5785659039406708,2.6660108026310465,0.10829228710082803,0.0736524344419352,0.06876148519855138,-0.5048415403752798,-1.2736997938963333,0.04934614005353114,0.17587683398102674,0.026217991138154356,-0.06718554383262497,-0.04101174313839855,2.921875
0.03380785513389142,-0.2959417987196521,-0.21516961142799962,0.9929947228661957,0.04087475615636266,0.026687957569581814,0.025876020434242447,-0.18911704441300836,-0.47547990567280735,0.01839321841387881,0.06612658572396422,0.009788721385562133,-0.024958065564131413,-0.015008324614539643,2.9296875
0.013068686091124042,-0.11618287607611329,-0.08368738254230638,0.38875479298610244,0.01658482428165835,0.00972818627312757,0.010367489708019926,-0.0751530217757675,-0.1872807813960923,0.007222925057636267,0.026565187297187237,0.003842660001868215,-0.009710796377696576,-0.005620255867506977,2.9375
-0.05488498104056763,0.47208713673026603,0.3460600759601321,-1.5878737319157836,-0.06329250323546144,-0.04586667308564425,-0.04030040239456684,0.2990492833508164,0.7574627975212864,-0.029358786217674453,-0.10338859791546076,-0.015598451067319908,0.040263616770546636,0.02512145103589789,2.9453125
-0.1519279501214414,1.3129396633806194,0.9597157849035826,-4.412735259653957,-0.17744954732799886,-0.12531087298950516,-0.11266844426981205,0.8336325704993721,2.107574378155314,-0.08167078037288446,-0.28917536422010537,-0.04336062828485545,0.11165153102655012,0.06906855869399195,2.953125
-0.11350019071627385,0.980524196943039,0.7164545743799688,-3.2962537964008622,-0.13231838100362867,-0.09387676771188838,-0.08397945503659349,0.6221413373079326,1.573972628527497,-0.061015663660113,-0.21577429976126766,-0.03236763725001721,0.08338286749468438,0.0517146141189918,2.9609375
-0.005131620654741577,0.04104910044585376,0.030723589147676034,-0.14342550336011303,-0.0050232323385686495,-0.005157488094797984,-0.003136991414753287,0.025650963880445892,0.06722184688270036,-0.002626139700482325,-0.008440815349210245,-0.0013609507226379142,0.003684581465626906,0.0026599446223832244,2.96875
-0.03062670215804101,0.2603272681432085,0.1917816793640206,-0.8848567998221335,-0.035201964308484074,-0.026002444789568983,-0.022202070808997925,0.16656576440382762,0.42171710343246693,-0.016333215791602594,-0.057206560533930154,-0.008648369947054426,0.02248533445346852,0.014155560359077666,2.9765625
-0.07232403882202793,0.6212600050202698,0.45554139242473424,-2.096049796401032,-0.08420139719899283,-0.06015341949321433,-0.05331791223602128,0.3961678817195154,1.0012215744499031,-0.038781541336830726,-0.13697118624076746,-0.02057330869803066,0.053146345244405126,0.03300058894859874,2.984375
0.10207241412999495,-0.8879855980118407,-0.6474482793297337,2.9831631012288553,0.12125880519716369,0.08254353826800967,0.076884117858084,-0.5652083886627229,-1.4249999635892212,0.0552131323868152,0.19681957855493992,0.02932516195028324,-0.07525666807761366,-0.04592885750497204,2.9921875
0.3027966621667529,-2.6257985425413324,-1.9171862365272283,8.827879065585405,0.35761725850945203,0.2468156367178053,0.22673879384014411,-1.6714652303363426,-4.217420780333908,0.1634070436973207,0.5810078421680392,0.08676208061899955,-0.22301288073274236,-0.13677553944518445,3.0
0.19776074410223882,-1.7169244814547462,-1.2532337082448386,5.771624526125146,0.23398989245504906,0.16086051118136852,0.1483766117353793,-1.092737184115249,-2.7568748325096504,0.10682508111565835,0.3800166641722151,0.056724588728787224,-0.14573084778496725,-0.08925601630564207,3.0078125
-0.07279902383556291,0.6253867375476397,0.45786282264547434,-2.1035193582323646,-0.08446374177732612,-0.060573718523534305,-0.05354640932805572,0.39800323099422397,1.0063965595113828,-0.038975459154866346,-0.1377720744826665,-0.020679761772354106,0.053358590624281,0.03317995460598787,3.015625
-0.14971164243549256,1.2919616403992158,0.9448625520950591,-4.343662992787756,-0.1749669772337953,-0.12353853355727701,-0.1109900720874327,0.8215987282506528,2.076755567729039,-0.08044506573484354,-0.28493909863748224,-0.04269904359187197,0.10995827013452462,0.06800641619977882,3.0234375
-0.06221977715998663,0.535811853408832,0.3923777801463863,-1.7996042286717313,-0.07197304054577115,-0.051953137251466525,-0.04576318918185343,0.3393464213720136,0.860326534393745,-0.0333521718705372,-0.11747996635479599,-0.01768452694669841,0.04562061990178124,0.028451104222549043,3.03125
-0.04803088018741585,0.4140079878385937,0.3028263273683676,-1.3873665929530878,-0.05527565397974411,-0.040342308225803654,-0.03518695853033959,0.26119597717642723,0.6626503397455272,-0.025756523010186494,-0.09039352244009093,-0.013624052875606389,0.03522853638291932,0.02204606347772863,3.0390625
-0.08093882385000936,0.6985587159696183,0.5102377012751432,-2.3430182717947066,-0.0940332651012915,-0.06726038937350085,-0.05966526120640799,0.4426983380238938,1.1197228594752304,-0.04345655316476934,-0.15348886490227004,-0.023026776639210933,0.05943288102000589,0.03691097223913399,3.046875
-0.041796548163425325,0.35837304681694043,0.26211446476794714,-1.202811839529482,-0.04803227534895468,-0.03521211371261503,-0.030379064419609917,0.22719991177154114,0.575674523279103,-0.02226787973463339,-0.07862565950523144,-0.011830867614343847,0.030594755477981572,0.01917710265381802,3.0546875
-0.016955330140286492,0.14274656196890884,0.10525916455679193,-0.48336734203812154,-0.01888480862639027,-0.014851855411410068,-0.011872970094425929,0.09049166193026295,0.23141854928855884,-0.008856539675146281,-0.031050823495343126,-0.004741113920096692,0.012336425097233586,0.007965778632451103,3.0625
-0.058498465619708145,0.5028300695455563,0.36835152709743046,-1.6965436157127154,-0.06781722294520674,-0.04877934655748061,-0.04295912014134061,0.3196465387593888,0.8095304256934094,-0.03131854966853167,-0.11052395716463174,-0.016630155981925594,0.042958929213729534,0.0267967542760984,3.0703125
-0.014576094926930247,0.12249849403241032,0.09045693338030522,-0.41797843789620653,-0.0161014340745738,-0.012768215684802284,-0.010212629384614083,0.07793493399634834,0.197395049757013,-0.007696935491536123,-0.026447102725343632,-0.0040530944889934735,0.010657143163216084,0.006893743243595522,3.078125
0.13446514707181,-1.1685866378652743,-0.8520710344790978,3.9214067046334433,0.15931030219447564,0.10918183420322745,0.1010070511416835,-0.7431396928472468,-1.876522626377743,0.072651886245745,0.2588482189411649,0.03857968985772166,-0.0990016572231685,-0.060589967174853605,3.0859375
0.16642160306972678,-1.4451618570740945,-1.0536055933553168,4.850352683753475,0.19689701713658234,0.13523420406823025,0.12481583614827559,-0.9194257460658505,-2.320451186337625,0.08988306242872263,0.3200924014207695,0.04769705739434715,-0.12247814126632965,-0.07502863202955012,3.09375
0.026930951428970652,-0.23647429254985705,-0.17134059695939266,0.7902658010633377,0.03279662729331719,0.021001833523791143,0.020709901909416822,-0.1513432690822681,-0.37949859765373456,0.014663169785902716,0.053160375936830866,0.0077939473811578135,-0.01985686842533166,-0.01185815403847228,3.1015625
-0.05909345801876587,0.5084229185557858,0.37168356126605706,-1.7085275266803508,-0.0682883046628134,-0.04939867218583947,-0.04338816316817069,0.32218205861603605,0.8168302173658706,-0.03169884374805462,-0.11152629325575042,-0.016769566763930672,0.043308749181794386,0.02706004552308123,3.109375
0.0015229758297872664,-0.017664992271439927,-0.012748968156514108,0.06151601820629348,0.003106734067042721,0.0002521769237379609,0.001970023469975156,-0.011852218454642372,-0.02684214682909321,0.0010457140478889898,0.004430039725807899,0.000611017908124932,-0.0014135394808538753,-0.0004309876465366865,3.1171875
0.04488472260789178,-0.3938838294208878,-0.286879283492522,1.324117690252261,0.05402180936964575,0.03578408915619698,0.03433610747017237,-0.2504148093303667,-0.6301447092512147,0.024462059765071778,0.08741379677391158,0.013007619889846186,-0.033292583831831445,-0.020094825787039087,3.125
-0.007171425689552583,0.0578368415779225,0.04341506680534225,-0.1939151370707312,-0.007325110867767481,-0.006811948346321556,-0.004606792096234465,0.036653058611028015,0.09386509697766765,-0.0036347719006426895,-0.012218315518851474,-0.0019164127574837365,0.0051140420501274405,0.003466811922346406,3.1328125
-0.043944635913473466,0.3778556123266989,0.276927303715606,-1.2654900164064289,-0.05049404776975141,-0.03698143627682029,-0.03212163158408112,0.23899374901018475,0.6053379155378065,-0.02350298512600358,-0.0826488644761468,-0.012454124633314108,0.03219900775973065,0.020136500219300017,3.140625
-0.02736967978070618,0.2346207416733454,0.1722369135961911,-0.7826743789432253,-0.030844156155655087,-0.023521626651240225,-0.019753571200761703,0.14717049044653857,0.3751992821234935,-0.01455901327340942,-0.05095861786220305,-0.007715453790513436,0.019942724184761017,0.012662620017673544,3.1484375
-0.045035343271817165,0.3863436431179768,0.28345638668897943,-1.2980849056824715,-0.05168644548776353,-0.037982447174255474,-0.032924234566937986,0.24449184061364174,0.6215903271895142,-0.024055457600600967,-0.08471640734499784,-0.01277159110665597,0.032903335376973694,0.020668110178876282,3.15625
-0.10308773708000514,0.8879090324198559,0.6501088583210236,-2.9913307197122476,-0.12023123324307591,-0.08537292695934227,-0.07625648622266253,0.5650127199302287,1.4294465463106945,-0.05535772026647599,-0.19577587233312663,-0.029381395843487833,0.07567713151097678,0.04694328563314478,3.1640625
