AF3,AF4,F3,F4,F7,F8,FC5,FC6,O1,O2,P7,P8,T7,T8,time
0.061685976208460204,-0.5375549649218031,-0.3920473995521959,1.8092569413440087,0.07385874267528443,0.049474264129351325,0.046799724954751355,-0.34301325275449357,-0.8635051629006806,0.033444311459209466,0.11957646818529502,0.017769852803029187,-0.04556170973401036,-0.027641601227477785,0.0
0.08290036090467343,-0.7214761949069342,-0.5260927693529498,2.425487959690829,0.09880088638383835,0.06690516675401036,0.06262386194143228,-0.4598084433062963,-1.1590869799290793,0.044884675627896775,0.160241621387693,0.02382842665037606,-0.06116719147808292,-0.03726143425784226,0.0078125
-0.019453250588978895,0.1653946125524153,0.12181628455119002,-0.5561934668213545,-0.02167268125522289,-0.016847829218179837,-0.01382593158278726,0.10414056940107509,0.2644624468884797,-0.010304113899437113,-0.03564537556239823,-0.005462465902233741,0.014186178674994707,0.009071523174206416,0.015625
-0.016340339244664805,0.13855522894865832,0.10177695378703226,-0.4647279062710224,-0.01804148541110677,-0.014318996929978713,-0.011482824470808449,0.08704229509002077,0.22145444672040202,-0.008611519771660995,-0.02976372320099441,-0.004552793147770522,0.011928872032876858,0.007678373299317243,0.0234375
0.10925199102589525,-0.9503692423885184,-0.6938824903599785,3.1940890611385724,0.12965492739726592,0.08849828347229491,0.08235292946753595,-0.604739622271563,-1.5251115492917622,0.05914651724893752,0.21054776018262172,0.03141058010603607,-0.08050882339671254,-0.0491800363529854,0.03125
0.1665269042994963,-1.4478567847962245,-1.0567658521411736,4.862617468526182,0.19694267632614412,0.1354073284610897,0.12513744726902593,-0.9201432052391468,-2.321301347703497,0.09005225163079406,0.32018367812327414,0.047804050304356235,-0.12271571732378934,-0.07513491210771872,0.0390625
0.1010539399281078,-0.8805402641230312,-0.6417508449237114,2.954714260164733,0.11988639236118202,0.08178837632862106,0.0761844970157434,-0.5594152858456521,-1.4100054942702007,0.05471983765269285,0.19488397342620495,0.029048376211482898,-0.07455010296822814,-0.045495861355306304,0.046875
0.008129863306771297,-0.0740574738943918,-0.052751985839631484,0.24577066928362926,0.010618871270091276,0.0056862885490702696,0.006717426857413338,-0.04750114687535865,-0.1174137690954866,0.0045697030519464945,0.016962693718543916,0.002439060318748861,-0.006097441070410028,-0.003390257051453335,0.0546875
-0.0658584782323184,0.5675896951259992,0.4155455720968403,-1.9104501885082055,-0.07636722710777856,-0.05488724143605236,-0.04854346606857997,0.36005306293326167,0.9109724603231065,-0.03532833356836293,-0.1247040623944477,-0.01873075507642298,0.048410621497776786,0.030128399275425495,0.0625
-0.1059399644304108,0.9141018535957972,0.6688100852578474,-3.0761117969443865,-0.12346515763681498,-0.08773595471583345,-0.07843727877972657,0.58061531790951,1.4678760702248779,-0.05691812054735622,-0.20134014294849525,-0.030194249970078402,0.07786431446041886,0.048259649632987504,0.0703125
-0.08391211748150414,0.7230494681398885,0.5296724949477095,-2.4331106220390004,-0.09747131652957662,-0.06977398365032672,-0.06197809918524677,0.4589349564609,1.1617719048884811,-0.04505192467865627,-0.15904242696887827,-0.02390556868628168,0.06158507798878127,0.03828229138936778,0.078125
-0.049533584648651846,0.4261739822673615,0.3126486967577358,-1.4332386703975004,-0.057013374376154995,-0.041617172067674464,-0.036318762476035486,0.2695548959167463,0.6840141535173054,-0.026549603243376494,-0.09321195610286746,-0.014086129029608875,0.03630412858342458,0.022737496033231327,0.0859375
-0.06849060823132945,0.5905186996397458,0.4320698369540413,-1.9855829678383776,-0.07942313324471792,-0.057032430993380144,-0.05043980242646382,0.3743311115625878,0.9474152428771424,-0.03676026315652586,-0.12955770595351612,-0.019493808285930444,0.050299674743669434,0.03131114521143768,0.09375
-0.07155005967163494,0.6154692674597955,0.45004185771512817,-2.0707189560507464,-0.08310509569453721,-0.059498582240428345,-0.052645537765587676,0.39132030727782235,0.9895338500258922,-0.0383540375945166,-0.1354268561669483,-0.020327672051776373,0.0525035129614786,0.03265104801891556,0.1015625
0.011500520340421148,-0.10491083162280669,-0.07588506095230015,0.3506299337674815,0.014658562262670758,0.008428167114467915,0.0093960018264658,-0.0663993637546752,-0.16552781891275928,0.006442208726254344,0.023575618338861317,0.0034465750410716508,-0.008686048171129742,-0.004963951721757787,0.109375
0.0757659189029189,-0.6603458125186659,-0.4813239459918064,2.218410339310108,0.09033564054515758,0.06101396431748268,0.057313657769055046,-0.4204877808732134,-1.059181133073608,0.041045222020298325,0.14656597792492315,0.021797597970964266,-0.05592941885610451,-0.034022270956103745,0.1171875
0.03123010737766438,-0.27295407733017246,-0.19838658133431492,0.9170691728064368,0.03792011571992779,0.024590307906379963,0.023987234787939283,-0.17500023637760267,-0.4399133498077511,0.017006210327999344,0.06125475419490028,0.009024205404053078,-0.023047691998886753,-0.013832863621815105,0.125
-0.012373796576065497,0.10465334668105213,0.07713832307191908,-0.3498123838870529,-0.013352081255445751,-0.01112881776786124,-0.00853968545443404,0.06504187163716667,0.16622845255888177,-0.0064609904974875995,-0.022209221206281122,-0.003431508267043058,0.009016879869889752,0.005887917160605298,0.1328125
0.04115214198858088,-0.35988313402118866,-0.26256555935700693,1.2148804353834497,0.04976084966683229,0.03263409408064376,0.031516590179374505,-0.23020740852905605,-0.5785632828588272,0.022433724510937857,0.08029612121272031,0.01192287722307987,-0.030504363807796087,-0.01837296459452636,0.140625
0.10223242588957013,-0.8892123128623176,-0.6492852158230636,2.992968155846573,0.12163877148847531,0.08269324325780068,0.0771364935731398,-0.5665046496076983,-1.4284188577587738,0.055334519899375954,0.19718810719532104,0.029407615953359823,-0.07548114417453194,-0.04602874175142909,0.1484375
0.09233639565722888,-0.8037959645761629,-0.5863414371154553,2.698712484174708,0.10974621568345026,0.0747146133327905,0.06965905149867647,-0.5112029034456604,-1.290573363443066,0.04996738373613849,0.17814341064475614,0.026559227534731694,-0.06807474125483691,-0.04154071784437884,0.15625
0.06131678894821193,-0.5359904006889524,-0.3899745152672962,1.7924754522074502,0.07299965525818347,0.04932841274255599,0.04641646540457865,-0.3398766154165577,-0.8580476459263953,0.03326848344637972,0.11872410359803867,0.01767151609519636,-0.04514545378953062,-0.027490426384987325,0.1640625
0.015404619141077974,-0.1383483530221071,-0.09940034872771655,0.4571864570646743,0.019000298359881956,0.011659754764669145,0.012139270337825156,-0.08724367132181508,-0.21841824855732153,0.008532263763750998,0.030909087310103226,0.00452656245129362,-0.011378008910403756,-0.006692319064650058,0.171875
-0.10126431853780121,0.8734778772066607,0.6390886214117344,-2.9387876384530163,-0.11811217731615682,-0.08384303058443002,-0.07490770304075864,0.555056895270363,1.4042978282174279,-0.05441019413730036,-0.1923243388059652,-0.028866677949275523,0.07441768650325271,0.04613468705814334,0.1796875
-0.21133011922850764,1.8274699674816546,1.3354083718206051,-6.14325570216983,-0.24754180877018406,-0.17386862964311622,-0.157020282254503,1.1611883022664127,2.934707948526415,-0.11377517453411741,-0.40294654297329796,-0.06035833459173831,0.15537534264984598,0.09595566020882759,0.1875
-0.16189267157472273,1.3984628939582864,1.0221420354797062,-4.701479320498409,-0.18930319671663437,-0.13344029440565788,-0.1200894620424291,0.8884887226499036,2.2471375453581213,-0.08707862195431285,-0.30825880664104005,-0.04619741920018474,0.1189468730058766,0.07357061499586945,0.1953125
0.007913950344842526,-0.07272574966650787,-0.052018908818766516,0.24470032142900014,0.010684553124928577,0.005398326476821811,0.0066323587081036795,-0.04740211711534053,-0.11466708398003422,0.0044962116355684555,0.016783309462479253,0.0023927668804297523,-0.0060645046751868735,-0.003285986198541105,0.203125
0.10282479052919041,-0.8940941626074299,-0.651575090263249,3.0062870731351095,0.12247842883085718,0.08300030846993532,0.07740660423033724,-0.5701648144418848,-1.4356461668097613,0.055624388108405344,0.1983520414153863,0.029533951564641336,-0.07590926741008398,-0.046243906092436594,0.2109375
0.07416316245773309,-0.6457978174357961,-0.4699641090224793,2.1684902448276167,0.08858946243128876,0.0595961458173066,0.05599618463806812,-0.41162262291626983,-1.0378482143518306,0.040153415147206335,0.14336800222850551,0.02132319521454186,-0.05476152109264871,-0.03328801743615185,0.21875
0.05959224282769019,-0.5204566556533256,-0.3785021293636809,1.7431457187382902,0.0711625986705133,0.047750390761808884,0.04518435057465696,-0.33088723288675614,-0.8347278615141472,0.032353323932518385,0.11545979612418567,0.01715938965795489,-0.04395917736155446,-0.026697745545642165,0.2265625
0.10863487198603838,-0.9448150838401229,-0.6891529173265055,3.1706790381598986,0.12876065386909868,0.08792632001645898,0.08183753920328533,-0.6010549413614189,-1.5158583161873571,0.05882476508841105,0.20935420372534203,0.03119335037962783,-0.07995535732378119,-0.0488609047545175,0.234375
0.09038228401607548,-0.7849305884566506,-0.573236663304638,2.6380037022234064,0.10732522207871195,0.07302950741017267,0.06818834716333323,-0.5004793618955622,-1.2620982097984084,0.048927081117851635,0.17438261278487358,0.025963491636167867,-0.06645185274966715,-0.04057222493277806,0.2421875
-0.055296142231793945,0.4770163827182021,0.3484167158906936,-1.6027549435188688,-0.06409106522980525,-0.04614574384435309,-0.040574884243104715,0.3022672986487101,0.7631069805695361,-0.02966671938699982,-0.10445013479147561,-0.01571431353299225,0.040718270390331074,0.025327820362172494,0.25
-0.1665995116932483,1.4387806540503052,1.0516141569554986,-4.838797858363042,-0.19506063447499722,-0.13724994216634304,-0.12362630005700884,0.9153291169518798,2.310814637847589,-0.08964622065133987,-0.3173544123717991,-0.047535543585263955,0.1224773991671035,0.07563951128833103,0.2578125
-0.09374587713151372,0.8062709572591342,0.5899629150978604,-2.7122264517629673,-0.10914374858337461,-0.07770349679911659,-0.06920392457922662,0.513305712852033,1.2979187640149714,-0.050317774839524015,-0.1777888469297026,-0.026662459963102746,0.06871125591609095,0.04264314478744169,0.265625
0.058135156977424635,-0.5079384006876692,-0.3705135722947619,1.712334198061727,0.06989549376351632,0.04655215163525517,0.04418035194193098,-0.3241254765642649,-0.8144801667898959,0.03156893670840281,0.11287873426184349,0.01680403836078798,-0.04312046371858511,-0.026077958652731773,0.2734375
0.0904872592849788,-0.786470986309221,-0.5743767913054648,2.6528279149981877,0.10808513289547206,0.07307240781296859,0.068319229866642,-0.5024522171915614,-1.2647899861219267,0.048986175442957636,0.17471684914153704,0.02604955114213753,-0.06690540416810499,-0.04070416807761577,0.28125
0.0023681882341050242,-0.023699722505971764,-0.016679815749078748,0.08265769230131098,0.004156141771810751,0.00102917822314395,0.0025113649588264725,-0.016429799471899147,-0.038796027970492246,0.001464211533534508,0.006061834084302055,0.0008141990328229145,-0.001986312400494538,-0.0008142623418766919,0.2890625
-0.06370507663971553,0.547299116414659,0.401143564825445,-1.8460231907015607,-0.07392919621897309,-0.05302016336728579,-0.046852422788821346,0.3482352924068741,0.8812972448761727,-0.03416024608122451,-0.12037032484910651,-0.018114153546400405,0.0467386960176447,0.02911223280492866,0.296875
-0.06193211120508189,0.532160510768931,0.39013246460361384,-1.7963263399636304,-0.07193739236789441,-0.051611018964398535,-0.045554784249686286,0.33863995978009065,0.857168924438219,-0.033193168113306824,-0.11700225267865884,-0.017624234159313697,0.04552530930432798,0.028337042149188536,0.3046875
-0.044675076905664995,0.3836830778709779,0.2815211765361281,-1.2931465646744116,-0.051521711661768714,-0.037559654487797675,-0.032681278767672586,0.2433201963246789,0.6168516330947832,-0.023866096382669316,-0.08400903997259261,-0.012694595424874038,0.03285849254224904,0.020537658567351968,0.3125
-0.02030192256905788,0.1722843066810037,0.12746853530729627,-0.5835417041978372,-0.022815408110756177,-0.01765756592620335,-0.01450239673409892,0.10897878392572545,0.27783500901687275,-0.01071683545220357,-0.03738180509141862,-0.005718402354110196,0.014901490504739358,0.009506192312009705,0.3203125
0.028705580913306307,-0.2532789896102889,-0.18303365514530298,0.8425289450154775,0.034753713663747944,0.022458379022769606,0.022076456110485438,-0.1607127185488794,-0.40348119731892823,0.01569712149596206,0.0563635354503223,0.008314551466055958,-0.02118810331925977,-0.012680544188598838,0.328125
0.07650316757167973,-0.6671586450356901,-0.4858040100127879,2.2357938241570614,0.0909982324376269,0.061596974905652885,0.057797883263557455,-0.4239606391802997,-1.0687915169457811,0.04147798373550667,0.14779597018801902,0.022005004710693964,-0.05637022909197737,-0.03433209369538457,0.3359375
0.10192974192053271,-0.8862753329462604,-0.646698196068413,2.9794887284201996,0.12106648756857852,0.08238973742217898,0.07683745709957558,-0.5645264730851237,-1.4235621511783576,0.05520949299595218,0.19648894295118843,0.02929500424967074,-0.07509987709423396,-0.045856023973974355,0.34375
0.09906743395357145,-0.8612121599237548,-0.6287519282273786,2.897317011933627,0.11780260122757359,0.08001841018713012,0.07471921314641422,-0.5492229996259401,-1.3840295596150312,0.0536444822279301,0.19106731042672861,0.028488433842206173,-0.0730453210587525,-0.04455244603763521,0.3515625
0.029446140007982756,-0.2587132127589348,-0.18855626436655382,0.8691051092771888,0.03587921014110568,0.02305946675665519,0.022720474066235365,-0.16553574592180068,-0.4152543149420374,0.01604151449673343,0.05781656086878361,0.008570895108055218,-0.021868948428802697,-0.013031318840602345,0.359375
-0.0937008584750172,0.8081739372768626,0.5908364937085021,-2.7167658994777844,-0.10901694413340586,-0.07766502883176167,-0.06924492901709385,0.5132995673922874,1.297411035505703,-0.050399897976878126,-0.17789230635087747,-0.026677513764834716,0.0687411769929264,0.04268761934629851,0.3671875
-0.1345612786060246,1.1628535180317763,0.8500188010585583,-3.906084205256173,-0.15708508467923346,-0.11106464962159576,-0.09976341963714064,0.7385051408791306,1.8654465432654121,-0.07242884607091951,-0.2560575439666247,-0.03839040668082586,0.09883995213939524,0.061159421343168825,0.375
-0.025039304489990206,0.2138436088635255,0.15713376535732315,-0.7177995008007216,-0.028279750678589902,-0.021422471864578217,-0.017979419713510476,0.13499193135613147,0.34294517400402014,-0.01335306970543325,-0.04639242579403189,-0.0070650962916832885,0.018258480718779384,0.01159688253231103,0.3828125
0.08380117315427707,-0.7300695107137474,-0.5321487628067092,2.4511709597021465,0.09974193293524983,0.06766242781007774,0.06332192533820277,-0.46470204115939473,-1.1700772136806283,0.04537136721880705,0.16194168192402789,0.024086016080789467,-0.06185350422960648,-0.037652538765220796,0.390625
0.05032038607370476,-0.4401166815511391,-0.32062994807921763,1.4777709872939,0.06042426767024086,0.04027921966284151,0.03833533295407816,-0.280288456537813,-0.7053081484741622,0.02736345955253877,0.09790423990438282,0.01452648748385602,-0.037205228698560786,-0.02251089235575861,0.3984375
-0.0351660061462951,0.3013620284016463,0.22058231278355084,-1.0110625603738534,-0.040094389148972044,-0.029680005842197654,-0.02554082054233202,0.1905820319321128,0.4822858381182107,-0.018721599711609773,-0.06565709024377288,-0.009920106381545996,0.025761310590856467,0.016172347466505723,0.40625
-0.045230251759267474,0.3886077101347035,0.28439354382199816,-1.305490731276378,-0.05201159907744519,-0.03794187098228074,-0.03308760688450225,0.24601060941440528,0.6225533167348624,-0.024168289969803344,-0.08494032306727686,-0.012799332632593743,0.033191589220931586,0.02074187463829867,0.4140625
-0.04067645623605651,0.34785674320628773,0.2551768761824429,-1.1721073050598838,-0.046763917181127025,-0.03426243024083741,-0.029633852542028934,0.22104190334875085,0.5604856601572256,-0.021697352432367048,-0.07630595720473878,-0.011501613219946624,0.029784462365289054,0.018679423515659856,0.421875
-0.10248484674104458,0.8823167497298535,0.6460516681159505,-2.9693880871997553,-0.11952290422471518,-0.0848920430071901,-0.07572852573431181,0.5617214883854817,1.4203894413138354,-0.054980621648131674,-0.19464656526271978,-0.02919358838550349,0.0752258723536033,0.04662646089867576,0.4296875
-0.12632587163600137,1.0893836355608422,0.7973645518880008,-3.665474675510644,-0.14759041221646985,-0.10442112404823055,-0.09358513188871184,0.6932086639310674,1.7515359454062236,-0.06784709119260367,-0.24029814068798275,-0.03602678681715304,0.09282850792333987,0.057423502494698755,0.4375
0.0046934451270199875,-0.04429262572842591,-0.031032294067574545,0.14378180150184647,0.00656478333014878,0.0028057254198246397,0.004140772108693133,-0.028580359158325408,-0.07035251581462386,0.002731740688700065,0.01037579370410352,0.001449938702951083,-0.0035007840372281913,-0.001813744598640578,0.4453125
0.18327278477686534,-1.5904387557446724,-1.1608452136287915,5.342216142084911,0.21676686184869604,0.1489401467981144,0.13747084178318209,-1.0126039286073503,-2.5531598402320688,0.09898845729628568,0.3520614650672728,0.052547122652974794,-0.13491575776449571,-0.08259309173897439,0.453125
0.2082382686069076,-1.8067277718326027,-1.319081551845417,6.073425925705493,0.24622203328303072,0.1693534505966553,0.1561764514765307,-1.1503709401375886,-2.9001283449794184,0.11246105264364888,0.3998643208466617,0.05969995716834094,-0.15334784711500554,-0.09391163384605862,0.4609375
0.06758104640645568,-0.5886614045146067,-0.42922582436205636,1.9793626298090683,0.08066139630161398,0.05426803073960611,0.0511689651593516,-0.37542295304394147,-0.9443401604317697,0.036602877531808055,0.13078528428930644,0.019453184668523322,-0.04986098712436967,-0.030283862908345366,0.46875
-0.06697326852585464,0.5767875727434311,0.4223455228131948,-1.9423988960163046,-0.07773659408047275,-0.055779205177067206,-0.0493326706936937,0.36607226644505414,0.9263990972992086,-0.03598527714553416,-0.12664861613722145,-0.01906052146747342,0.04916954995872307,0.03061510463549757,0.4765625
-0.08560980117902486,0.7382793048742549,0.540346639170505,-2.4864609399493816,-0.09958163488045679,-0.07097681873041542,-0.0632305708251973,0.46878550170992794,1.184980106387928,-0.046012391467083795,-0.16230054210314937,-0.024397013836160886,0.06285711020982482,0.03904823798124182,0.484375
-0.04415346804905404,0.37881087388742635,0.27753623649927933,-1.2745475366494747,-0.05067873867118969,-0.03703781877490293,-0.03219623884345815,0.24025532528936475,0.607959308997732,-0.02358617630666544,-0.08294344241344502,-0.012514862695075351,0.032287913244512065,0.020248396666127464,0.4921875
-0.021686071384893653,0.18362864221821718,0.1346677438359671,-0.6161846405498026,-0.024261674341619827,-0.018659134248900887,-0.01537955724748542,0.11636691839108344,0.295448008449363,-0.011437543617293901,-0.03992930809817214,-0.006059161716445732,0.01573453108420527,0.010051552002618445,0.5
-0.0009478913160148959,0.0041583959389854186,0.003409689781468707,-0.013796272993451469,6.990345478540648e-05,-0.0017067175555463131,5.890924662997139e-05,0.002065862441154155,0.0072859817327254805,-0.0002827212803879785,-0.0002789000278441003,-0.00011864339577543907,0.0005146314597605099,0.0006859919564414519,0.5078125
0.05502201113718763,-0.480003767078721,-0.35004050546497995,1.6133685230506905,0.0659317640017505,0.04406446376113898,0.041785285978897864,-0.3062499744435004,-0.7709146223939075,0.02986797871187909,0.106783977676349,0.01587873333228906,-0.04063107595843694,-0.024622531512541276,0.515625
0.10025139777549721,-0.8719350489703717,-0.6357300578320092,2.9314188866323585,0.11913393817915767,0.0810537243475865,0.07554333613341686,-0.555185640435272,-1.3999459051697016,0.054253489206346255,0.1933473394698266,0.02880224048935341,-0.07391147590147919,-0.04511985069398273,0.5234375
0.061884950466709325,-0.540355033360777,-0.39318723146389783,1.816200654304047,0.0738949593683682,0.04965495866966647,0.04691989526186239,-0.34353796193479014,-0.8665438229403798,0.033564540372148066,0.11993442243191037,0.017827233124047267,-0.045682218415730856,-0.027790169300414766,0.53125
-0.05133822886441291,0.44056604869651206,0.3229039742566651,-1.4818720741153844,-0.05935947051884478,-0.04299790174482475,-0.03760881879637315,0.2801696261619021,0.7080090755799083,-0.02748995408033896,-0.09678667722063558,-0.014556457750960448,0.037664551109227874,0.023478561357357777,0.5390625
-0.1596064721491465,1.3792103661776471,1.0081503905769342,-4.637164219057226,-0.1866762536686456,-0.1316053587787469,-0.1184623162486019,0.8763357373905035,2.214130533708259,-0.08585506405148613,-0.3039834387400876,-0.04554274386512605,0.11737074202949746,0.07253309514833249,0.546875
-0.18946818295229065,1.6375048711270226,1.1974325056799453,-5.5071014583389735,-0.22177116055635698,-0.15605521823006055,-0.14077756204450184,1.0407390996105914,2.630142598062691,-0.10193760924721375,-0.36101991844502074,-0.05411376762976739,0.13932400237736434,0.08605177324327684,0.5546875
-0.11373935177977676,0.9803451318466149,0.7181428479854577,-3.3006214441748334,-0.13267606404123633,-0.09410465597083806,-0.08424418129656201,0.623564352277558,1.5772415328899467,-0.06110790052144387,-0.21602817590856077,-0.032450005913507975,0.08352933859228234,0.05174884623352441,0.5625
0.024953672631756636,-0.22068900737956806,-0.15984678681786907,0.7376104910324961,0.030579313198905448,0.019377317011385783,0.01931302416221736,-0.14073797676941652,-0.35200368214714484,0.01365962648326735,0.04927702568049372,0.007267224336223661,-0.01855292296739302,-0.011001443441450818,0.5703125
0.1230736309105612,-1.0687238596903161,-0.7808390203920285,3.592414889613014,0.14613044266970615,0.09970465730973903,0.0925921533740965,-0.6815904230438647,-1.7170892564360478,0.06656324188825717,0.23691291699625397,0.035368252716880266,-0.09069218969028602,-0.05535041012925191,0.578125
0.11681867933181557,-1.0136948615007924,-0.7410356852256202,3.40952297168258,0.13872969455004228,0.09465429071372325,0.08795209399698041,-0.6469707964436632,-1.630178050215794,0.0631898144300937,0.22498364683517624,0.03356131705168757,-0.08602727853379812,-0.052516683133854276,0.5859375
0.06250003416469532,-0.5442542526503986,-0.3970972733227218,1.8299786226007118,0.07464119274132178,0.05022351244191875,0.0474121914883849,-0.34719175291203075,-0.874373613891873,0.033879754618099146,0.12114196963348638,0.01798764506298123,-0.04607758337865146,-0.027995605498009463,0.59375
0.04765571047348107,-0.41682096713343164,-0.30310849355629155,1.3991775419837222,0.057056481626308345,0.03803220650548242,0.036312770756306824,-0.2651039635341054,-0.6673936154852712,0.025856730465933446,0.09270478518472984,0.013735478571493109,-0.03520860491204659,-0.021313766535452715,0.6015625
0.06077915103890313,-0.5306734724899269,-0.3862372807359953,1.7798438280971303,0.07253055087582973,0.04875990268631654,0.04609043858443127,-0.3374940423514985,-0.8498022025041116,0.03295691606499364,0.11772713413492253,0.017504721324827555,-0.044879792098674945,-0.027233718866110614,0.609375
0.037570705343815694,-0.32973395712337816,-0.23967165340197683,1.1033509633531775,0.04532009673799999,0.029816208574282636,0.028782171278821014,-0.20980472888588028,-0.5276463718005583,0.020491729796992774,0.07333312740671193,0.01087399867942346,-0.027807863061340116,-0.016723321914724493,0.6171875
-0.010526557907487391,0.08655445102386294,0.0643059074415496,-0.2942498885582717,-0.011222864369599123,-0.009538649786312615,-0.0070875514385657385,0.05512214121434858,0.1406504062371805,-0.005431208644497334,-0.01864812507526946,-0.0028793314161631176,0.007551379410623903,0.005015520545987293,0.625
-0.02147567962099267,0.1816775056740604,0.13363675517246026,-0.6107472420713386,-0.024121342054301616,-0.018573417548409982,-0.015271591000465925,0.11545001320437082,0.29302938164294273,-0.011371660131958013,-0.039635921148278914,-0.006003223451936194,0.015612456064483839,0.009965759576384433,0.6328125
-0.0033699276825248227,0.025636926031476447,0.019631831775056247,-0.08567752360899532,-0.002829925381494572,-0.003796061291706202,-0.0018110768952951696,0.01569442245179923,0.041449786740821,-0.0016304868341196815,-0.005028160548484003,-0.0008305816154171353,0.0023572411871807053,0.0018024103914433898,0.640625
-0.020496221083287195,0.17408590007362415,0.12832872674151244,-0.5868873446950083,-0.022946829053080715,-0.01775859132157131,-0.014613295297548115,0.11000132676387633,0.2792679347623139,-0.010836270829475587,-0.0377254215126032,-0.005751976191403823,0.014987459287597796,0.009558841986488249,0.6484375
-0.07339238239790213,0.631674163722104,0.4627247308276577,-2.1260793165067615,-0.08517236134372935,-0.06100705256960841,-0.054067677340626806,0.4013568560511812,1.0146824364890072,-0.03933497967568906,-0.1388715021981348,-0.020894164335622033,0.05385984279242588,0.03347274644391289,0.65625
-0.09796110080268461,0.8445767972532691,0.6180862689587866,-2.8412925406056195,-0.11415024944314786,-0.08116181062057527,-0.07243566349874861,0.5367198259093783,1.3569512097115926,-0.05262333743298374,-0.18593833048103878,-0.027917839972046384,0.07194011425004804,0.04460399722971114,0.6640625
-0.07451405351202808,0.6425086854449577,0.4704200153580302,-2.162437386386346,-0.08660499072170903,-0.062031457038184426,-0.055045297115789295,0.4075672184875704,1.031285493094265,-0.04004158244113825,-0.14112605754858723,-0.021212716721971957,0.05478829790541849,0.03404589345854062,0.671875
-0.03552872882466978,0.30523075503667374,0.22408523682449283,-1.0281403922337216,-0.04060728148384457,-0.03010955267181479,-0.02597355345273464,0.19259220219663728,0.4884473537019639,-0.019015015050676817,-0.06643466153007048,-0.010059885145992906,0.026121255662474457,0.016409351792730127,0.6796875
0.014421738556703263,-0.1283980355899621,-0.09306843284649602,0.43364953021700803,0.018368281669566833,0.010829409424772809,0.011470413671816532,-0.08298485436899906,-0.2070609921017952,0.007984620864228015,0.02926480539959676,0.004261072639022665,-0.010801057606707869,-0.006264515783593559,0.6875
0.07474609633612991,-0.6518136821583426,-0.4761069727206898,2.197511939930151,0.08940184929379996,0.06023319871418418,0.05667973691189588,-0.41549545742208754,-1.0459241289024293,0.04055090722340676,0.14465546292855996,0.021558374332972523,-0.055349673929121185,-0.03362187211760129,0.6953125
0.08053266917342901,-0.7015281558347735,-0.5125212080450795,2.3641662592095294,0.09609088343159142,0.06496400558946776,0.060997796515714874,-0.4471155258645711,-1.125728568238833,0.04364985425706785,0.15559523016911486,0.023207688514643072,-0.05956282503958467,-0.03621988985751456,0.703125
-0.00860184142868877,0.07128244480075552,0.05268521248519836,-0.2384419304828833,-0.008941059917340512,-0.00800462778083049,-0.0056683614057814816,0.044376441697805045,0.11458940858808447,-0.0044400823688701555,-0.015006624418722515,-0.0023409851454579784,0.006186471389134054,0.004178392319871977,0.7109375
-0.0922384487366202,0.7955485939650206,0.5823601118945277,-2.678726458750565,-0.10750879324874946,-0.07645722111634892,-0.06818624423661777,0.5055396203947351,1.2785306527728946,-0.04953856087292504,-0.17501552253764116,-0.026302649688815127,0.06783864112702233,0.042068833475337165,0.71875
-0.04719967491007627,0.40488262317938445,0.29702585452683644,-1.3704205589992378,-0.05471049103178033,-0.03956346490803943,-0.034575059723201344,0.2578094763216303,0.65263911245898,-0.02525522854684079,-0.08887308478269587,-0.01341491757532041,0.0347547592396107,0.021701217485134358,0.7265625
0.08232012972524103,-0.7170457726874613,-0.522595275360491,2.3983979290997044,0.09758363866339602,0.0664760119226328,0.062122388296048145,-0.4555053660159157,-1.1490970138985153,0.04457010473344256,0.1588779047557919,0.023652305312431093,-0.06052400669399857,-0.03691823759717855,0.734375
0.1487441613180421,-1.2924671386011373,-0.9427601706143931,4.334714263878599,0.17587630164022222,0.12081697481456195,0.1117468924992419,-0.8217255939360382,-2.0736608118209303,0.08039890600969668,0.2859823108372959,0.04266457701528657,-0.10947803063125722,-0.06700880077021162,0.7421875
0.10408310964975673,-0.9061018674741,-0.6604970587265964,3.0411243395362386,0.12357707593626806,0.08418055754449782,0.07846116261422299,-0.5763171246158711,-1.4526204199635548,0.05635974692259043,0.20058379088207712,0.02990420747954814,-0.07676655531940482,-0.04683050837331543,0.75
0.025439006866111807,-0.22493259247976224,-0.16327226261963138,0.7556285546848465,0.031181876476814707,0.019745915508094222,0.019752522942090595,-0.14346661462924407,-0.3588584531709261,0.013976605363964058,0.05009562855846146,0.007426449392071733,-0.018968068786899307,-0.011248132649003283,0.7578125
-0.013876541615380678,0.11631063332454719,0.0857774234079632,-0.38889536277859915,-0.015023088993100795,-0.012436460194905552,-0.009634110690256468,0.07306353007332186,0.18700146378616286,-0.007245145756909196,-0.025138522573840815,-0.0038163048397202868,0.009978609623185919,0.006537341863475346,0.765625
-0.017946650706932712,0.15199381953637206,0.1121477938713762,-0.5062791300633799,-0.01970517711730711,-0.015748925402885958,-0.012662161770007127,0.09537597190051905,0.2427381420804872,-0.0094739486606134,-0.03280258578085355,-0.004999210607216774,0.012944356490026647,0.008351636208246914,0.7734375
-0.040806052276627376,0.3499978165420531,0.2570272673693933,-1.1704790564702974,-0.04653743187518394,-0.03446679614727917,-0.029709009770204315,0.2211240220936618,0.561457129745708,-0.021820228754611426,-0.07641420405855168,-0.01156502612116709,0.029731667723065226,0.01869941724701995,0.78125
-0.1079981717967139,0.9324862004683544,0.6820557774903139,-3.1305932441065765,-0.12573459834642683,-0.08946492760787272,-0.07994351625026828,0.5914371830834695,1.4974224118243624,-0.05806996971574834,-0.20504814460245635,-0.030800066427383622,0.07928906594103513,0.04917410999441266,0.7890625
-0.1579688984227328,1.365909582203939,0.9980187965359346,-4.591434635147951,-0.18473738181252675,-0.13029009809563322,-0.11734394063964726,0.8672259287445522,2.1921594080075177,-0.08503550154205332,-0.3007869057182008,-0.045084906228749944,0.11622980441466194,0.07183512809308394,0.796875
-0.11542156407154847,0.9967675307522152,0.7284488067271025,-3.352815923538292,-0.13472553440651866,-0.09531844752664001,-0.08555047200406167,0.633235124228341,1.5986557620849562,-0.06209296250341604,-0.21929388234049582,-0.03289099712913153,0.0849251278125573,0.052527293721190936,0.8046875
-0.02010631217794087,0.16994657221612824,0.12496173511052239,-0.573712952830544,-0.02254174359509038,-0.017200605702039264,-0.014275628417094465,0.10825803405594452,0.2723729735255475,-0.010668865520194923,-0.036755795684543666,-0.005615402691767137,0.014676692111222295,0.009315467261009132,0.8125
0.02907644083879758,-0.25614922912385335,-0.18630534585153244,0.8587915381306126,0.0352884132459048,0.023005303623857425,0.022496432138496295,-0.1627858349609088,-0.4102890572624263,0.015891059624539648,0.05727717990517923,0.008441791727483784,-0.02153499951659279,-0.012927543681760877,0.8203125
0.036830623311606074,-0.3225314831709295,-0.23503528310662095,1.0818257710834498,0.04440455173971618,0.02918661583875632,0.02825904641893125,-0.2058482311539253,-0.5167236511433616,0.02010976547688856,0.07189265235742069,0.010646222784792644,-0.02720207517362848,-0.01636454003379953,0.828125
0.0706795766449765,-0.6157668992913771,-0.4488191039088749,2.0663877017527623,0.08433952342022276,0.05676957819386685,0.05350011824736465,-0.3927132970936832,-0.9875542128803885,0.038384059086107446,0.13660665350288553,0.020330589954336953,-0.052147058271797796,-0.03166211913281125,0.8359375
0.10866960049745944,-0.9456967970822516,-0.6891889773200903,3.1729618443403838,0.12903593751163198,0.08788244661443945,0.08184676545920597,-0.6018623710137301,-1.5165420280977824,0.05885628707242354,0.20937568466533124,0.03120984188776395,-0.08013765487908464,-0.04888705748514153,0.84375
0.09593926286231629,-0.8357506850127665,-0.6091092750187971,2.8020717097524606,0.11384762887728553,0.07754961573315938,0.07233333748930525,-0.531088782183201,-1.3394463899574711,0.05195001723039188,0.18498817008181725,0.027580858818555286,-0.0707034096756055,-0.043142306967548956,0.8515625
0.0714209560697524,-0.6229318144669543,-0.4543158928553728,2.0891751842581177,0.08491423135770225,0.05750823331905477,0.054044550665889,-0.3957461976363568,-0.9981031439329994,0.038694655599349516,0.1380024898039856,0.020574282035640646,-0.05262003446779906,-0.032041681457831275,0.859375
0.07392395902396787,-0.6441326178712959,-0.46965764078264144,2.1645233754023816,0.08806423838485444,0.05950248458467871,0.05592691433992497,-0.4099455056826937,-1.033012453147462,0.04003059886422894,0.14284920532721643,0.021282493634282258,-0.05453453331928475,-0.03317956013573274,0.8671875
0.03711705438002,-0.32495083718866236,-0.23589953925945528,1.0930235711394647,0.044900902529291964,0.02932025192741169,0.028415367806512194,-0.20750369912008546,-0.5212708769430975,0.020174288432663612,0.07248159865084695,0.01073370187644388,-0.027486815982009846,-0.01651990471509494,0.875
-0.07508196573753144,0.6471400510291455,0.4739823820518457,-2.1754649553819427,-0.0872172461073225,-0.06252095883845551,-0.05537314547742995,0.4106827060509535,1.0394942007947943,-0.04032179719402861,-0.14226386952970052,-0.02137218963947002,0.055135651851724254,0.03428341983636676,0.8828125
-0.16100144770795033,1.3911079908981236,1.0167197589668278,-4.675707522149055,-0.18830184658792354,-0.13282561210216828,-0.11946952494392246,0.8838266658426986,2.234622472452611,-0.08661191485214059,-0.3066322367987429,-0.04594454256068912,0.11833897631021661,0.07317640207788931,0.890625
-0.12836432152986268,1.1080466040741517,0.8099920928351251,-3.7220382683999103,-0.149608191583136,-0.10608816851252903,-0.0950634378431129,0.7034362229021102,1.7798640148330276,-0.068973768072212,-0.24395403773491342,-0.036605734653677814,0.09418772879818244,0.0583712662838017,0.8984375
-0.02872822887664732,0.24540929302108733,0.18041679485523182,-0.8219911314511231,-0.03223211293803499,-0.024495628890240186,-0.020739245900030456,0.15443658532346913,0.39287435976099944,-0.015267963027823938,-0.05320620323065414,-0.008107084280972813,0.02084852547013103,0.013247573070953212,0.90625
0.03056211672232202,-0.2674926020417526,-0.19437846321894833,0.8994547716694041,0.037258052266452076,0.024086008217697297,0.023450630700443318,-0.171544219598718,-0.4318414698502471,0.01664759290627537,0.0600293446385991,0.008864793513573936,-0.022629218632914436,-0.01356864660865937,0.9140625
0.013522706622417441,-0.12016415027433541,-0.0874626583411664,0.40133377306852064,0.01690985717277723,0.010158500105575674,0.010762920897845153,-0.07719033534696361,-0.19354548052495923,0.007452881553850945,0.02722899543216618,0.004009886574874864,-0.009988010119788768,-0.005814181860873365,0.921875
-0.031417162460152505,0.2683536745123066,0.19618293032794973,-0.9054307468791046,-0.0359466458036264,-0.026658312367743988,-0.022711326316893984,0.17020411530751478,0.43259091990179044,-0.016730007191577627,-0.0586776227768053,-0.008850288117809363,0.02304647273789675,0.01454782366641166,0.9296875
-0.02957039434744929,0.25228917176604626,0.18498693220860996,-0.8510049780786326,-0.03364672469970592,-0.025182580412273323,-0.021330859736081578,0.15980668616081814,0.4064790575308539,-0.01570060628922673,-0.05499446368741056,-0.008346591478365523,0.02165927811473832,0.013698340032285492,0.9375
0.0313384346848414,-0.2753301506576486,-0.1999031398134941,0.9221654788826126,0.037985872097079036,0.02469023215634802,0.024113408026088173,-0.175538003997772,-0.441878765693679,0.017131634520272047,0.061560740750614205,0.00907073993128804,-0.023148619792470685,-0.013914976323511127,0.9453125
0.07216897606210754,-0.630061922879849,-0.45877588029285765,2.113483267186016,0.08594602816204489,0.058169715602765876,0.05462953624497181,-0.40017413765453647,-1.0102520761978906,0.03913323719999999,0.1396827090882871,0.02076747856180321,-0.05324651049297965,-0.03245293485655456,0.953125
0.03895958364368587,-0.34324438691636183,-0.24919010812218492,1.1496876906951192,0.046894595177977845,0.03102303762411657,0.029876424168913833,-0.21713817565749235,-0.5479648002909491,0.021224245679203477,0.07617222307201266,0.01127677356343095,-0.02888160212280654,-0.017448118516335185,0.9609375
-0.0038352649164682447,0.028527271485304068,0.022167643426118627,-0.0974554955153071,-0.0034042268280839658,-0.004035846801316683,-0.00212143252868884,0.018574331303642083,0.047607616927641906,-0.001865889636985352,-0.005812302209417228,-0.000969893407965034,0.0026478548139250617,0.0019528801210007146,0.96875
0.018319860530829558,-0.16148188802419447,-0.11697081655500745,0.543910214857135,0.02269754232549559,0.014010500843003728,0.014328654869203743,-0.1036509750732176,-0.26046359705448585,0.010055017576422394,0.036379909492162174,0.005366453431221264,-0.013570572227255537,-0.00801875520725212,0.9765625
0.06898171846189512,-0.5998217457370518,-0.4371383805924218,2.0177226697924056,0.0823801385688501,0.05537877166880669,0.052125311370730947,-0.38310411570789477,-0.9647719840156598,0.03736859141320872,0.1332816591887428,0.01985801921979468,-0.05086204989254447,-0.03091475909082607,0.984375
0.07221541345539893,-0.6285421250194463,-0.4578216300857191,2.1122826208240104,0.08622603108606175,0.05797423669919598,0.05457491669453961,-0.4011519322357892,-1.009024340979126,0.039129505421323894,0.13959556758301747,0.020772063590443337,-0.05328408425024284,-0.03236084868301927,0.9921875
0.012311068568525308,-0.10994990520235584,-0.07916527945522452,0.36633143645691363,0.015607781824657841,0.008974184872225089,0.009878398496870038,-0.07091583873308609,-0.1751880761177005,0.006835380519285206,0.02499215171182466,0.003627985843299839,-0.009141902279369103,-0.005219703400593341,1.0
-0.08113354155463488,0.6996581015618644,0.5114937135401573,-2.356853953977397,-0.09452757987742595,-0.06741936209909226,-0.05987227697123305,0.44424925271676785,1.124668351688916,-0.04355719536865929,-0.15391118690513278,-0.023095042726053297,0.05970160222182236,0.037096559192459466,1.0078125
-0.1446550032650548,1.2496860117954989,0.9127098561346201,-4.204748229546645,-0.16921953350304594,-0.11933412319591308,-0.1072517025183029,0.794094734773829,2.0078043383112933,-0.0778028241617935,-0.2754310995435196,-0.041256506293665875,0.10637510099825721,0.06582664399006143,1.015625
-0.1003462176292789,0.8654665426927836,0.6321519164324697,-2.909314427896408,-0.11681604311452194,-0.08306167002742526,-0.07410809237633792,0.5494176107707175,1.3908503555628307,-0.05389590912263701,-0.19048252717103836,-0.02857968673441087,0.07359550743824694,0.045716149071363926,1.0234375
0.025089705464252623,-0.22111348222321833,-0.16106630370781785,0.7469740347110343,0.030934821604341935,0.019549494411269793,0.019551412758441543,-0.14198982040448466,-0.3544624637621643,0.013734129453940275,0.04960577194417069,0.007308252064291319,-0.018789532234741963,-0.011105241565469859,1.03125
0.08897890873365058,-0.7745017863289898,-0.564806538617635,2.6076173103440823,0.1060337988441215,0.0717911822538124,0.0671868600555584,-0.49374065365479963,-1.2436657764796353,0.04815770439940809,0.17182429272283295,0.02559425767267919,-0.06574238257291197,-0.040044366326653764,1.0390625
0.04243892505199974,-0.37175364611009354,-0.2702073287145558,1.2512845052099248,0.051198143071997014,0.03372331994933028,0.032375283366358726,-0.23695389968956487,-0.5970610913653728,0.023061160698447786,0.08284883036346394,0.012278901154814276,-0.03142896642312596,-0.018994173240541447,1.046875
-0.005923782916533665,0.046605634034501485,0.03572134478398763,-0.15842222195516475,-0.005657867039897824,-0.005769628324586951,-0.003734663889090688,0.02962894655089416,0.07505908319813974,-0.0029747427568489375,-0.00954322199081088,-0.0015695414901169748,0.004155049960003396,0.0028852456036742363,1.0546875
-0.01227774074010873,0.10138610869388708,0.07593631556052137,-0.34642078916207486,-0.01318228580380681,-0.010905063325968412,-0.008459763595660188,0.06482125308120168,0.16382155376456256,-0.006360821448795186,-0.021755777687340622,-0.0033998057741995275,0.008855690028639354,0.005779068791036741,1.0625
-0.04730853378109218,0.40516081740724913,0.29777911185943284,-1.3707651617279253,-0.05467526188464241,-0.039605685373871706,-0.034645491367078673,0.25832500031892935,0.6523404728972768,-0.02526395082022083,-0.08905034864500429,-0.013433128301208887,0.0347725402668619,0.02168551843671184,1.0703125
-0.0720462611970666,0.620432165167365,0.4545914618721636,-2.0936453009820886,-0.08400111248688001,-0.05992860035566431,-0.05316729959348779,0.39491526675208233,0.9974044719491976,-0.03865531871003524,-0.136542817121019,-0.020520043700197176,0.05311729042044738,0.032930513941936405,1.078125
0.027466250479440936,-0.24046715741216895,-0.1749629306962442,0.8053564098204922,0.033205621130789224,0.021485999867342273,0.021144145217019412,-0.1537986647992503,-0.3867374149113645,0.014982224167126737,0.05395224531063221,0.007957712783429294,-0.02013079406853173,-0.01209787911452742,1.0859375
0.15210425019591997,-1.3199176558391177,-0.963960989499557,4.438407682121028,0.18013596292527745,0.12351339252007162,0.11428011467387088,-0.8412269701128152,-2.1207054111086863,0.082230638476369,0.29253666894244756,0.043643898551548495,-0.11199457839496364,-0.0685281768346985,1.09375
0.0928975803971812,-0.8079950655750399,-0.5899812837132016,2.71795049003372,0.11055838826399098,0.07505939468773878,0.07013594982158983,-0.5151925484481096,-1.2970879863295401,0.050352691586345553,0.17918640867024577,0.026724840005889747,-0.06853221584074333,-0.04175501358894505,1.1015625
-0.07651567236886744,0.6584168188097324,0.4815811412315434,-2.212757463276157,-0.08889190418784002,-0.06363181069438514,-0.05634438531255126,0.41855360073524017,1.0597889470838517,-0.041017359938418756,-0.14506498919235294,-0.021749288099729105,0.05610850047826127,0.034901280072097654,1.109375
-0.09799393613704685,0.8441859908780314,0.6176660892292348,-2.8374086602893205,-0.11421912461240169,-0.08126222549591429,-0.07239714160105455,0.5370445241541126,1.3588399315051516,-0.05266724508010225,-0.18613896268321226,-0.02790563387150248,0.07188503046184136,0.044611729640011595,1.1171875
0.01686373381518221,-0.15011429947115268,-0.10846748704745501,0.5050208955130452,0.021025210330579205,0.012706959260869463,0.013325553053020604,-0.09602481233185159,-0.23895780834668903,0.009229729696751761,0.03369045839147075,0.004952084545387559,-0.012663402070782315,-0.007356775917288367,1.125
0.03969307188840323,-0.3467774613222003,-0.2522638621658747,1.1651778400574502,0.04799753889228969,0.03141866974620154,0.030316640067447796,-0.22200682828194154,-0.5572839384227649,0.02155197877981372,0.07737602831251035,0.011475462657862213,-0.029415710153298278,-0.01765327969791748,1.1328125
-0.03890292093779925,0.3347713851155544,0.2451882511061627,-1.1267816231743175,-0.044476955546339667,-0.032797911768246577,-0.028392202582395255,0.2111239656495043,0.5349533309504032,-0.02082554770805465,-0.07297505816740131,-0.01102550088761664,0.028498868293848838,0.017931329232487383,1.140625
-0.03937283842120543,0.33840418883510487,0.24753268719548788,-1.1388791588608098,-0.045092742332817314,-0.03307665277280271,-0.028700004845910173,0.21384640112763023,0.5409945004018757,-0.021091225388395436,-0.07373883276330087,-0.011155022330611225,0.02884313401076739,0.01810925384626335,1.1484375
0.036330286860844545,-0.31853127733348763,-0.23223975720784898,1.0703819896672186,0.043948418200838675,0.028867698328182402,0.02788173955271356,-0.20330647504489335,-0.5117847435382332,0.019764771707385245,0.07121622747662965,0.010530847846992947,-0.026919135036256554,-0.016197061579320705,1.15625
0.04466564206779745,-0.39117456653060967,-0.28492433641567055,1.3156190313345013,0.05377572406692255,0.03558545121985228,0.03410241941400734,-0.24931402979178874,-0.627231141892729,0.024336158559257897,0.08710352598153596,0.012926408269260026,-0.03304735244977468,-0.019972670824360817,1.1640625
-0.00704779310613745,0.05728783333258723,0.042982136354201644,-0.19250183539498167,-0.007079800453641959,-0.006793949458698518,-0.004549737950667939,0.035754610873962964,0.09259542149056897,-0.0035237863105983354,-0.011984756304634664,-0.001892715106218389,0.005072427980188408,0.003464359536564679,1.171875
-0.024493761008654944,0.20831984373054066,0.15347608655643272,-0.7037021340853136,-0.027724709864603986,-0.02104255170484793,-0.017575479107419266,0.13221087571578724,0.3358279078361225,-0.012975930715906399,-0.045408084029116925,-0.006907586422948874,0.017949365136238103,0.011383111125335413,1.1796875
-0.024047654882015164,0.20323795946160267,0.1499128090118646,-0.6905312818295832,-0.02735657842034963,-0.02065315628911304,-0.01720788850910241,0.12999281507576352,0.32990103196350024,-0.01275601960281017,-0.044489993159321596,-0.006772464627491666,0.017618188759219135,0.011171644126485844,1.1875
-0.027782307309094447,0.23492487912653662,0.17323027240849678,-0.7973900174318506,-0.031768590457412454,-0.0237338369765414,-0.020008388193294816,0.150527158076599,0.38148763570538935,-0.014730346665575789,-0.05159813647564345,-0.007822301252352858,0.020359943959650656,0.012838764908834243,1.1953125
0.022980654686152777,-0.2037818145287697,-0.14716454786959898,0.6799754486149298,0.02811269529049936,0.017788069248597008,0.01782105492406389,-0.12939517690141852,-0.3250740619523751,0.012656295080379805,0.045474914269668806,0.006700866284873006,-0.017006404328490887,-0.010137243427025168,1.203125
0.0830986792713516,-0.7231659800357706,-0.5267487095403229,2.4275155785127707,0.09898378961820539,0.06699818713229998,0.06265974632809099,-0.4608360908121603,-1.1611589955262545,0.04501563199683998,0.16042139392228796,0.02388824750306771,-0.06127196357989696,-0.03731668685259225,1.2109375
0.004423363042662913,-0.04149775611841309,-0.02921426001177862,0.13622662097461988,0.0064015628387453375,0.002637394358421605,0.0039556952745614165,-0.02743913936313292,-0.06651969570426687,0.0025432641363873055,0.009865974740012077,0.0013755284445203856,-0.0034007199235151398,-0.001688638245864133,1.21875
-0.16161720154951506,1.3962539564865504,1.0206206483619609,-4.694599244901307,-0.1890053042779595,-0.13321331397816663,-0.11992832726970933,0.887361872230596,2.242604085018088,-0.08695993065026063,-0.30778456725407694,-0.04612188809175336,0.11875921305771692,0.07343100043599626,1.2265625
-0.16699612556665805,1.4431104971661657,1.0544828635906078,-4.846908986316281,-0.1952617176054658,-0.1375891341022914,-0.12387978194467339,0.9168901789870637,2.316575159223892,-0.0898116111242132,-0.31803185185374344,-0.04765106490223236,0.12268076965828109,0.0758178236750021,1.234375
0.03532150318493349,-0.30820473885822675,-0.22524009370083525,1.0443797197949627,0.04289284746371279,0.027965436173384275,0.027177466707921927,-0.19794327425582234,-0.4976836567788338,0.019257681523502455,0.06906818362292551,0.010240700814998904,-0.026198951471212064,-0.0157459933001928,1.2421875
0.19917690746633507,-1.7268363267783358,-1.261694421027483,5.8120613604814215,0.23565690848755802,0.16201300376145508,0.1494574038556086,-1.1006557442616616,-2.7759627741659356,0.10753459229324973,0.38256190036773124,0.05712018914604118,-0.14670216213089593,-0.08985115000045071,1.25
0.16273813613196042,-1.4121150375585017,-1.0312590117500544,4.748036218074933,0.1926325925276121,0.13218031005502762,0.12218321339119245,-0.8995853914588868,-2.268165095636845,0.08785890977529291,0.31287176511526904,0.046685479264900534,-0.11982282236298156,-0.07332837563560035,1.2578125
0.04334153428881452,-0.37960310222888355,-0.2762445609731667,1.2713139179407136,0.05204551100708134,0.034508603235871835,0.03302846418157585,-0.24154789287330558,-0.6072202348770478,0.02352845032835193,0.08447906492503714,0.012521843252783861,-0.03199287277478413,-0.019313564333330147,1.265625
-0.009362287109090872,0.07638343621492966,0.056904033901179506,-0.26210158380023924,-0.009941065240294266,-0.008588046454942532,-0.006274040134183143,0.04873107409479083,0.12523917651279473,-0.0048454668199269186,-0.016365118300403533,-0.0025479846517377264,0.006725964289257799,0.004512542205326704,1.2734375
-0.017866217263560677,0.15097763247649917,0.11098036705322868,-0.5092488458734458,-0.01986410970612319,-0.01556371269412182,-0.01259377997080861,0.09543995569032858,0.24264982868298307,-0.00944217465784286,-0.03269749169623786,-0.004978296103669679,0.012984796310675601,0.008361837169974453,1.28125
-0.04767729160306043,0.40967969231423534,0.3002712338632435,-1.3773806669351547,-0.05490118119187572,-0.040025405763414346,-0.03488210092213739,0.259752723595593,0.6570203050791518,-0.025525070728996634,-0.08977823393900483,-0.01352233594938771,0.03495156123027253,0.02185619721957396,1.2890625
-0.06182399313922005,0.5312139360333518,0.39006115603266767,-1.7896011331739492,-0.07158600829324967,-0.051677251489608465,-0.04549140968216906,0.33780886452054815,0.8544040347755056,-0.03311164366907744,-0.1168488442411041,-0.01758215914750102,0.045348133451485695,0.028252676175406093,1.296875
-0.028584952091115404,0.24223046351189723,0.17937838649737922,-0.8229809864744314,-0.03256054661329958,-0.02449860848845554,-0.02068585415260724,0.15464325296723583,0.3927989875760429,-0.015149611905059483,-0.053251110047197,-0.008067288264393001,0.020875043548813803,0.013218282937403953,1.3046875
-0.03484880658046845,0.2965816713651166,0.21850998845580133,-1.0062776397273991,-0.03997464062513795,-0.02957425804073978,-0.02533134139834203,0.18906520330006754,0.47988009157960987,-0.01853248852139155,-0.06521477564111565,-0.009853102172826039,0.02551509695569691,0.016069932229805284,1.3125
-0.12982563982110748,1.119915160511525,0.819197921642773,-3.7698189283524366,-0.15166191648137622,-0.10722822182314587,-0.09618481801078387,0.7122605669101727,1.8003933059729893,-0.0697542176362785,-0.2468673097892134,-0.037030576251926885,0.09541325221519337,0.05904782558267869,1.3203125
-0.170002636142531,1.468553112205802,1.0733596092234252,-4.936837704601278,-0.19882551504076895,-0.1400552816549496,-0.12613848228895483,0.9335033065339744,2.359038709157474,-0.091413744888305,-0.3236821167743075,-0.04852596868570986,0.1249395621884737,0.07721321407143501,1.328125
-0.025802939195499724,0.2202479113055919,0.16112369066894922,-0.739131890301547,-0.029156038491680372,-0.021992217347043336,-0.018502438761834224,0.13906336442008532,0.3535953029903725,-0.01368572622230586,-0.04779172196358226,-0.007259906292517657,0.01884264206142287,0.011954362672238188,1.3359375
0.16651035989947602,-1.445239615365688,-1.055407555053977,4.857256349911642,0.19701237329135865,0.13543464298616592,0.12501017924096705,-0.9202086249301951,-2.321203668763906,0.08996668818158268,0.3201509761382774,0.04776728808636369,-0.12259346741508652,-0.07507690854284042,1.34375
0.1994386359104199,-1.7309705945124776,-1.2635906182825396,5.816731558862529,0.2357319967840519,0.1623439060015029,0.1495754847387866,-1.1014948272795566,-2.779525462789407,0.10771983551508463,0.3831836727747219,0.057184285089700124,-0.14681704391117562,-0.09000169873879554,1.3515625
0.10753990797853331,-0.9350539628572838,-0.6820529638258157,3.144895997951006,0.1277506076705892,0.08702816428975765,0.08101041700946313,-0.595499146215874,-1.5018242189699247,0.058183617780647116,0.2073326975529758,0.030892139323604597,-0.0792864642658304,-0.04843064946453818,1.359375
0.035658435524449576,-0.3113884707765508,-0.22703907137348064,1.0527070294897853,0.04329585837303055,0.02813082669872511,0.02736197660282621,-0.19981406541074828,-0.5022618635704992,0.019391911341031198,0.06965830943612368,0.010335524541898363,-0.026434833072384263,-0.01587458903912461,1.3671875
-0.013905460124732566,0.11852840274138711,0.08669572835660434,-0.3931687367622827,-0.015077814465150767,-0.012428325038757532,-0.009679913451361178,0.07333358336847587,0.18752393309623666,-0.007373894547384379,-0.025313895940594862,-0.0038395141083809588,0.010090106807578087,0.006598627459416685,1.375
-0.056619383248061685,0.4876417373838461,0.35674321101385087,-1.637597441097693,-0.06542243064079765,-0.047363452640323885,-0.041578379810732466,0.30888913568367193,0.782298452075033,-0.03037900972985134,-0.10701803302068276,-0.01606382967187352,0.041530431695495265,0.025933177907269185,1.3828125
-0.011746841757550709,0.09799625553809538,0.07253186982522498,-0.3292210750193925,-0.012601883587598723,-0.010626920731776922,-0.008030979169076873,0.06169567697518875,0.1583551539682884,-0.006138176342017553,-0.021023164012291394,-0.00323206269288998,0.008434696448753005,0.005593066934726887,1.390625
0.06977866566652523,-0.6083905485530182,-0.44342618222559366,2.045052782280128,0.08332926168117812,0.05609735628856768,0.05285956160301915,-0.3874682763141999,-0.9756819093218647,0.03781607551802878,0.13505103185345127,0.020087380383601774,-0.05158502928739142,-0.03131934944504038,1.3984375
0.0011783093788522764,-0.01467371680974764,-0.009539049280237221,0.04638141324713798,0.002504876256433201,-7.518934604068226e-05,0.0016214248255514232,-0.00947102919275952,-0.02108431552148509,0.0008302091223791343,0.0037879772985688976,0.00045375550345012644,-0.0010393049809750109,-0.0002498354527393607,1.40625
-0.16652935927374293,1.437243306926655,1.0515043147985137,-4.838603239644592,-0.19491478549758137,-0.137357404020357,-0.1236117507688117,0.9144413698887273,2.3122131812385,-0.08953813578464699,-0.3171118197980437,-0.04753935856508027,0.12243362164959189,0.07568550728469259,1.4140625
-0.17896925355885784,1.5453106123755531,1.1306294523514056,-5.204571185607405,-0.20956777782020392,-0.14747343031461668,-0.1329341264300927,0.9830412092466732,2.4849924557697465,-0.09622497308849001,-0.3409036153136423,-0.0511120953411669,0.13162151121432114,0.08132842487039213,1.421875
-0.0427991843469295,0.36683494502765834,0.26953711678767317,-1.2436259838329937,-0.04940369593533342,-0.03589902887199523,-0.03133257605998025,0.2332952810872257,0.5900313090486476,-0.022878167463160855,-0.08037289924436107,-0.01215686765346958,0.031470450325178666,0.0196839661370366,1.4296875
0.015645335529381327,-0.13916400689371236,-0.10054639972211944,0.45984174402598954,0.019313522713624295,0.011984152321652545,0.012292554459296211,-0.08836337310871413,-0.22346008252616456,0.008581554515315124,0.03141602530569031,0.004584057971102477,-0.011514133884763186,-0.006798351803142769,1.4375
0.009192017410776418,-0.08349555767544535,-0.06044116145286939,0.27884460112290194,0.01185796301971094,0.006651066185965089,0.007571033439382717,-0.05320968099137911,-0.13388828925384277,0.005159921267466697,0.01907354993323986,0.002770217486463389,-0.0068411225184805205,-0.003906694886022873,1.4453125
0.09938483880282638,-0.8645107706484297,-0.631214220123292,2.9090622825963326,0.11819565271791997,0.08042614664851104,0.07500289227726266,-0.5506951925379959,-1.388732304956583,0.05386043640546482,0.1917032942184789,0.02858907061494782,-0.07331103089982226,-0.04474535940950451,1.453125
0.18251839028093658,-1.5846307961318358,-1.1567846129642783,5.328675101454541,0.21604102932783611,0.14844614688700705,0.13705988753428355,-1.0087185305592397,-2.5450692207624694,0.09866990078381482,0.3507936601803717,0.052361261823807875,-0.13451305014324957,-0.08237665504924625,1.4609375
0.07245395966236312,-0.6319650085213157,-0.4603006598356403,2.1242500977572583,0.08648107676335723,0.058280210062927995,0.05484546155916517,-0.40226424168557556,-1.0134413630423798,0.03929013111163966,0.14014773968447328,0.020859074581514356,-0.05352732716675071,-0.032553365547755425,1.46875
-0.09650158316240602,0.8315587592755062,0.6085033490894737,-2.791996377469159,-0.11219746234384322,-0.08011398939436475,-0.0712790703480051,0.5280794901216748,1.3371202398881556,-0.051799726200337626,-0.1831805576667987,-0.027474731244116767,0.07075122477141617,0.04393781195592986,1.4765625
-0.09059465934816044,0.7817324025351658,0.5713815322327145,-2.620641638164353,-0.10511911042253654,-0.07528583208152953,-0.06686686585822917,0.4952029347409558,1.2545867822749182,-0.04863327586601262,-0.17186467160244695,-0.025783348051645418,0.06640575555023746,0.0412910321843154,1.484375
0.03726648155368244,-0.3247831836655129,-0.23694127433934148,1.0955548993674586,0.045158349885565593,0.029465561952141013,0.028503926126449766,-0.20860136307760027,-0.5242905062133896,0.020218766384570232,0.07281624553906843,0.010779741934298053,-0.02755415413979949,-0.016559950667536915,1.4921875
0.10571668587222972,-0.9179301489502874,-0.669705460367675,3.0831309070095627,0.12542989236211335,0.08556686102238002,0.07952204780630294,-0.5849492021507989,-1.4760659949970398,0.057064727079467505,0.2037797936790669,0.03034735664540015,-0.07780430536490605,-0.04753208145564978,1.5
0.07779874692556053,-0.6767714940517652,-0.49339719554328787,2.271460082151338,0.09257709366415784,0.06270137167219285,0.05871122993784906,-0.43131391575019823,-1.087067839967949,0.04205785840611951,0.15033405688241036,0.022366231408769616,-0.05730461768563225,-0.034895336920875784,1.5078125
-0.015681139610031328,0.13217627665086193,0.09747128808704632,-0.4463638937650207,-0.017299545852732346,-0.0138598080792064,-0.01098955790557268,0.0831785702564137,0.2138091090061945,-0.008255601741262195,-0.028550026486493546,-0.004368539162176415,0.011365664839237472,0.007408205612838857,1.515625
-0.1417493742900151,1.2230969407917276,0.8947775448813252,-4.116155499595804,-0.16573789571571929,-0.11705099641633972,-0.10508794427050211,0.7779535147881053,1.96786799428419,-0.07618541586017806,-0.26980117562495415,-0.04044422841063415,0.10413574725023214,0.06445816711340109,1.5234375
-0.18582026757889555,1.6043681272587544,1.1736296435525109,-5.401170602824698,-0.21775141818773378,-0.1530575721899088,-0.13802154620920656,1.0212915556692097,2.5807203193668418,-0.09994196756114823,-0.35414350806452294,-0.053061262513189454,0.13666692885122766,0.08439762726888464,1.53125
-0.071522237695045,0.6151560523721319,0.45049416636062134,-2.0734772914677504,-0.08314388223336651,-0.059396515153985446,-0.05267314944493891,0.39144857313314785,0.989669271692857,-0.03830780930574959,-0.13537757684792598,-0.0203470075403354,0.05257767219850086,0.032651914096525,1.5390625
0.08018139518197634,-0.69805278400534,-0.5095580759338764,2.3460377022662637,0.09559063624008021,0.06485047496030787,0.06064946038809175,-0.44480194134734685,-1.1217485560798817,0.04349179039328217,0.15500067115489047,0.02307804347359175,-0.05915065180268516,-0.036041535913155204,1.546875
0.11834860770074791,-1.029034814263853,-0.7512878809754953,3.4594754744684164,0.1404917805700728,0.09606495118807601,0.08916856428150294,-0.6550034461406938,-1.6527002328677989,0.06406073028585363,0.22804958087632754,0.0340033293095824,-0.08729358446844161,-0.05334376410197071,1.5546875
0.055685133741524104,-0.48691899136361444,-0.35471130983307214,1.6343938794553117,0.06660977330647166,0.04465703994875796,0.04234254234931396,-0.3094617012636235,-0.7802095453665581,0.030258484771630647,0.10808287036869743,0.016064147514289376,-0.0411395294689176,-0.02496559211152258,1.5625
-0.030789172609460756,0.26242335709186687,0.19284592583116147,-0.8856509499009219,-0.03513204668215151,-0.02623529150101504,-0.02227757201141414,0.16679556358197098,0.4230404079098571,-0.016393768672684415,-0.05741927410643105,-0.008687182284742691,0.022537954300126926,0.01422404749780638,1.5703125
-0.08974416756472449,0.7740193051854696,0.5664100840896316,-2.6039199217084894,-0.10440696834512829,-0.07452829856180324,-0.06634463866594556,0.49133860411925007,1.2425597769843912,-0.04823108420641784,-0.1702431950376815,-0.02555932272313512,0.06592663457865913,0.04093267205871823,1.578125
-0.04581369846890253,0.39410304561731463,0.28901316646555353,-1.3250097189334877,-0.05273997024537179,-0.03857740579533998,-0.033595530212190625,0.24950447433875855,0.6308791100051822,-0.024585233040578244,-0.08624248614494445,-0.012993306822658425,0.03362428723955691,0.021027020652869658,1.5859375
0.1000311375883258,-0.8692312860863797,-0.6335598541279855,2.922931310982218,0.11884210988990274,0.08075462369110559,0.07528128400450236,-0.5538886981966741,-1.39754359698492,0.0540640827114675,0.1928094543570485,0.028734540837351226,-0.0736838759794378,-0.04500467651594794,1.59375
0.16732415424668573,-1.4526755989795943,-1.0598885995252463,4.884367379850507,0.19814924455656918,0.13580303151210163,0.12558347709108766,-0.9251462599948731,-2.3326642180142025,0.09039671312494123,0.3216899722909513,0.04799543366985659,-0.12327837543290165,-0.07544539130185104,1.6015625
0.04619927221989907,-0.4040503354173913,-0.2944187429779047,1.3580777870801752,0.0557261406888384,0.036740873234211484,0.03522626876297959,-0.2583229095741653,-0.6473099706773989,0.025123904093828243,0.09002438921245288,0.01335226603649895,-0.03423632205449761,-0.020598308002247916,1.609375
-0.08543159911484659,0.7362145070677736,0.5381074039107108,-2.4758985957958606,-0.0992590166305751,-0.0708542273732811,-0.06303072031236252,0.4671161668605157,1.1834034796277504,-0.04583580843832534,-0.16192814521349289,-0.024302333738499507,0.0626493227754605,0.03897155498492979,1.6171875
-0.05223533140551715,0.4489665180088076,0.3283609774883196,-1.5088528463270485,-0.06031918504262205,-0.04362328282971277,-0.03823829046133333,0.2847354914249846,0.7213183553004717,-0.027921282104242964,-0.0985276218515458,-0.014810616955809507,0.03828219686391259,0.023909248776205434,1.625
0.019821438779832473,-0.17572990520204393,-0.12743670779665403,0.5923892747046963,0.024479274035860147,0.015311697927292676,0.015618163546505416,-0.11207919135256761,-0.28089415184851796,0.01094473165023789,0.039405748575067505,0.005789192054363301,-0.014773760970146087,-0.008741755349253729,1.6328125
-0.03775890274060054,0.3220510861731922,0.23670577110463606,-1.0839219069357953,-0.04330529290773426,-0.031837333236189265,-0.027336040311846693,0.2052617684900827,0.5202107349291888,-0.0201124636922731,-0.07066533817405014,-0.010701278596292869,0.027564012348200335,0.01731466265641212,1.640625
-0.1196001871273791,1.0311094364158413,0.7546514049593437,-3.472747360408384,-0.13977308835746094,-0.09879210578475828,-0.0885200304061397,0.6564429534217394,1.6586793750311988,-0.06427326816572415,-0.22733530554952922,-0.03412077547986863,0.08788672386999809,0.054401166522301474,1.6484375
-0.06488734308513959,0.5585257647268603,0.408894287976863,-1.8850166477195303,-0.07544281241636981,-0.05403064133347336,-0.04779252002488871,0.3550035371156589,0.8977729065779531,-0.03480652667542547,-0.12278873050280635,-0.01845532071791279,0.04774136274469981,0.02969944902271675,1.65625
0.0432528088831695,-0.37727375533227875,-0.2751942318120711,1.2656925015397174,0.05201061768210464,0.034401469557552286,0.03292426047086586,-0.24126678608010835,-0.6065866952318565,0.02348378124354715,0.08416155816850879,0.012501225184677186,-0.03186670289798031,-0.019230780660816172,1.6640625
0.05690542648967012,-0.49573006941426284,-0.3617476732763999,1.6684813583893439,0.06827686517416688,0.04555722237208765,0.04318115848230517,-0.31685183178927234,-0.7973285273576912,0.030854971608771067,0.1104435148902341,0.016413731120716413,-0.04200805770185271,-0.02545285935944583,1.671875
0.021621317312020404,-0.19050945554159537,-0.1384669236012459,0.6417497873315278,0.026731459720998982,0.016740322333886996,0.016860724874763065,-0.12232382021855415,-0.3072499650852421,0.011855911222343272,0.042984404847829116,0.006310455095671748,-0.01604697791545223,-0.009520295063756436,1.6796875
0.027952303443561942,-0.24545504103949461,-0.178259996721415,0.8227524937272757,0.03404455986506437,0.021949710124723434,0.021533365656095732,-0.1568787211345025,-0.39487529604076466,0.015268743684787077,0.05500576408878557,0.008111661966138646,-0.020656725620002106,-0.012376436518090398,1.6875
0.024608459705539515,-0.21679874132304114,-0.15707844527217577,0.7243401999994221,0.030019015863997116,0.019159037932409848,0.018985916834816177,-0.13823378703180014,-0.34732503302001033,0.013430613536784094,0.04850419664746133,0.007158694809591961,-0.018194136111044073,-0.01084306592718963,1.6953125
-0.015868927965694474,0.1331525597331488,0.09868333438229202,-0.45173185283874334,-0.01766412670397934,-0.014021547107799548,-0.01121512485801716,0.08491443993566447,0.21603283969995898,-0.008401157206718942,-0.028978771904642407,-0.00440600071297106,0.011567453271833146,0.0074665621927704024,1.703125
0.01703358806520271,-0.15214657118438724,-0.10977015062793032,0.5084219240632775,0.021063589988868613,0.012917448770847247,0.013421590496463177,-0.09637386137057792,-0.24211379044029954,0.009393216349063097,0.034007362809274216,0.005016742516953645,-0.012661475466846662,-0.0074497290345543225,1.7109375
0.11724318270175105,-1.0196548617506553,-0.74366647637124,3.426236611711447,0.1391257182004072,0.09496012034083204,0.08829655076549786,-0.6487906831085025,-1.6364549687833496,0.06347170570919923,0.22581119189151058,0.033676703172905685,-0.0864422052771152,-0.052809000309410443,1.71875
0.0668568002793871,-0.5825676257320758,-0.42462932850373447,1.9591903934189767,0.0799954902329632,0.053711383222022235,0.050692710071557595,-0.3716575344565777,-0.9356571968139021,0.03629252194387959,0.1294429669414718,0.019242345662156324,-0.04941087671176294,-0.029988991411155012,1.7265625
-0.17212428900835466,1.4873439772172499,1.087163141052604,-4.99787957361871,-0.2012338984697423,-0.14190095219538917,-0.12772568400133869,0.9447301768459132,2.3886701401117336,-0.09258051233083137,-0.3278225454409543,-0.049138858563259405,0.12645386050336382,0.07818531679258024,1.734375
-0.277648543893915,2.400675499620035,1.7541775579563232,-8.069724034374874,-0.3255402069251049,-0.2282347604452342,-0.20648996365486336,1.5261805893306475,3.856688015209368,-0.1494628320416708,-0.5297029487639434,-0.079324731347408,0.2041397999666363,0.12594145749455002,1.7421875
-0.05730069237797109,0.4917837889881531,0.3598289352137116,-1.6550602571290536,-0.06627714627653328,-0.047819415434998444,-0.041980153483242036,0.31238708947349697,0.7916451479231513,-0.030658316322595004,-0.1079945729737237,-0.016273074212275754,0.04197846423422392,0.02619547981289723,1.75
0.20309236261835442,-1.7632186264927348,-1.2871284304729151,5.92606144636761,0.2402568076332461,0.1653209970723955,0.1523837132561798,-1.1222026481263296,-2.8308257705490423,0.109699737853912,0.39030317225253747,0.058238534744111295,-0.14969427862809065,-0.0916780528683399,1.7578125
0.19372874592072073,-1.6815468172058425,-1.2272115194863231,5.654847400917476,0.22933912323413727,0.15758121324659055,0.1453469996936468,-1.0707651392462292,-2.700949009335151,0.10463261151787329,0.37231864557400457,0.05557098867222182,-0.14282678870136575,-0.08744618120981205,1.765625
0.043694724120971536,-0.38154250669203865,-0.2775858407405616,1.286058810335662,0.05274019028473778,0.034686180394886953,0.03330082876508089,-0.24411821773589232,-0.613693900556481,0.023749939387509262,0.08508735315125081,0.012640050241318318,-0.032348672377129115,-0.019511202759553346,1.7734375
-0.006402785067895841,0.0531059146244565,0.039691231679907055,-0.17866830811266732,-0.00641217754178489,-0.006338078115175742,-0.004156756881453446,0.03241065657233996,0.08403788129803035,-0.003282714830392306,-0.010927393512231374,-0.001720986828428952,0.004684915156468837,0.0032317729115323617,1.78125
-0.0235389420766778,0.2020512672700468,0.14829883749522293,-0.685202218754517,-0.026857575393965136,-0.02030765325605697,-0.01700255063782521,0.12753154387856588,0.32337574070216607,-0.012570768855512355,-0.0438398288818578,-0.006649633147668286,0.017467678309214772,0.011054056635554433,1.7890625
-0.12032288451272814,1.0395752305462018,0.7601104021305949,-3.503855742185268,-0.14093653047330698,-0.09944769578621027,-0.08922371707722493,0.6610980181748817,1.6702514913765336,-0.06475275046453215,-0.22905151755318057,-0.034338092666834415,0.0887126024187841,0.05485886437031878,1.796875
-0.14774432308194244,1.2752871560896597,0.9324698253023387,-4.295148708393567,-0.17309822889070206,-0.12181597493689142,-0.1095877037795271,0.811929485920412,2.0513722542494626,-0.07948015974293275,-0.2813567834486763,-0.04215855229841928,0.10871557700423681,0.06719020710098152,1.8046875
0.003190003559164875,-0.033216967790156524,-0.023175862731690255,0.10692474028293776,0.004888775338444557,0.0017878016514049006,0.003164263294044929,-0.02024492275632891,-0.04949833376430627,0.001953512727704127,0.007718542517958522,0.0010494685344852458,-0.0025823980424592337,-0.0012175366374513248,1.8125
0.14125641064677635,-1.2288672312745497,-0.8964516819609923,4.12948739147389,0.16767965297370377,0.1147968375284355,0.10623829737883274,-0.7815035659671188,-1.9713613938725048,0.07642920558204015,0.27204404624911693,0.040561443714323624,-0.10428237045621869,-0.06374322203277315,1.8203125
0.09982252228179991,-0.8691902913348771,-0.6337296867221195,2.9226251180108616,0.11893906248856566,0.08080674789616164,0.07530285386152484,-0.5534642110032535,-1.3952229328262782,0.05410970968734971,0.19267990267236773,0.02870357709677775,-0.07375374857055744,-0.04497044329015328,1.828125
-0.011033939313773684,0.09145846677024727,0.06780303979495966,-0.30556553706527095,-0.011677311739609843,-0.009998241568385349,-0.007438586691175697,0.05745085891493192,0.14718814381754622,-0.005676985233801597,-0.01957279831518166,-0.0030204901181108326,0.007881973856354222,0.005223685146158906,1.8359375
-0.05979342270502659,0.513953166419555,0.3762184537645911,-1.726081745898203,-0.06915659902341818,-0.0499085711689371,-0.043854673027833226,0.32633737602177065,0.8253589044146669,-0.03201451049347515,-0.1128913317417578,-0.01697663375187773,0.04379646438923126,0.027295262609907122,1.84375
-0.07161403122076769,0.6167809153257984,0.4514110210141597,-2.073140483501477,-0.0830992272193901,-0.05960136511611071,-0.0527550846356049,0.3915260434933055,0.9897945245254028,-0.03842478904225079,-0.135489519444676,-0.02037183399501089,0.05256473494163481,0.032671604526437775,1.8515625
-0.06295980925162925,0.5427009041078604,0.3975558649147529,-1.8252677988707626,-0.07299620152345888,-0.05263199222890313,-0.04638318689417895,0.34377560977838323,0.8703976344619608,-0.03378234918363451,-0.11899234105145302,-0.017918745684831865,0.04631040722439702,0.028818119759150353,1.859375
-0.003066347223407983,0.024441042886231938,0.018955705704530063,-0.08312674076572027,-0.002574497565504166,-0.0037099418911751385,-0.0016976978102167522,0.013719136894727289,0.03811580976720777,-0.0015126378927839317,-0.004463287571342195,-0.0007880374994790498,0.00228082764516139,0.0017505802034523145,1.8671875
0.05803617038182589,-0.5054473533312052,-0.3684669575421453,1.6986551275255997,0.06943577605646974,0.046351648803943,0.04398042022193282,-0.32304970525658183,-0.8124073430930742,0.031448571129418366,0.11247841731090999,0.016724418169887203,-0.042780296894472755,-0.025933219066257365,1.875
0.06646570646054235,-0.5795379024838011,-0.4227841645834233,1.9486217590975337,0.0795455493947216,0.05335978499445589,0.05036877269220504,-0.36970065120891366,-0.9302934285317863,0.036055976475178296,0.12867744070591153,0.019168236045403252,-0.04912691074016465,-0.029797090023686246,1.8828125
0.06662800420732667,-0.5811598166597086,-0.4238320699867554,1.9556793654727342,0.07979585652124038,0.05349657109498047,0.05053148357493828,-0.370721886206075,-0.9315715531544425,0.03616596845129512,0.12901801341398486,0.019210450501902662,-0.04930805745515844,-0.02987544395069712,1.890625
0.0585952511529904,-0.5113268842693133,-0.37268364180518676,1.7209887026041981,0.07021934230595481,0.04689848825574319,0.044513925795492404,-0.3262712649552421,-0.8188162289961511,0.03178585186636233,0.11367136111804743,0.016891551916059296,-0.043374404381038054,-0.026228922379563792,1.8984375
-0.03058928794884467,0.2607182567877715,0.19132603140926774,-0.8787174991869433,-0.03492928354323864,-0.02596906391659918,-0.022092690928956365,0.16569638536391168,0.4206633634837111,-0.016328656997425632,-0.05695833433788598,-0.008630720557269926,0.02231218234875724,0.014108652626621686,1.90625
-0.12827238325562185,1.106304694160602,0.8092112747331927,-3.7270673927204085,-0.1500461117518221,-0.10572759168797835,-0.0950344368109517,0.7046174858337163,1.7777831755317375,-0.06896368610253056,-0.24393711179198305,-0.03658461134473424,0.09428401340199294,0.058286154045942735,1.9140625
-0.0698582946391325,0.6009899868459581,0.4403279850500083,-2.0289901983789114,-0.08135791518790333,-0.057904569398339135,-0.051454087987182956,0.38308675106060797,0.9656733529375209,-0.03745151852658165,-0.1322883752193401,-0.019890341651651933,0.051385924194134236,0.031866717379949956,1.921875
0.0746920303942463,-0.6501361092264208,-0.47368530788294455,2.1809345469388983,0.08882865449214748,0.06024950517245631,0.05643920341872334,-0.4136333737501932,-1.0434247292423109,0.04046058171301879,0.1442600306171306,0.02146523607063391,-0.054971844798805805,-0.0335090529720098,1.9296875
0.0750625465949698,-0.6535614066967226,-0.47650418942933537,2.1942668243453647,0.08937933501927553,0.06046269663715622,0.05672900550937026,-0.41610366677414745,-1.0484043806468224,0.040661023405462175,0.1450019291169146,0.02159510108570576,-0.0552844589015101,-0.03365818985315752,1.9375
-0.04816465497329447,0.4132688126231035,0.30258235868055927,-1.3930307267406479,-0.05556616628156491,-0.04035898081439833,-0.03524291048722511,0.2626528109005681,0.664650922854888,-0.0257453954353884,-0.09078290746071567,-0.01364796961121793,0.035377256643385493,0.022105481984161988,1.9453125
-0.06286845819514832,0.5409793908049906,0.39571649353073896,-1.8196131847930954,-0.07275911365934841,-0.05239020816446051,-0.04620218504241505,0.3433789113701764,0.8687294249188517,-0.033665554559720395,-0.11887691382130108,-0.017856986665876054,0.04616049438370508,0.028747728412935075,1.953125
0.03692487599471727,-0.3231500706919721,-0.23560472617913839,1.0911880112821626,0.044876796734901504,0.02920173359658962,0.028320427412580503,-0.20707649975402578,-0.5193747374098825,0.020128060276599618,0.07225235122106008,0.010707830297419353,-0.027392465165434948,-0.01644307151400959,1.9609375
0.03180949705022618,-0.27964300078108467,-0.20343177166826348,0.9451865863046511,0.03894779767507672,0.024955991368834904,0.024491978942049863,-0.1792514610076422,-0.44866883785142536,0.017379259986910176,0.06263345293768419,0.00925677591603281,-0.023713226489633463,-0.014156468437294923,1.96875
-0.0848980101257566,0.7306542653255876,0.5353550928480659,-2.4577219643677286,-0.09855934446742237,-0.0705442035347925,-0.0627058034996496,0.46415636723610254,1.1744047580906318,-0.045546917280482775,-0.16072150182821568,-0.024162269328101657,0.062242468102095036,0.03867023571566795,1.9765625
-0.07703457120236108,0.6632002217056348,0.48633903792816835,-2.235293847825886,-0.08954701783442644,-0.06408732222248459,-0.056884641185346384,0.421409516676239,1.0655863066503757,-0.0413494446324279,-0.14583559869014542,-0.02195145597995817,0.05658274426724029,0.03514625600013258,1.984375
0.07918769213227929,-0.6892407602977375,-0.5021670391996571,2.3131347030898737,0.09420305273345088,0.06374536813748176,0.059789258222846635,-0.4392011930325687,-1.1067431174146865,0.04285408795545322,0.1530116075502179,0.02275105304495634,-0.0583563544662086,-0.035541707417888445,1.9921875
0.11669940133012965,-1.014403810592664,-0.7402013870349999,3.408678264795274,0.13836322442220056,0.09442273256194385,0.08785683037969058,-0.6459688442971044,-1.628431015503783,0.06310804390239834,0.22478996994889072,0.03351179135125842,-0.08599829432892515,-0.05252870225729129,2.0
-0.0313948353041309,0.2681668974493368,0.19673501093733228,-0.9027518073031292,-0.03589234304563115,-0.026740116778788244,-0.022713981066259922,0.17007271457621786,0.4314356703971912,-0.01671561790369447,-0.058605007825356735,-0.00886045665261654,0.022985825929735623,0.014491513219803728,2.0078125
-0.07823499539816854,0.6747235672360506,0.49362526906329496,-2.267744673373763,-0.09094965881295154,-0.06498438224823555,-0.057707720426892116,0.42819216584334796,1.083138464834193,-0.042000228916720325,-0.14827296084711086,-0.02227366210691437,0.05745942812251703,0.03569684633879807,2.015625
0.08993988331066217,-0.7810706276335866,-0.570321567760553,2.6293952933526357,0.10706771662073623,0.07269903456864163,0.06787599048240082,-0.49862983647551606,-1.2558444536869287,0.0486417136432219,0.17349503504026123,0.025858013904060433,-0.0663403436090098,-0.040408285619917085,2.0234375
0.16998654108464278,-1.474824233493922,-1.0772416133231961,4.961386397655971,0.20132099835583753,0.1381636389339962,0.127675345002386,-0.9398938123004206,-2.369063582847951,0.09183024839798179,0.3266374384120721,0.048778413891799814,-0.12528038223519142,-0.07662812119762469,2.03125
-0.01040318111890078,0.08621309672318768,0.06358302351403558,-0.2896171591147319,-0.01097083829373182,-0.009511969540671903,-0.00698170812747904,0.05402042522349654,0.1399858147668289,-0.005357665187640711,-0.01851245967971776,-0.0028402903337279278,0.007455211337642403,0.005002703793900361,2.0390625
-0.16444791429897257,1.4194194018574662,1.0378353996536767,-4.773171139747435,-0.19227262984179436,-0.13552191921730491,-0.12195554754945254,0.9029608433304523,2.282168987706915,-0.08837705506926719,-0.31318352484869916,-0.046923677968668295,0.12079430666918942,0.07468253406135938,2.046875
-0.0840439597864058,0.7229818872617673,0.5289883781211253,-2.432886342330858,-0.09775771887451333,-0.069640366821208,-0.0619217113098939,0.4602889957070634,1.1635170404079491,-0.04506726145875074,-0.15927876754472112,-0.023916236771173036,0.061658194076408136,0.038277915181720516,2.0546875
-0.0031874564947043217,0.023128858558483865,0.017814667146461193,-0.0840238045641842,-0.002825521857040783,-0.0035026730196444002,-0.0016602000839975393,0.015244570087899917,0.03926949889471354,-0.0015445278591443114,-0.004619086655589495,-0.0007900363099750515,0.0022988203907832994,0.0017280202429275657,2.0625
-0.08465726291057252,0.729006239667351,0.5339050688582883,-2.461119246761122,-0.09883917761118266,-0.07024901488126542,-0.0626232716384231,0.4644551654881962,1.1725728619970834,-0.045495166792447354,-0.16057197317162625,-0.02411644266029863,0.0623667474657365,0.03863594141794314,2.0703125
-0.09348858069094675,0.8054471614538272,0.5900853596296874,-2.7176618762297498,-0.10914500604335553,-0.0774433193224451,-0.06923937429315183,0.5130981796885682,1.294440797571562,-0.050233432324757785,-0.17742813422733578,-0.026640981508150974,0.06880768292490125,0.04259446299172744,2.078125
0.08461857611883397,-0.7371425771005413,-0.5366975746169278,2.471318896449755,0.10061534857048562,0.06837131442586251,0.06379771371876422,-0.46853816482384214,-1.1836004665781183,0.0458012443330832,0.16346709144334332,0.02432988568033208,-0.06238759993846416,-0.03806258444189058,2.0859375
0.17671107715036613,-1.5344616789577934,-1.1191787137553568,5.154198249273835,0.20908837652326473,0.14366108037618097,0.13257779535244757,-0.9764604129955149,-2.4638713412679314,0.0954380687368986,0.3397424108212546,0.05067414389485318,-0.13019125547232566,-0.07972167366223126,2.09375
0.059474657651818134,-0.5184972766498012,-0.3774276066264224,1.742949377028092,0.07127713151268607,0.04760189538270039,0.04506100824353595,-0.3312013317891454,-0.832676880235376,0.0322546496194489,0.11545148531469138,0.017126429615045024,-0.043917380401016,-0.026625796578896892,2.1015625
-0.023854667589121414,0.20387639003630786,0.14941703767757417,-0.678276489511123,-0.02652471891382741,-0.02058435580663646,-0.017063863851841596,0.1273331704910578,0.32559823021209183,-0.012609750468170769,-0.04398437227853706,-0.006697172187712489,0.0173174683000233,0.01106808798857812,2.109375
0.01924064540008456,-0.1691251061787152,-0.12363112442668334,0.579685017821817,0.024307631124213747,0.014723375185657011,0.01521258241781027,-0.11025436649260258,-0.2740682961346291,0.01064915724041621,0.03840187376021701,0.0056497645717899355,-0.0144837374666675,-0.008456819630742345,2.1171875
-0.009030227504730268,0.07526417330857178,0.05503156264496598,-0.24542585181596352,-0.00915613624855494,-0.008489561213856172,-0.005887922490169445,0.045773155148366204,0.12077026763706145,-0.0046176923357513075,-0.015834393543033308,-0.0024473592766125697,0.006372486861382116,0.004383521550527293,2.125
-0.11593938129625522,1.0006092236327018,0.7312591362339833,-3.3618973030204358,-0.13525903455629182,-0.09604985419619393,-0.08575331934985575,0.6351790700085179,1.6091535388067133,-0.062273284506674534,-0.22047718575162134,-0.03304882749081416,0.08517414134042176,0.052818591548903886,2.1328125
-0.07677614747156579,0.6614298564538187,0.48351689317908575,-2.2241236450950015,-0.08930694092910169,-0.06388741084393333,-0.05654170612925606,0.41981246077605755,1.0636179208591379,-0.041173475322535284,-0.14549011113049926,-0.021845743414425998,0.05641315549245146,0.03507216799121883,2.140625
0.09344896924715496,-0.8126500509284408,-0.5929748966689943,2.729188582601707,0.11097348664230518,0.07559221281287488,0.07049584591719651,-0.5175227300988026,-1.3055050097053718,0.05054209070724022,0.18030487652757632,0.026852426612612453,-0.06885301689064376,-0.04201721042407643,2.1484375
0.13961010046676964,-1.2127943976907525,-0.8845491342007634,4.070081595596229,0.165203140217991,0.1133931356472136,0.104858102365947,-0.7713528836236735,-1.9477245292601402,0.07537126025253645,0.26861592562390013,0.04005209274917431,-0.10279233494865524,-0.06291704000109977,2.15625
0.01214510999521479,-0.10946185486280334,-0.07821394104256277,0.35911502432461084,0.015135356547108486,0.00900599351788673,0.009640524251346825,-0.06894133111730526,-0.1744272690052773,0.00667395385758794,0.02463360136678637,0.0035923003899571587,-0.008959725640323955,-0.005222201120434651,2.1640625
-0.09590158191094324,0.82609609382551,0.6049890562545827,-2.783502818428892,-0.11193328519150969,-0.07942529305534278,-0.07097958320772686,0.5261511172331481,1.3283246771659565,-0.05150798683383403,-0.18213603578382334,-0.027308019114595895,0.07051099669673709,0.043661453437891774,2.171875
-0.08226538771857317,0.7078563535810634,0.5186004531498537,-2.3848142733602646,-0.09575540595926108,-0.06823073073468326,-0.060734806321852415,0.4508349149887173,1.1389545481768941,-0.04412769576080368,-0.1559804213025199,-0.023416889465005954,0.06039704479770378,0.037481229433051495,2.1796875
-0.015020619708225448,0.12499399885523056,0.09310187188710316,-0.42727078272429186,-0.016580316579012273,-0.013223395826729392,-0.010496437447941038,0.08023945146997671,0.2046019784938128,-0.007875538638230612,-0.027254391353986582,-0.004192540166353712,0.010872883405287057,0.007068849751773889,2.1875
0.021733532735520464,-0.19325104826761233,-0.13973332263470434,0.6440631524426628,0.026706767971593368,0.016801638645726605,0.01698799351766135,-0.12257831081189527,-0.30649331009190656,0.011958969021380675,0.04307360144950944,0.006336545463661734,-0.016176721749159167,-0.009547128379016877,2.1953125
-0.0015585536699161031,0.009860999573774523,0.007523924579965072,-0.03182153339867672,-0.0005416242353413345,-0.0022644181299199193,-0.00036833309349089936,0.005162628103577165,0.016186065988108737,-0.0005892441770430173,-0.0014654724352727128,-0.000304460183167367,0.00095686288684401,0.0009939549805219328,2.203125
-0.04729567746655332,0.40752070092284076,0.297318541954878,-1.3636314195240857,-0.05418888124018794,-0.03967345390255173,-0.03455171270439547,0.25674386679461647,0.6512212659084956,-0.025288032162757247,-0.08888869896134549,-0.013394364075525902,0.034613436682111386,0.02169792338125808,2.2109375
-0.03376680560985538,0.29040885838536934,0.2120913040474322,-0.9710666573865352,-0.038292757330099965,-0.02860852304201285,-0.024494189677498616,0.1823529561453658,0.4631873992363899,-0.018032863061822,-0.06295930018296614,-0.009541610480283102,0.02468074859643698,0.01557835990848744,2.21875
0.04127739088474957,-0.3606108711223002,-0.26293027894082605,1.215105670869304,0.04982714802804924,0.03279089035405043,0.031575318292619184,-0.2306500575521638,-0.5800497313441524,0.022441485093164307,0.08056709358694525,0.011931197219387013,-0.030521912000294037,-0.018409162775047862,2.2265625
0.07275492074461638,-0.6338624117829241,-0.4624158363761607,2.1335428587228042,0.08673888734393718,0.05855725133041818,0.055127676652225344,-0.40384022291156224,-1.0177515018732666,0.03944259693975873,0.14073229267654017,0.0209502674660036,-0.05368070129108487,-0.03268256472648613,2.234375
0.024678288560431617,-0.21739495194605685,-0.15805651409824512,0.7319995973088577,0.030160560074788713,0.019215448904368944,0.01918002236152229,-0.13901195166765562,-0.3489219916188598,0.013523435349235167,0.048748951749247316,0.007191217866967299,-0.018289972470001335,-0.010911609511197162,2.2421875
-0.008189164438157573,0.06704373858027822,0.05028142865230576,-0.22909846783214163,-0.008537137687902707,-0.007697763813907432,-0.005453256824257126,0.04213802821310882,0.1088000734109366,-0.004205501183435087,-0.014148647285613939,-0.002227739110130016,0.005920901051707909,0.003996014668290949,2.25
0.020361488288176098,-0.18089166068264595,-0.13025622208931695,0.6000407660204129,0.02495159082606919,0.015660721455649597,0.01583742172365283,-0.11480692413535379,-0.28783367793956,0.0111814011949429,0.040402256696791795,0.005934607338476279,-0.015066420242517833,-0.00891876995286076,2.2578125
0.04190831766384049,-0.36759612982589296,-0.2665051656560005,1.2271634109718061,0.050232416542423275,0.033298204521998394,0.031920560791829096,-0.23325020987621387,-0.5876600920020777,0.02277499970750075,0.08157330635865315,0.012098909418904428,-0.030894411392978993,-0.018679613882052946,2.265625
0.02349848612759291,-0.20740006281893045,-0.14966928299905669,0.6906624725784205,0.028646269640020997,0.01820478181953786,0.0181283798880877,-0.13201578488024404,-0.33206349394088464,0.0128299558793413,0.04636724865047116,0.006828250518514892,-0.017323925703359846,-0.010338144766906556,2.2734375
0.0076134377647144435,-0.06916276162379498,-0.04900069195229321,0.22856377762157937,0.010128243020496178,0.005144363797722964,0.006259576329819663,-0.04498493139265146,-0.11136391017810993,0.0042864398178549265,0.015991940817486477,0.0022866443081831526,-0.005671059146705611,-0.0031289325965306192,2.28125
-0.0015102611601284113,0.009873817882580937,0.008231288730799959,-0.03446420038187397,-0.00047996492824354387,-0.002339673878938305,-0.0004563681420913445,0.004962112277426647,0.0157493948994421,-0.000608110451653565,-0.0014834578237172555,-0.00030916950710746527,0.0009384894550954585,0.0010040883579309496,2.2890625
-0.03477621808561509,0.2977594439831174,0.21793341459257862,-1.0000009035504807,-0.03959607281712243,-0.029477653226943307,-0.025177846442109363,0.18821698249605368,0.47891950478528533,-0.018557833957947408,-0.06509905781875257,-0.00981800378854963,0.025326359044774746,0.016044349696177507,2.296875
-0.07100835129602012,0.6113751905951978,0.4466779378865057,-2.0526092854973754,-0.08223937563040412,-0.05899148648589258,-0.05217045313964996,0.3878689324092738,0.9829995076342462,-0.0380923109024328,-0.13428770153921102,-0.02018987060708655,0.05196681431116959,0.03241049292811681,2.3046875
-0.07540658845189847,0.6492714283039609,0.4743044964101562,-2.178472825944152,-0.08742637717470847,-0.06252039158063058,-0.05542302609204214,0.41208823937870886,1.0434725151202962,-0.040408253874302975,-0.14258729327403716,-0.02145142209853505,0.05523022813714707,0.034359396790246535,2.3125
-0.06269051512656622,0.5391893578331933,0.3938820132503259,-1.8079064678662218,-0.07253588418602404,-0.05215755503194982,-0.04592917133905851,0.3421711009416441,0.8656138375179636,-0.03352661118755328,-0.11831856009349723,-0.01780266236278736,0.04593005219246407,0.028588153017020092,2.3203125
-0.03989960096416552,0.3421459087669326,0.2500354183754563,-1.1476662830475195,-0.04586124756848629,-0.03358669205098383,-0.02899054998117584,0.21696500098912838,0.5485004723733673,-0.021301042446874682,-0.07490581063412134,-0.011271630896331566,0.029240432973772858,0.01830297952540929,2.328125
0.01687681345804003,-0.14971012275143153,-0.10880108989096236,0.5019327457144076,0.02085159692416771,0.01285237858071593,0.013304631896480594,-0.09554590441948456,-0.24033660425226175,0.009261895887061299,0.033632462211856645,0.004968848976338312,-0.012490897687415983,-0.007362318192736602,2.3359375
0.08217060116615905,-0.7160629226078217,-0.5218739878439715,2.4031315328692093,0.09770322139086979,0.06630113131487823,0.062036317752068075,-0.45524462816635014,-1.147872078229574,0.04450855825688919,0.1586735947252496,0.023639216852100537,-0.06055946582910566,-0.03692197427369736,2.34375
0.08882500956215089,-0.7740846981034077,-0.5639248890951764,2.5971767301819586,0.10555844716670865,0.07172020132424602,0.0670097236362606,-0.4919398635674905,-1.2406736000134917,0.04812824165728022,0.171523132697121,0.025535891623207164,-0.06546677795999806,-0.039941868676690494,2.3515625
0.03288127499484704,-0.28871921019846974,-0.20934786386090035,0.9643027176635633,0.039661480152049004,0.02586768360353109,0.02517410676558503,-0.18361707772948455,-0.4628580199046673,0.017901328666472496,0.06439479846263249,0.009522102375022587,-0.024226866007445152,-0.014582212752023945,2.359375
-0.02409768229167361,0.20564250945811674,0.1518777415396112,-0.6993693722632689,-0.02743516350239576,-0.020793921461905573,-0.01743616759828077,0.13035543163357013,0.33004742164828005,-0.012876861197654585,-0.04478408935265758,-0.0067939954570057385,0.01777178248821893,0.011257464067031481,2.3671875
-0.03820774757322393,0.32750020061789503,0.24102366948965326,-1.1090839491192193,-0.043917107379291026,-0.03231014770091088,-0.02792957464918409,0.20779569973777914,0.5268297029292925,-0.020436263241224276,-0.07172942181969191,-0.010839693757917736,0.02809812658575646,0.017644650495623908,2.375
-0.003929351223339733,0.029840413512510475,0.02334823620750547,-0.105034913844564,-0.0033408717981898138,-0.004234954433637003,-0.002245454199649597,0.018370210725797864,0.049862074377161406,-0.0018825797669865287,-0.005919849812436846,-0.0010200380889064478,0.0027272736106598206,0.0020893721624889536,2.3828125
0.048513545271053955,-0.4241805319592217,-0.3088246295755399,1.4267130197880313,0.058543305345030855,0.03866232114276011,0.036932648491298146,-0.27103512959477083,-0.6803527419363281,0.02639009893059924,0.09452943573131416,0.014008607950718692,-0.03595936300379143,-0.02168157306707163,2.390625
0.05961495893796784,-0.5194445354688328,-0.3786899269843015,1.7504693853533684,0.07161188637154098,0.047749609864378026,0.04520067691008529,-0.33229513276063954,-0.8353788394101307,0.032340312048325486,0.11569234138392744,0.017191364856435028,-0.044113024256571085,-0.02671868377726907,2.3984375
0.026229084679004273,-0.22992033242127038,-0.16716753877865814,0.7761740047041792,0.03220632680414034,0.02049644613191938,0.020291894327426417,-0.14807181620696983,-0.3710221869577979,0.014336047087896047,0.051732693939929,0.007621885751364708,-0.019478068972797802,-0.01160662246787996,2.40625
0.021289980360715,-0.18755175660915738,-0.1363073783973017,0.6310555166656048,0.026277597332637133,0.01651992145152315,0.016652935423169188,-0.120479196067168,-0.3018923420019495,0.011683876566483835,0.042276384928144936,0.006198987202987538,-0.01581797394474552,-0.009366953163859028,2.4140625
0.035410346166482025,-0.3103697601619443,-0.22631900014915537,1.0445458752657175,0.042883971977185964,0.028061894340063974,0.02723824149934691,-0.19817536590549953,-0.4978672260061498,0.019309212498859984,0.06927450925257776,0.010255830294796547,-0.026262090259449623,-0.015766895190933373,2.421875
-0.04249915458345446,0.364172211906588,0.266296894279935,-1.2201010846870612,-0.04875903487976628,-0.03574779488058089,-0.030893533538516246,0.23092426072130665,0.5859356077810419,-0.02266585053780715,-0.07985400614700566,-0.012018111289582302,0.031010720017842944,0.019474446197500158,2.4296875
-0.1739318299772257,1.5024125004365991,1.0979264233971269,-5.047441993390908,-0.20351949897233335,-0.1433111512237012,-0.12901686745367677,0.9551877943035775,2.414054563544494,-0.09351309356205927,-0.3313916503804129,-0.04962799873511661,0.12777405703361622,0.07896019486508091,2.4375
-0.15799046367594666,1.36414603248181,0.997087097200297,-4.5881171779210455,-0.18498323044100135,-0.1302333570720664,-0.11716996979416702,0.8679193174317027,2.1923935658773845,-0.08496170643634142,-0.3009476882676696,-0.04507047892005625,0.1161604390507492,0.0717720629684453,2.4453125
0.002069722073732876,-0.02240873390412566,-0.01568755026264452,0.06995776062037087,0.0032800199065275296,0.0007442148249858855,0.0022654374949454955,-0.013592247526805351,-0.03383837146035535,0.0012778440268150914,0.005284910093238901,0.0007414688688833722,-0.0015897747375511503,-0.0006553239099822773,2.453125
0.06336303858037466,-0.5532696276707101,-0.40319244190236125,1.8561901011662294,0.07554386762168569,0.05085324817093974,0.048001965782420684,-0.3515528805443881,-0.8863431843369499,0.03431910703737484,0.12264010070346312,0.018279046190025242,-0.04675247915520232,-0.028402703545051727,2.4609375
-0.011363748974442905,0.09454623868426937,0.0704897062948187,-0.3217110742349658,-0.012301440326848257,-0.010314630053219963,-0.007819762035086124,0.05990451225876388,0.15329743104037546,-0.005948328059130753,-0.020250005492020353,-0.0031442503641014403,0.008268092037744985,0.005439638649282656,2.46875
0.0013366992555968052,-0.014596668067799627,-0.009122381750526263,0.04083676776680655,0.002534725495187593,0.00012012331786929575,0.0015999855992524649,-0.009828818851022394,-0.022969570751992182,0.0008971732733356174,0.004013260756981103,0.00044965807531975697,-0.0009251233633293713,-0.0002499007846267523,2.4765625
0.10984681990853315,-0.9542557327265375,-0.6959939868011494,3.1986047633669696,0.13019339396320392,0.08895025518285327,0.08261293014465731,-0.6075903179531282,-1.5325173862638608,0.059398961526803365,0.21158588211815246,0.03151527126366668,-0.08074212425915353,-0.0493435401557298,2.484375
0.07954687762916432,-0.6926332768205337,-0.5053166727616913,2.32507414745253,0.09479180431352663,0.06414168281776246,0.06008905304390133,-0.4413010449986836,-1.1123088616244463,0.04309130753985499,0.15376176429744232,0.0228957323528794,-0.05864733584365947,-0.03569950456651958,2.4921875
-0.055836694937219246,0.47933828528143435,0.3510010958456271,-1.609170629674042,-0.0642589561395105,-0.04666391214598905,-0.04092779701061544,0.30394016814381386,0.769639251722432,-0.029886068584931008,-0.10506420884455596,-0.015829668033121944,0.04079148859799543,0.025497267642042337,2.5
-0.014092704557818147,0.11846983472454481,0.08786082306818316,-0.39629474041029467,-0.015162006757891526,-0.012509908695933282,-0.00982364182600505,0.07404528303385934,0.1892852893375795,-0.007413470322044232,-0.025223267019038004,-0.0039182728545295005,0.010122817203651142,0.00661305041066756,2.5078125
0.16105738144357132,-1.3974825853285378,-1.0195304887725112,4.698616636111844,0.19080167208520205,0.130779070715172,0.12088375208922444,-0.8906230096459151,-2.2456428173357144,0.08699176708714806,0.3096972942299307,0.046179327509426424,-0.11863987148835871,-0.07259864614320986,2.515625
0.134325615241201,-1.16631144114176,-0.8509486132760248,3.9227494356685138,0.15934752317051393,0.1088437876968245,0.10097471022037377,-0.7434505108742975,-1.8732156686939285,0.07261642311419392,0.2584905886596334,0.03855130768664839,-0.09899543541956807,-0.060490611603096975,2.5234375
-0.09022427406264584,0.7770814229930657,0.5688169977018825,-2.610803499181018,-0.10483973618201776,-0.07489355196324343,-0.06661177278156231,0.49363164714108493,1.2494295255847023,-0.048388588182077245,-0.17106492693159292,-0.025680190815996727,0.06615173756725208,0.0410868137994278,2.53125
-0.16167821598539533,1.3954527701938615,1.020867617071389,-4.6928411949947835,-0.18900288786028085,-0.1332655001925827,-0.11997856697351765,0.8877231834198197,2.2425596447514082,-0.08690009105739627,-0.30781159705660943,-0.046133481935853426,0.11875494636602528,0.07339307544453465,2.5390625
-0.01440561779751729,0.12076495532218046,0.08943540134274211,-0.4081134186289186,-0.015808569035479746,-0.012694357645184118,-0.010045052143810568,0.07661381135738145,0.19446287530407882,-0.007524737143385406,-0.02618290944026105,-0.003998887131089219,0.010450730392181926,0.0067605125013063885,2.546875
0.054201217652306954,-0.4731462964176916,-0.34514624679194356,1.591369049973751,0.0649205784814367,0.043397982625497294,0.04123892808099023,-0.3016922180944946,-0.7588655455047448,0.02945883135740739,0.10504911066549294,0.015653355795566672,-0.04006254666201807,-0.024261419718501556,2.5546875
-0.06176434368785411,0.5303497708588175,0.38764369161137596,-1.7823870229754264,-0.07155337969746586,-0.05155147494054676,-0.045272552522116136,0.3369954781016939,0.8545401331869802,-0.033047151682002666,-0.1167308104363449,-0.01751312984453872,0.04522784349273131,0.028229041813150828,2.5625
-0.15009690791450334,1.2952749201272382,0.9466770262082383,-4.357887613196077,-0.17562961564759755,-0.12381998317013893,-0.11124068397854474,0.8241447092750752,2.0831378325006824,-0.08068992277905258,-0.2857353568241345,-0.04281379246975039,0.11031490999520505,0.06822463494662152,2.5703125
-0.09278891250401243,0.8004278716605391,0.5852414941962748,-2.695744333495545,-0.10833963618275749,-0.07690453327998197,-0.06852524288858647,0.5090416904361088,1.286305973830837,-0.04985823215470999,-0.17623434767189802,-0.02645576635779795,0.06829414584313633,0.04233187400541015,2.578125
0.012440720655971207,-0.10996404051033248,-0.07997524184793606,0.36657010640242965,0.015444175243169878,0.009201759519939394,0.009992579692732057,-0.0706057229165277,-0.1770002644480793,0.006823707466401875,0.025030076332826987,0.003650636617728615,-0.009101118594532161,-0.005276854526264845,2.5859375
0.08976273876691583,-0.7805704140122436,-0.5697297181250793,2.6210240842673183,0.10649957528095602,0.07251964539649268,0.06770444034043646,-0.49688928005120947,-1.2529930646724878,0.048514175026638025,0.17312383937595413,0.025806405556186893,-0.06609003283988658,-0.04031565609648543,2.59375
0.1254635148576406,-1.0907886404695704,-0.7960600081597822,3.663165716210561,0.14871427685767313,0.10180338979145102,0.09434823361992407,-0.6940382918528117,-1.7507661468047457,0.06779054139012108,0.24167677382233174,0.0360404499526834,-0.09246703703426441,-0.05652002942469861,2.6015625
0.08019443909801512,-0.6980901549647525,-0.5091085200254339,2.3460180938763866,0.09576291015666961,0.06471413574096004,0.06054378811280847,-0.4453337678285743,-1.1218879970841904,0.04340386943946816,0.15520072410314803,0.02307087268463355,-0.05921235983448799,-0.036023595463378306,2.609375
-0.007458579566109197,0.06199711135311818,0.04640995546568584,-0.20537148056002894,-0.007170921915065076,-0.007152495515831874,-0.00490882835394407,0.0370337900799527,0.09717658303016173,-0.003833896426971899,-0.012511099541376013,-0.0020355930698636904,0.005270421503972618,0.003668148724629114,2.6171875
-0.007263029865790948,0.059883224941100426,0.04560396896313993,-0.19970240869321734,-0.007032668893640033,-0.007022625619863548,-0.00479588617212784,0.03625737392445286,0.0942879490074947,-0.0037031163105204525,-0.012206305144467746,-0.0019845862584044745,0.005147785731776768,0.0035526543466917306,2.625
0.05674196781083496,-0.4953684977809066,-0.3595523558641353,1.6619710549573516,0.06801982287905282,0.045467285279418186,0.04295263132787354,-0.3154521754430549,-0.7961107513416412,0.03081308719045568,0.11015915432808213,0.016341949783723005,-0.04188560588260802,-0.025451494369711707,2.6328125
0.00806410477321578,-0.07405214252487759,-0.05217831885931455,0.24294296029923335,0.010554614011848791,0.00568338537139562,0.00662422727054762,-0.04676220851247563,-0.11830668716682036,0.0045628475980062,0.016918305842723316,0.002424511745593935,-0.006002863638327793,-0.003398625502634303,2.640625
-0.1257192989459455,1.0842016757100752,0.7932678309243437,-3.6506071078764486,-0.14694479417284542,-0.10388555423184198,-0.09315995087320081,0.6900731952165042,1.743907704281874,-0.06754709486618705,-0.23911655950623828,-0.03584553768858879,0.0924325609159279,0.05719389743791219,2.6484375
-0.10126722397652438,0.8715062178768924,0.6375212080137063,-2.934059748063124,-0.11820364232185362,-0.08393140061683604,-0.0747703197836316,0.5550404218261974,1.4045152490338255,-0.05432132029127299,-0.1923533443305158,-0.028828847480523917,0.0743576503747066,0.046116244546157446,2.65625
0.09106560526588044,-0.7940531107269514,-0.5795864533684926,2.669051852899812,0.10818729445868278,0.07352690982004523,0.06889440759540358,-0.5046769234074665,-1.2711062947952956,0.04938614970175034,0.17560742285435177,0.026221663270883523,-0.06723868547742161,-0.04097006303391453,2.6640625
0.15495051399388562,-1.3455088637774182,-0.982930980709711,4.527938890335916,0.18355591688010653,0.1258466648566523,0.11654737690245222,-0.8568459060848688,-2.160258712637826,0.08379213767658812,0.29780665142891355,0.044489936519837625,-0.11423974787273643,-0.06987009236619568,2.671875
-0.016392165673416472,0.13975187085929003,0.10211958626856171,-0.46444271689376243,-0.017941436143671788,-0.014439194151431948,-0.011475991509089763,0.08678909319894207,0.22307419909210469,-0.008628165955025288,-0.02998872299597867,-0.004569615326625199,0.011892129902075686,0.007730232321319472,2.6796875
-0.16589215681598893,1.4339591392838984,1.04815986815053,-4.819877013745776,-0.19395285041962632,-0.13683231827476744,-0.1231627055577084,0.9104262000702583,2.3027499208557245,-0.08925138821901206,-0.3159504077609112,-0.04736226249376262,0.12193146444039026,0.07540906057942684,2.6875
-0.11607088846899286,1.001665726885531,0.7326231605101883,-3.370533849630436,-0.135477294405178,-0.0959982075236743,-0.0859909355250791,0.6363433736715605,1.6093716893802243,-0.06241669924914181,-0.22059121535493048,-0.03309599734443985,0.08528251751981783,0.05283669367019577,2.6953125
-0.00856936301470152,0.07100927765935412,0.05248506621048313,-0.24163395176219066,-0.008981797699946207,-0.00793437723789347,-0.005738666311824883,0.04436917186646384,0.11327701007045685,-0.004491183746003342,-0.014881888491047495,-0.0023302887864041933,0.0061941695308387916,0.004168484604770219,2.703125
0.01804586754245876,-0.15905450348367023,-0.11554988612283239,0.5326834624642319,0.02239395993452859,0.013867096681581455,0.014135961282942994,-0.10227068822339366,-0.2571614080110291,0.009859009610484231,0.03611883921094542,0.0052703620809198245,-0.013378558233114683,-0.00787515816481467,2.7109375
0.03935566179784779,-0.34422781557048104,-0.25020845209396714,1.153781907234607,0.04740396475214368,0.0312862160521978,0.030073955471659485,-0.21959843312069519,-0.5529166996915101,0.021387912706030292,0.07693820807682654,0.011352958226084692,-0.02905517550647365,-0.017528273952844762,2.71875
0.11347268459818478,-0.986907265516509,-0.7193024690706639,3.313069635326975,0.13451205730802177,0.09194109911565976,0.08544974645685914,-0.6276726506028042,-1.5833432376204617,0.06137884449133112,0.2186870403438109,0.03256309436776317,-0.0835868848743108,-0.05109133104400978,2.7265625
0.13789473612793407,-1.1984355125531336,-0.8741371315605243,4.025685604023197,0.16330850494200144,0.11194503236644504,0.10370521375915129,-0.7621737414704464,-1.923570935825625,0.07454864126963506,0.2653422908719304,0.03956823893692118,-0.10156868633834466,-0.06215688440867982,2.734375
0.049648913068454724,-0.43399256506196154,-0.3162040998665671,1.4582869732772525,0.05963469330897828,0.03972049529309226,0.0378056086784167,-0.2762767874495336,-0.6968471226303944,0.026973671329752917,0.0964861593820325,0.014344316245740693,-0.036678136919201396,-0.02222067876529085,2.7421875
-0.06371372472519993,0.5476399935678299,0.4007703035663408,-1.8411779925267566,-0.07372246531001761,-0.05310726430156541,-0.04687529119224467,0.34806679221723347,0.8803028932045012,-0.03413396821985997,-0.1204542118781201,-0.018069534811345957,0.0467110222557744,0.029096365970406556,2.75
-0.11670392161795529,1.006501579151533,0.7361773425703785,-3.3849027349299736,-0.13617177594647717,-0.09654710318716128,-0.08646703829136639,0.640014998824049,1.6182742869954851,-0.06270115314359076,-0.22190890125196314,-0.033237124458633555,0.0857272245196728,0.05310104978434478,2.7578125
-0.10681962812886041,0.921139717839359,0.6740051033640363,-3.098628438443157,-0.12456489790729713,-0.08848924939927655,-0.07906185279769488,0.58546030856449,1.4809171555750398,-0.05737448022335128,-0.20294930776892142,-0.030442661172429254,0.07847017258115478,0.04863838080445509,2.765625
-0.043223536353489835,0.3705026853137924,0.2718165812524099,-1.247377993316199,-0.049663291008796066,-0.03641955575000951,-0.031540011729413356,0.2348332315285661,0.5958885427823791,-0.023079511903784,-0.08113574394407969,-0.012268272510918467,0.03164553633196964,0.01984731262179934,2.7734375
0.04374933720215334,-0.3827198630293104,-0.27831020952402086,1.2841870009379446,0.052661588720748186,0.03477482263120083,0.03336453286550994,-0.2443226593089461,-0.6137299340241341,0.02380965860704368,0.08529128561900226,0.01262527734341686,-0.03234650103711858,-0.01951399629368705,2.78125
0.06881862333497812,-0.5994981296661778,-0.43643125332586563,2.0115033624284577,0.08205783714668101,0.05527201640820947,0.05199371876215091,-0.3820893005873813,-0.96197682975334,0.03729472647410427,0.13315207941006021,0.01980397317625783,-0.050712191638795624,-0.030835644600457172,2.7890625
0.015183140403480512,-0.1343674828614588,-0.09669168436345951,0.44810657462056797,0.018955202041127068,0.011384485768003664,0.011934354342677318,-0.08644826844544719,-0.21620779155058434,0.008348564035534993,0.030480447597074717,0.004443092823359142,-0.011205186705059522,-0.006547071216437444,2.796875
-0.007122404446793123,0.058969626976687735,0.04380891120986244,-0.19837260875220858,-0.007123898014065858,-0.006796689497385951,-0.00459408125952718,0.03604325272779154,0.09330558113330062,-0.0036573220240085293,-0.012142209559683736,-0.001935131608324474,0.005104547802061242,0.0035247516421504184,2.8046875
0.039005715582528015,-0.3412950351782087,-0.2495089065742082,1.1513043380914096,0.047293720823161675,0.03102153141206178,0.03000227483609815,-0.2186100363486668,-0.5485662021096868,0.021276154813255774,0.07618481315181215,0.01130653031870046,-0.028992063988321617,-0.017394813391699047,2.8125
0.030181304646323123,-0.26594695528157525,-0.19456637111606473,0.8988505830968901,0.03688532178545539,0.023785699857277468,0.023455122601928984,-0.17001671303455268,-0.4256812905846342,0.016567610768238306,0.059337362311069244,0.008815786490201491,-0.022533611931735524,-0.013429757442517037,2.8203125
-0.061941535621038234,0.5316631430243024,0.38882844436042124,-1.7854673898198594,-0.07166600609355195,-0.05165908797872365,-0.045410659056602916,0.3380545460099777,0.8557547634420688,-0.03312005172344074,-0.1169551426672388,-0.0175613135250292,0.04536221456189366,0.02826815551225782,2.828125
-0.06714117279809033,0.5774864459454401,0.4228596844694362,-1.9436302209519312,-0.07796245751783677,-0.055920342848636,-0.049402350564276144,0.3673217587076148,0.9283985174383382,-0.03600579238130999,-0.1270329718433274,-0.01908992325176964,0.049313871496767754,0.03065700566463128,2.8359375
0.06159381796215763,-0.5367545067600766,-0.3911263745146116,1.7996496969671005,0.07341999678601345,0.049465397451466685,0.04665951600568224,-0.34167781627052124,-0.8614720343584621,0.03332847535650894,0.11917442606273063,0.017728277270682144,-0.04537969279263835,-0.02757082915573217,2.84375
0.11155055039454821,-0.9695820226965953,-0.707277891413365,3.2548241467452406,0.13224035667448059,0.09034391493366939,0.0839557732817907,-0.6170341761440117,-1.5559134151693312,0.060259873413374736,0.2148186476796578,0.032023644546396904,-0.08217760720391162,-0.05017940308092324,2.8515625
-0.017910653490839666,0.15124303645128465,0.11191646955096528,-0.5116514304846573,-0.020022889388249348,-0.01565073208728379,-0.012696701330667113,0.0960934523414425,0.24453404450498073,-0.009494072035918408,-0.032774148388518734,-0.005026399576297461,0.013067428992964772,0.008388565625051976,2.859375
-0.12466142177625127,1.0758361080992733,0.7876744415404558,-3.619838582626803,-0.14565961661102372,-0.10302993356053364,-0.09241374603052939,0.6843008109040749,1.7289900364645194,-0.06701720301298664,-0.23704927184768143,-0.03557957213580902,0.09165970702311264,0.05669261652303561,2.8671875
-0.06645599364399435,0.5719553062005601,0.4195156098482625,-1.9279350266076969,-0.07720933523294353,-0.055356419713963656,-0.048993349962376954,0.3636224207741224,0.9191275991428213,-0.03563046073557038,-0.12574001853576414,-0.01891804454745118,0.0488733671934074,0.03036393246294626,2.875
0.018190613973681085,-0.16105358205888406,-0.11623779282024108,0.5352947993675397,0.022503375698373993,0.013957473639115967,0.014170032921056095,-0.10304919348763358,-0.25884227123127856,0.01000547084149186,0.03631693181427651,0.005315907362832812,-0.013424781464067012,-0.007934057342156029,2.8828125
0.01107823653707813,-0.09928623630049249,-0.07151697030395572,0.33052754810569424,0.014318366215514909,0.008137731192957043,0.00887373671009673,-0.06423853968806312,-0.16070136556456285,0.00616239280312913,0.02287537254416502,0.003291496432772071,-0.008249724758287537,-0.004724578507032035,2.890625
0.005266573417501858,-0.04888984756832997,-0.035206837693469495,0.1660061778211265,0.007549542707787731,0.0033593440863275447,0.00462915201833179,-0.03235693001728118,-0.08016628988765863,0.003020586210222129,0.011803008825739071,0.0016437865953914537,-0.004049596245509099,-0.0021207917018774536,2.8984375
0.0633074478644207,-0.5519445885905787,-0.4029882925172318,1.8601249138200657,0.07583438819820136,0.050822468904158945,0.04808605888386865,-0.35221911579697796,-0.8870678960581415,0.03433644789135826,0.12279700900913984,0.018266317174800067,-0.046836209887377245,-0.028409481083855395,2.90625
0.08946850923835181,-0.7788263603379388,-0.5685882262983976,2.622361764424987,0.10663472179253085,0.07216585133202966,0.06766034677935738,-0.49655867759679473,-1.2499540804269595,0.048487075708337046,0.17275306523925893,0.02574692795364245,-0.06611921436198911,-0.040230808627866245,2.9140625
0.03617737628093799,-0.31707639930641685,-0.23096201252392923,1.0670668430948331,0.04386681354035375,0.028492492691041232,0.02780630584637662,-0.2029226229954725,-0.5073963536510504,0.01977079425432846,0.07062429350764997,0.010480644991455975,-0.026843404029022248,-0.0160594480288062,2.921875
-0.014648346970436632,0.12312880299046987,0.09083182629198505,-0.4162812233527766,-0.01615037689327431,-0.013084255679115513,-0.010216353162246901,0.07756128679049674,0.20016186277779224,-0.007653090339785104,-0.026764537552298403,-0.004063656558961911,0.010660209517696787,0.006964582090876382,2.9296875
-0.01771958280246961,0.14920044999839377,0.11002902798982218,-0.5050577746373489,-0.019884433330475192,-0.015511875935062291,-0.012513279780918006,0.09483491769675922,0.24189044239345078,-0.009325802517515695,-0.03258433717652,-0.004930428777734345,0.01294893406500907,0.00830894627061483,2.9375
-0.024407459027356363,0.20709638734476563,0.15236519204163623,-0.6980280373490311,-0.02762156087796803,-0.020923846126075934,-0.017486946008375828,0.1315462687669682,0.3334579482730132,-0.01294496673254726,-0.04521203160025137,-0.0068511188226977006,0.017821473764055285,0.01129142253942336,2.9453125
-0.0760980954926669,0.6555553519099381,0.47986251097018073,-2.2055895629156232,-0.0883364729566182,-0.06320949482123517,-0.0561119502956499,0.41626984501413106,1.0524655559797573,-0.040850073026452334,-0.14410732549782337,-0.02166842460201091,0.05585273524400419,0.03471105896184082,2.953125
-0.14144053480196944,1.2216390102481414,0.8934155336582321,-4.112684079773001,-0.16536946298297894,-0.1166481822625596,-0.10494602396384928,0.776740870635384,1.962512586313997,-0.0761056607316122,-0.26926562390069575,-0.04037800167274701,0.10400158698428587,0.06432895148620482,2.9609375
-0.13582049350076147,1.1721003935461682,0.8574689933734885,-3.9481511425152833,-0.15887804767665262,-0.11201148563090442,-0.10072491815013083,0.7460955769239241,1.8847255791505126,-0.07304706310877854,-0.2584976731515829,-0.038757763832087386,0.09987294100084819,0.06176845485149719,2.96875
-0.0013272783921313776,0.006978927893970877,0.0063301369557640375,-0.02531446126248824,-0.00043912697960084307,-0.00200289762872532,-0.0002182359060698458,0.004566213391902961,0.013352898356085344,-0.000489541047098825,-0.0009597871094223888,-0.00025937030441120076,0.0007938776025807856,0.0008461237012595063,2.9765625
0.17430203499187436,-1.5132684692889096,-1.1046219057017388,5.092954994504042,0.20643897445333007,0.14160619716474873,0.13096067314726226,-0.9637843176111571,-2.4299646368769108,0.0941998654211778,0.3351950232581272,0.0499994742466651,-0.12852603815609365,-0.07865314659711048,2.984375
0.2046267582887163,-1.7753688422584597,-1.2962695645067945,5.973087202199467,0.2420356426885186,0.1663915948059984,0.15355020298209943,-1.1307419742223455,-2.8518293100629926,0.11051816549772958,0.3931233532333138,0.058676979072464545,-0.1507644096724767,-0.09235036493680548,2.9921875
0.05782325280022142,-0.504187442916517,-0.36741209907778755,1.693025737365349,0.0691049070549731,0.04633406840458404,0.043850163661254514,-0.3213543612265205,-0.81031103852038,0.0313608818984071,0.11213099175631387,0.016668229791578726,-0.04260213076513667,-0.02588842479001134,3.0
-0.07586015890422516,0.6538073512501414,0.4785823012314043,-2.202061896034813,-0.08816770607158816,-0.06301016846518649,-0.05601181115776332,0.41521537212782494,1.0487487861209814,-0.04070785395677418,-0.14363706564813727,-0.02159227401109197,0.05580912487681646,0.0346289224798957,3.0078125
-0.053459106814957455,0.4603773484343456,0.33704536973274934,-1.5500643612140925,-0.06171180530298873,-0.044688667058952795,-0.039292942498111126,0.29153603426998015,0.7374842810656619,-0.02864950395701797,-0.10073568821525473,-0.015188575895560469,0.03928710973869753,0.02450751178442526,3.015625
0.049576068213660014,-0.432641448966086,-0.3151537972808836,1.4500481763973205,0.05942532311275944,0.03964409580025838,0.037636830451035934,-0.27586377806437345,-0.6951961565003762,0.026870594694536752,0.09639334043679457,0.014299706865618853,-0.03655545185313671,-0.022136830729223872,3.0234375
0.09682363065206898,-0.8435018274953786,-0.6146892015953828,2.827583495092854,0.11489516621005721,0.07833958867852826,0.07292852058733103,-0.5357334887067555,-1.3523325078301232,0.05235156309695352,0.18677523502627075,0.027831806808278087,-0.07135187413453617,-0.043566097798781137,3.03125
0.052881979556897656,-0.4632254899179829,-0.3367659791372572,1.5521192703756035,0.06332062692602866,0.042310507949628984,0.04016710232211084,-0.29401660293441306,-0.7409105399657958,0.02870849645794457,0.10268386861046595,0.015265511220500351,-0.0390924976242616,-0.02369257103414292,3.0390625
-0.04277548047193311,0.36691139252812355,0.2689942350520786,-1.230806395918773,-0.048996688491366895,-0.036114953261390324,-0.03120489813243295,0.23205560892160507,0.590390769663871,-0.02282975355963147,-0.08040439348391398,-0.012107379744434552,0.031242313428991923,0.019652087940420393,3.046875
-0.1304598089308161,1.1276187831107607,0.8240328681241531,-3.784628170627246,-0.15211697474657454,-0.10792294899184833,-0.09664294577098709,0.7147311544956876,1.8105191860778775,-0.07010393096075497,-0.24824351834090938,-0.0371993895947328,0.09578183301510962,0.05938630019394537,3.0546875
-0.16098487726948432,1.3913097268950017,1.0165911857468852,-4.673758148399775,-0.18814227729520044,-0.1328272283591467,-0.11939819021680825,0.8832276276896901,2.2347345676446304,-0.08655346514866577,-0.3066380212305263,-0.04593018672641015,0.11827575244444354,0.07318609639400862,3.0625
-0.13576101353893666,1.171558668450981,0.8563621056756296,-3.9388126016794933,-0.1585622071635382,-0.11211368389929116,-0.10053251381639486,0.7446812562455893,1.883176879208489,-0.0729188975664911,-0.2583235414865723,-0.03871055551757861,0.09973391665606904,0.06172962590549467,3.0703125
-0.07507904608333933,0.6458737451490412,0.47265104308689904,-2.1741081463389285,-0.08722870045748059,-0.06244079866763518,-0.05524838197383282,0.4106344816137845,1.038728828250407,-0.04019419999986532,-0.14220875122140042,-0.02135699703876786,0.05512584656959401,0.03426149809858951,3.078125
0.02420845114881729,-0.21348717768111983,-0.1549115387945025,0.7138624530861345,0.02956193990817249,0.018846056874837265,0.01882705545090343,-0.1361279483573201,-0.34234180516976775,0.01328544151970414,0.04777171150663065,0.007039126676732195,-0.017910915252428116,-0.010669886618154878,3.0859375
0.11883307514211428,-1.0332491415316505,-0.7536368469360216,3.4709396406866837,0.14094823301330098,0.09636933548323279,0.0894705094365088,-0.6573056197599643,-1.658464352263631,0.06425414720466639,0.22891227330549752,0.034115190804143714,-0.08761657724099142,-0.05353691231631302,3.09375
0.11550557011489677,-1.0053223251375165,-0.733134908204903,3.3780169386872103,0.13708049084220464,0.09372056612681817,0.08700664419231063,-0.6389491701989808,-1.6122825439588513,0.0624645491792887,0.22265456854409485,0.03317360898208595,-0.0852494494955675,-0.052084390424628174,3.1015625
0.03475648148055744,-0.3060658447512414,-0.22225033532359953,1.0248006960243925,0.04199384698377436,0.027641893008141696,0.02666858866823584,-0.1939897927546466,-0.48928112023518966,0.018932022528765958,0.06815480007099238,0.01006839684971858,-0.02576786399092402,-0.015524261941414088,3.109375
0.018921610793630677,-0.16771057328774994,-0.12135339737904716,0.5578252096098518,0.02327952248341348,0.014593007782516083,0.014754403103113019,-0.10676122873243905,-0.26887823021881363,0.010350068561148071,0.03775314540590607,0.005527392759803456,-0.013984616663412103,-0.008282221166185532,3.1171875
0.09718190304250364,-0.8440670207426633,-0.6157835432301653,2.8357792416800858,0.11544270142563219,0.0784827113316004,0.07315606925726022,-0.5382934811283724,-1.3570633640155125,0.052507114680581675,0.18738960755718878,0.027916835220174907,-0.07154266212071823,-0.04365243763906461,3.125
0.13781028278729526,-1.1954682133332826,-0.8724776269130837,4.0220949831842905,0.16336066768272883,0.11163271492280183,0.10350910529690574,-0.7624713212569367,-1.922261422132925,0.07443228158312233,0.265093567136601,0.0395427881565478,-0.1014750309835691,-0.06205361871183614,3.1328125
0.07462812470350677,-0.6488824504603838,-0.4727996075127652,2.1818304606780687,0.08894905169724471,0.0599880279477953,0.056332893597663906,-0.4141778936920882,-1.0438319525140483,0.04040256814089609,0.14422979073694647,0.021459866424371875,-0.0549594208229627,-0.03348028368050361,3.140625
-0.01816987922962035,0.1538117344508686,0.1135712242542265,-0.523060832015544,-0.020389264319566513,-0.015827237663297255,-0.01293303175247486,0.09745786683444925,0.24727955142361488,-0.009615149027412668,-0.03329551446255604,-0.005089406964681918,0.01335723206322162,0.00853167190166361,3.1484375
-0.0677269566841135,0.5824121269260094,0.4260485415261089,-1.9635276278037312,-0.07867718785127553,-0.056362026360124294,-0.04984162239011115,0.3703674661625624,0.9375738917184512,-0.03630747041211636,-0.12810739925825812,-0.019249407663219073,0.04975947990964234,0.03097566771100233,3.15625
-0.06765359610818601,0.5818629730446029,0.42534348107650605,-1.9553212379118194,-0.07840332694104417,-0.05636572005050407,-0.049712144966980606,0.3694968090052579,0.9365722236374492,-0.036223161178059106,-0.12793393216761925,-0.019215991360079343,0.04960275174256201,0.03091505280250583,3.1640625
