AF3,AF4,F3,F4,F7,F8,FC5,FC6,O1,O2,P7,P8,T7,T8,time
0.04473629975244012,-0.3927939048803318,-0.2851710574278877,1.3144677849650748,0.053802765636394356,0.03572065275028228,0.034149893170014003,-0.24936698407936456,-0.6283816965469726,0.02435240627443451,0.08728151576730286,0.012925317939647386,-0.0331220578114905,-0.020016357800269134,0.0
0.027681276579134453,-0.24524568503901434,-0.17729512046087054,0.8186285023496478,0.03375548003520088,0.021647819858324646,0.021448489006480848,-0.15577943513894327,-0.39008449653772415,0.01517332935352518,0.05460373135853819,0.00803475049177669,-0.02060939699243485,-0.012269670386906583,0.0078125
-0.09978383706656764,0.8597343037736292,0.6288399302957248,-2.8941175382878637,-0.11629892061999322,-0.08268138969073367,-0.07372268520274697,0.5465109436574771,1.383375933075927,-0.05354281037802055,-0.18950238810214481,-0.028420298817411125,0.07325896434055856,0.04546780278257157,0.015625
-0.18727531385264604,1.6186804138144062,1.1821555502914336,-5.441647083723168,-0.21924700831957733,-0.1542424723153069,-0.1390420155244315,1.0286393971912322,2.6000827796676513,-0.10071869808905949,-0.35704616760149366,-0.05343156816642431,0.13769058247093088,0.08508604352733332,0.0234375
-0.06763528761084907,0.582849563896264,0.4255121567179851,-1.9564907710794575,-0.0783534011490277,-0.05632573468571089,-0.04970555032936494,0.3693707647313275,0.9356006963201586,-0.03623882273465339,-0.12801864558120976,-0.0192043735154543,0.04960870876410865,0.03091805352554372,0.03125
0.15149175833672138,-1.3148740144580402,-0.96004955055653,4.422561580655077,0.1795442619273131,0.12301324421041321,0.11384968104597945,-0.837873535705656,-2.1125155584703585,0.0818567685178154,0.29143321784287485,0.043463887652384826,-0.11164789359782004,-0.06827601872559408,0.0390625
0.2029783859243014,-1.7605729976774493,-1.2852096254999543,5.91855957427491,0.24005430987496248,0.16518753805280462,0.1522122733504383,-1.1212358070790465,-2.8288692749141684,0.10959624810634222,0.3899719274562667,0.05817734243925981,-0.14946041581126185,-0.09157925377540176,0.046875
0.03623545901873789,-0.3171685842545823,-0.23067003895098323,1.0648508631171318,0.04380153204090005,0.02872723289358389,0.027744743859159565,-0.2025012612793286,-0.5097347207212086,0.019754509539451535,0.0708986754812368,0.010475161772266829,-0.026753776998788874,-0.016125493555560803,0.0546875
-0.11393581996615955,0.9818556997260682,0.7185697881858928,-3.3033035681507354,-0.1328669710216906,-0.09421787497862323,-0.08427239766204458,0.6245956129951847,1.5792763102831746,-0.06114462546124453,-0.21638150408665605,-0.0324852839995212,0.08364693147452035,0.051815884738422135,0.0625
-0.06948153138784414,0.5966720534205985,0.4374479860500699,-2.0098578673594107,-0.08056876999909952,-0.0578560284194831,-0.05110395671148596,0.3796853342818419,0.9613663435263325,-0.037220665032793185,-0.13133307520153464,-0.019773655195276917,0.05090708780599307,0.03170227940551641,0.0703125
0.04839795601799489,-0.4223666527143468,-0.30712490391366676,1.4164348387835346,0.05804955583349521,0.03861509856517076,0.03673357616248114,-0.2693357027201769,-0.6782720498768554,0.02621922868896223,0.09401554589188348,0.01395010443583839,-0.03570551433860042,-0.021608428649302604,0.078125
0.034748627725034474,-0.30279898620749135,-0.22007875588946565,1.0167650390307839,0.04195804622775287,0.027395387954916004,0.026447981073984383,-0.19395136733696838,-0.48880841762214605,0.018824628564857615,0.06773593613009088,0.010055273309626644,-0.02555749869447994,-0.015402715116030289,0.0859375
-0.07349887785177049,0.6339000724240832,0.4641104735728443,-2.13164972156465,-0.08535432643243186,-0.061244077066558954,-0.05428048034271296,0.4020878691088917,1.016879235891754,-0.039478360136276945,-0.13929179770443934,-0.02090817976071615,0.054042155364202225,0.0335852019308246,0.09375
-0.08131228347615983,0.7003362466637897,0.5126238926665815,-2.356343180410556,-0.0945129591996827,-0.06759435001673071,-0.0599986187848226,0.4448107095974197,1.1260768512480055,-0.04365837041349409,-0.15406240854891426,-0.023145416149505077,0.05968108344747069,0.037103498608974064,0.1015625
0.030351194081471806,-0.2669521991581433,-0.1941118813909783,0.8953561975660729,0.036852766846580884,0.023881685927672848,0.023397306946907784,-0.17032979039379656,-0.42708025470988975,0.016529452635741973,0.059626718791211515,0.008808634088685072,-0.022536095330572936,-0.01346163584783732,0.109375
0.08984060156763012,-0.782280478516438,-0.5706271092123536,2.62881601496775,0.10682732267203708,0.07259673285310005,0.06782652916010572,-0.49789035159641637,-1.2552702842737558,0.04862093640677425,0.17340899860691586,0.0258454371993891,-0.06631143877375935,-0.040419295299927355,0.1171875
0.03303502371318705,-0.29073220128219335,-0.21157397185297733,0.9763967799930886,0.0399639734367462,0.026096032837110608,0.025457436640850702,-0.1848122796838188,-0.46549641660050456,0.018034459468587793,0.06473788995089552,0.009597202897307883,-0.02448151976614978,-0.014718792218444422,0.125
-0.019845053424186843,0.16763616373979762,0.12307511965488142,-0.5641096885423917,-0.0222907540231372,-0.017162260742112072,-0.014013232206093651,0.10661811020073032,0.2704790503982263,-0.010483884472168258,-0.03642905717667499,-0.005546689970116126,0.014487544997998732,0.009236489062086777,0.1328125
0.004625966292712098,-0.043295893837675084,-0.03117660373215438,0.14734653218452257,0.006531830715514877,0.0028732345717996694,0.004239637663677038,-0.028215977005818165,-0.06977374425687094,0.0026974883897804796,0.010307485713694718,0.0014450609379480094,-0.0035024892464138144,-0.0018291497603917936,0.140625
0.035604739130496124,-0.31166602699571366,-0.2270361516105151,1.050385515490661,0.04309976456282509,0.028181343619297035,0.02737894416336821,-0.19914758955476664,-0.5013639405575657,0.0194628557062071,0.06951348184013326,0.010317595379144293,-0.026363995260412346,-0.015869714511881235,0.1484375
0.013438707950243947,-0.12087567867079317,-0.08731680488903536,0.4049237278871671,0.01710512907962049,0.010019926049187765,0.01083106488401889,-0.07733892119693456,-0.19326165998887546,0.0075861544029120495,0.027201876431730835,0.003983786330226756,-0.01010782182944708,-0.005836418572919435,0.15625
-0.027154232146421965,0.23002769530315303,0.16918592187559095,-0.7805649925626613,-0.030689060435612474,-0.023157481204922108,-0.01953485665115738,0.14622075547960717,0.37247220890616145,-0.014324415331971077,-0.05027902187438432,-0.0076436136453088815,0.019800096722571686,0.012585681631686114,0.1640625
-0.04746992570703478,0.40640528471350995,0.2980776300495792,-1.3750977457589253,-0.05466811897312627,-0.03979121712665376,-0.034766743559397344,0.2582644118463452,0.6562523177697568,-0.02537175570909748,-0.08911308819518006,-0.013476989108988395,0.03480543935572072,0.0218276331379896,0.171875
-0.053574361345990175,0.46022755921682174,0.33737496036516285,-1.5517260201550993,-0.06186878592255881,-0.044908939140078624,-0.03934206270057903,0.2919860118887289,0.7410435046406246,-0.02872762987926715,-0.10098470442177108,-0.015225396722410803,0.03929252035675535,0.024587432412100787,0.1796875
-0.05378118720880058,0.46323620307498053,0.33930940157890804,-1.555621201712263,-0.06207972079177704,-0.04517004367330004,-0.03951552322356206,0.2930928978454561,0.742893564892237,-0.028856417394522934,-0.1015815416212917,-0.01527067747660214,0.03943685634645229,0.024654818957636937,0.1875
-0.04993247652264117,0.4308295466957511,0.3153431761968614,-1.444397695593108,-0.057538107501298744,-0.04195523137471413,-0.03668376157031349,0.27184952472559143,0.6886815222197336,-0.026781072384537006,-0.09419426253353896,-0.014166661356089965,0.03665622040622024,0.022905778382177343,0.1953125
-0.045022143948075466,0.3879081592829972,0.28416013222844866,-1.3036096423214758,-0.05181492275732664,-0.0378153288202122,-0.0330147167998955,0.24495684515083987,0.6204397549703832,-0.024121220491340693,-0.08463733279570354,-0.012776379879350975,0.03309618807528914,0.020686524434538955,0.203125
-0.014063162306868533,0.11843830949496933,0.08776683338143114,-0.40207178985351,-0.015487600661541033,-0.01244274526488294,-0.009833444608706794,0.07477973772852481,0.19014873569654356,-0.00741557602380278,-0.025353819453727847,-0.00392731174471468,0.010304866450443293,0.006660315547606129,0.2109375
0.06554180073841115,-0.571660299039027,-0.41625860713590984,1.9179849523607828,0.07812265380097604,0.05270114215667755,0.04965738869561111,-0.36346611247056737,-0.9169953857583942,0.035499059911907625,0.12688378701769562,0.01886009564216578,-0.04831419421832517,-0.029397142628529854,0.21875
0.13278760846384913,-1.1538205806198645,-0.8417959378732212,3.877723212458199,0.1572789862634259,0.10778347319552913,0.09987429191151619,-0.7339220578244321,-1.8524963569997612,0.07174678633762305,0.25553207304773146,0.03811658346973671,-0.09782292020594,-0.059853838725107925,0.2265625
0.11015556160484606,-0.9579323522654517,-0.6988653316763338,3.219821470571924,0.13069261123657178,0.08929715752691633,0.08298699743074268,-0.6093745969604454,-1.5376717559959143,0.05955842178178772,0.2122624551851769,0.03164949422976699,-0.08119747385451138,-0.04961743548747291,0.234375
0.055129291468738406,-0.4820616030310026,-0.3513131735897214,1.6197520987948673,0.06595091393089735,0.044189431133387684,0.041943825736321515,-0.30635861056668573,-0.7718089494139475,0.029918213665367854,0.10692292808133405,0.015914421658465124,-0.04076974840963343,-0.024712773803173466,0.2421875
0.07068791423890046,-0.6172455327271248,-0.4502026320305016,2.0754748510707133,0.08431047952742617,0.05681794080613582,0.053603944540014305,-0.3923495046385048,-0.9879006549757765,0.03833955325445346,0.13663066903585885,0.020380133690272976,-0.05229736941464381,-0.03175661793129511,0.25
0.08002355151025657,-0.6982181973757525,-0.5092834931884663,2.3477747451189357,0.0954289507552241,0.06445667633778655,0.060591091212158395,-0.4441994013153,-1.1182825786857065,0.04341727505863355,0.1545973711794129,0.023053893138287873,-0.05920406931397478,-0.03598322733287561,0.2578125
-0.06358397053322645,0.5455647196178423,0.39957657374864575,-1.8361864625779183,-0.07347546774844564,-0.053013493705791455,-0.046649216036673664,0.3467473108752991,0.8783838272473651,-0.03398116978482789,-0.12002435993096708,-0.018053399347800907,0.04651422064705276,0.029027241099005226,0.265625
-0.25836457992142847,2.233446431955696,1.632468043115428,-7.51097778818441,-0.30273431872086565,-0.21243374217892086,-0.19214020236887447,1.4199379272773385,3.587534326999674,-0.13902593880667422,-0.4927539330699812,-0.07380602024645287,0.18995428017743446,0.11722107297777937,0.2734375
-0.25340349766142384,2.1922814470991243,1.6019263838259894,-7.369338412972088,-0.2969752895905817,-0.20843588169634145,-0.18853172056729978,1.3927448315848994,3.5189098295083876,-0.13640904873865717,-0.48342498277821416,-0.0723945909758677,0.18641540190750167,0.11501635610692619,0.28125
-0.05952622374664887,0.5139430763525624,0.3759409663183578,-1.7268090464194459,-0.06884690447071015,-0.0497611098192617,-0.04385266850216032,0.32469596700775083,0.8223417696402314,-0.03190523975804528,-0.11247885397936506,-0.016922758125948945,0.04380197252179135,0.02728487859884326,0.2890625
0.07540138253882349,-0.6558222911227067,-0.4779073664554612,2.200369752549832,0.08989339043223546,0.06073711822174593,0.0568889172404548,-0.41849406640144077,-1.054336926483013,0.040849118716086014,0.14584152782922066,0.021678830509704473,-0.05549977865268134,-0.033794058246683356,0.296875
0.07933819150235691,-0.6912344107344113,-0.5035126887713405,2.315938752261851,0.09442450912447442,0.06399773415850872,0.05988446148752059,-0.43997877897829335,-1.1086753643428822,0.04296911440446164,0.1534644457481394,0.02280309536876385,-0.05843147726173108,-0.03559421478341392,0.3046875
0.09138085489304701,-0.7952321969980549,-0.5799569357299271,2.6687712811285484,0.10854449116531284,0.07383176343327091,0.06890992950356335,-0.5062805611475222,-1.2758943712074027,0.049443930515385995,0.1764352807696482,0.026255590457927674,-0.06730992049127642,-0.04105602001804587,0.3125
0.1280913830331614,-1.1123853734001785,-0.8118836119646841,3.7392942013771058,0.1518153809243795,0.1038537924599892,0.09631788584263191,-0.7085842432395403,-1.7867109374942638,0.06923269101471037,0.24657334150401453,0.036766260871878904,-0.09434703757213149,-0.05768276059489045,0.3203125
0.07316869103258301,-0.6372035483941734,-0.4643007225190196,2.1416042773089776,0.08727314647912997,0.05890747512632972,0.05533993244666942,-0.4059629167849543,-1.0228463809693313,0.039634469413714894,0.1414622714802767,0.021048752432459465,-0.05399933697571867,-0.032844128320713505,0.328125
-0.04276294366786402,0.36581682934082715,0.2687551642609461,-1.2326809869694206,-0.04916348412089838,-0.03596679441421142,-0.031163669533582086,0.23287604107964097,0.5899710148640702,-0.022867146857260094,-0.08036095161317505,-0.012127142450181514,0.03124884213367512,0.01961209237778698,0.3359375
-0.07263306764300907,0.6247279305315421,0.4575419050743073,-2.1028548803404012,-0.08439291761391192,-0.0604153381188687,-0.053480085444579765,0.39759656429906653,1.0053358000143993,-0.038992581193349946,-0.137588819715452,-0.020667362384274867,0.053259507474717124,0.033133095771093225,0.34375
-0.013412884712832127,0.11292314949318613,0.08324022135801942,-0.3791896572156056,-0.014725734001086515,-0.011958603762302948,-0.009336386366585537,0.07140608285402344,0.18097622016574028,-0.007087777265104883,-0.024366129122856805,-0.003707436332041547,0.009753125957644364,0.00633144730658362,0.3515625
0.01674639047754996,-0.14822086306274476,-0.1074077050678611,0.5011665227139347,0.02084230058583003,0.012709383327908583,0.013189393599286505,-0.09492286676378162,-0.23872405708941963,0.009178718454775974,0.0333880265247291,0.004931732272830864,-0.012463748598061437,-0.007332374827636979,0.359375
-0.011810677236641948,0.097910427262785,0.07265605743482374,-0.3279798968819655,-0.012696844566134383,-0.010656982522779664,-0.00803522849978347,0.06206534737511482,0.15904568937170144,-0.0061755452584152494,-0.021085580564951995,-0.0032398280018872423,0.008459290245573847,0.005588416364271874,0.3671875
-0.03735750732216069,0.3184948441198622,0.23356609493924696,-1.0741274379582928,-0.04280545819175185,-0.03152844147961516,-0.027077151832439306,0.2026501717997055,0.5147396022891508,-0.019898631428940956,-0.0698820334078117,-0.010549992403465807,0.0272686089755632,0.01718007464679521,0.375
-0.027264988996493503,0.23193961273163305,0.16977025497147988,-0.783914870621236,-0.030979761940345255,-0.02324872365556743,-0.019603970094397453,0.14707924771545197,0.3738738831315103,-0.014427764507641416,-0.05064498656541345,-0.00765784552881169,0.01995275217922302,0.01264284091254136,0.3828125
0.00944372126597717,-0.08468420211660992,-0.06182267913708633,0.2863964878100148,0.012341205358144886,0.0067624869284537235,0.007787536933141626,-0.055363493215927775,-0.13751479522901516,0.005367425257080229,0.0195362243979792,0.0028452021492209106,-0.007035966237442016,-0.003980898957092383,0.390625
0.04700143610633346,-0.4097138961064305,-0.29906485122023885,1.3839204987295064,0.05675091824936299,0.037469744308361745,0.03588114998667632,-0.2627077542214794,-0.6603418710851383,0.025605021472312965,0.0914884242605345,0.01358302856043542,-0.034776756333159395,-0.021009908171653734,0.3984375
0.045992476347386846,-0.40193823786144417,-0.2928966261990495,1.3539944912410127,0.05557435983575104,0.036662645643183174,0.03511779815286714,-0.2571541913476304,-0.6461755360673967,0.025043410678672644,0.08967015279069562,0.013287191067258486,-0.0340915096343202,-0.02056182254844863,0.40625
0.006327210687600882,-0.05944811731342535,-0.0421297360340054,0.19478123469766012,0.00864749515167101,0.004210260379405949,0.0054164554779017856,-0.03800885963009583,-0.09374850200572808,0.0036335117595239132,0.013751890569765272,0.001929077604766594,-0.004829100371417146,-0.0025937907729569974,0.4140625
-0.017723859601862825,0.14887892785530213,0.1104975759023357,-0.5087151614067741,-0.019890649438916778,-0.015528580424858288,-0.01259103448856583,0.09505981298697742,0.24182038786335133,-0.009374278978447774,-0.03238333065091298,-0.004976838648074316,0.012968963161798361,0.008317665580143858,0.421875
-0.017318222098951477,0.14636654356857845,0.10869119443994074,-0.4990852330160411,-0.019434649477340665,-0.01524543754183702,-0.01229830021201595,0.0928420257499939,0.2367486946452775,-0.009203110299078776,-0.03168158979772139,-0.00488576538057144,0.012713994769583866,0.008169208131447643,0.4296875
-0.045901677580446894,0.3946948578199876,0.28975805985410114,-1.3332161110537137,-0.05298489307011796,-0.03859279273164135,-0.03368287975070267,0.25014213887398384,0.6339244874332718,-0.02462771256771619,-0.0863762677142061,-0.013055762544554709,0.03376230645396448,0.02112639820363501,0.4375
-0.08894429294396933,0.7673355163089304,0.561714048764929,-2.585019580877966,-0.1036039290100554,-0.07373798145282423,-0.06584797251262539,0.4873314842090353,1.23193847794756,-0.0477985641715038,-0.16873074108596395,-0.02533740235882458,0.06543203011784161,0.04058112186011413,0.4453125
-0.06171443725336925,0.5310025083105869,0.3890656877650295,-1.7873714179976283,-0.07156168656981025,-0.05144703479373122,-0.045435175887168694,0.33738777470525316,0.8533001762990896,-0.03307773365577058,-0.11665230077127513,-0.017531165455632772,0.0453360873758067,0.028213350557522044,0.453125
0.02777292792724566,-0.24437259647482867,-0.17745186727102882,0.8216286639116968,0.03379521622625418,0.021748406362394387,0.021518592308941136,-0.15582902837018942,-0.39074332861921407,0.015178730006522477,0.05456115903078101,0.008066349256985414,-0.020615551093734016,-0.012297823853504058,0.4609375
0.07840407706195848,-0.6831920683867849,-0.4984112355133209,2.2967349037414833,0.0934460856032052,0.06320354161051878,0.05938754743805743,-0.4349819204870439,-1.0951453614073763,0.042479108496079464,0.1514611166010896,0.022563358875744014,-0.05793930625631454,-0.035212471687475065,0.46875
0.07181166175090123,-0.6260290738453922,-0.45707847751696773,2.105904641338755,0.08567859712072617,0.057873918843536924,0.05442951397405907,-0.3984953815919944,-1.0048150022684799,0.038930119317333194,0.13884477611531762,0.020705488498560753,-0.053056470841836,-0.03226411932742497,0.4765625
0.06917185000161295,-0.6022265790238948,-0.4398697051640122,2.029568746854874,0.08250182887208635,0.055716127316532,0.05238874386984555,-0.383676865382609,-0.9691774205152778,0.03748631695089432,0.13373246139307687,0.019954739968098132,-0.05101834491627685,-0.03109867931510097,0.484375
0.050781186277259305,-0.44227581009304784,-0.32283962248346,1.491853783634056,0.060872703482501705,0.04058843407905938,0.03861807279401225,-0.2825527640590826,-0.7128565737104323,0.02755118311484043,0.09853655944290338,0.01466708105552153,-0.037447484670882734,-0.022738394283509027,0.4921875
-0.03722056314156925,0.31882254193147797,0.233761157707131,-1.072614549473294,-0.04255042305690992,-0.03149453591516553,-0.027075778173584242,0.20172430377405384,0.5124385876429006,-0.019851107656735954,-0.06969963467091966,-0.010531631822881476,0.027234474033540585,0.017145759491208237,0.5
-0.11281829445825227,0.9719979156432721,0.7115410803639545,-3.2727620677010734,-0.1314221696692594,-0.09336587474759596,-0.08348751415915684,0.6180167854337266,1.5642148438148042,-0.06054486798613231,-0.2141931429979714,-0.03216122389127791,0.08279004822263322,0.05135701259867279,0.5078125
-0.053466097665349585,0.45825016698977106,0.3361445209126722,-1.5430634948270656,-0.06163602693962425,-0.044773108494916836,-0.03916651330098119,0.29129745895303427,0.7379443239739765,-0.028561867499553948,-0.10065780303952915,-0.01517474849228358,0.03914388578049832,0.02445949328355903,0.515625
0.07243994851140605,-0.6308483688676646,-0.4601207872301783,2.1224514107329115,0.08648531477651335,0.05829109856811894,0.05483046049954922,-0.40228837889292074,-1.0136569832403102,0.039254440016367416,0.14014979120008286,0.020853600075376746,-0.05347472832975128,-0.03252632245966046,0.5234375
0.08550980048607941,-0.7441818619987632,-0.5430738187308202,2.5023138702200036,0.10195460205086443,0.06902984637245516,0.06460432240524688,-0.47462111594592865,-1.1949733242705878,0.04630094350554267,0.16520960262580503,0.024598149282985687,-0.06316159970703045,-0.03842354656406201,0.53125
-0.022427181683594984,0.18949007503839196,0.13952459740891077,-0.6410960746642415,-0.02506051827432208,-0.019279147258731425,-0.01597790844995802,0.12001509235435392,0.30691466467010353,-0.011853283972538613,-0.041222347585760016,-0.006291688652430419,0.01623269383443897,0.010433127404822148,0.5390625
-0.08858330125911285,0.7626927601171702,0.5585683091312247,-2.5703673703361245,-0.10315979522793901,-0.07346776092115173,-0.06543358539410248,0.4850732868257699,1.2274538637083023,-0.04755142184030035,-0.1679281394685678,-0.025241298543070022,0.0650542849189723,0.040390503515905445,0.546875
-0.0407122730924257,0.3493300525426163,0.2565130168773872,-1.1801720806608,-0.04705098563716235,-0.03437678890782523,-0.02977798910758902,0.22180039717415817,0.5619346978740449,-0.02180587088866261,-0.07656136224318276,-0.011557861053710969,0.029981208516489975,0.0187570220505751,0.5546875
0.02093371463740888,-0.18442454358292137,-0.13319019944064736,0.6148533674053328,0.02556799915055477,0.016041267531426224,0.016226418052678222,-0.11796474456493555,-0.2955060359885671,0.011444165958233946,0.04136935863205079,0.0060839134969688366,-0.015396712162626097,-0.009139538073980123,0.5625
0.0039191669989510885,-0.03746607866309412,-0.0256249517561459,0.1216503561389943,0.005692732460750784,0.0021539085385655224,0.0035467953055260105,-0.02439679150272771,-0.059342901530113644,0.0023188121354069083,0.00894418978189079,0.0012204230462039072,-0.002926372578208185,-0.001462737250218053,0.5703125
-0.0486865657064423,0.41900351684919,0.3070843331144809,-1.410380212683891,-0.05630430541168546,-0.04085359045895559,-0.03572650257952611,0.2657133587831822,0.6720011617008911,-0.026071147283921507,-0.0917296190469487,-0.013830138903055324,0.035868958802405884,0.022349193941354952,0.578125
-0.03923702800549865,0.33829523094622765,0.24694298867757833,-1.1359440232190638,-0.04532529543694216,-0.033079535637358284,-0.02865579320468231,0.21393404844342542,0.5405765586667073,-0.021025952390584024,-0.07379488464271379,-0.011111091373058206,0.028979277231483924,0.018086233409836852,0.5859375
0.039712330624524,-0.34628845530635066,-0.253337341177826,1.166662937706827,0.04771427593641946,0.03161235495687999,0.030373648732023466,-0.22124741054470387,-0.5579340594830238,0.02158277459229967,0.07726970604868677,0.011511713366233923,-0.02927531076077378,-0.017692109181522524,0.59375
0.08689861555796993,-0.7571177954718655,-0.5526245346456291,2.5460659636592067,0.10351869906630001,0.07031329595779909,0.06569264528505755,-0.48163119684306455,-1.2150960969094728,0.047102064857740884,0.1677323609114186,0.025036213447495133,-0.06424127494901573,-0.039128230218306366,0.6015625
0.037545548109582313,-0.3308741924525129,-0.2404906757007421,1.1098810120686171,0.0455615925258459,0.02990876625208165,0.028849861399101843,-0.20991942674840225,-0.5288106782656014,0.020483776966806845,0.07344884033047423,0.010901227026961764,-0.028012880340835274,-0.016807262287806293,0.609375
-0.019767655067608882,0.1656803251069223,0.12260389536647981,-0.5608375117821819,-0.021868591872095132,-0.017091671682874933,-0.013971939060194987,0.10573884163969367,0.26890521004647355,-0.010471550149994395,-0.03613596507152013,-0.005533786254497443,0.01419145257880574,0.00916942303802792,0.6171875
0.02309902583163631,-0.2050995089323017,-0.1481597100809131,0.688667757089723,0.02865280367728165,0.01794311482186756,0.018056114474203147,-0.1306631076694935,-0.32738368909110765,0.012658754383595268,0.04596168741586729,0.0067164370080934795,-0.017352079999731713,-0.010233816817746412,0.625
0.08511394457431322,-0.7415916624363372,-0.5405220657639218,2.497186621524714,0.10166942448582712,0.06869746631541544,0.0643965313021274,-0.472603379675168,-1.190488706732266,0.046154801407243186,0.16462548388868023,0.02447877278822103,-0.06297452665580537,-0.038321470613628804,0.6328125
0.013279758515431669,-0.11840687536423541,-0.08611455828719589,0.40331982601784633,0.016998987445747613,0.009818606613003194,0.010727130918993142,-0.07702674035623751,-0.19068059526641734,0.007416655735833832,0.027037075572477486,0.0039373187039017,-0.009990047399225276,-0.005745439598383126,0.640625
-0.1201024431414639,1.0376975214361386,0.7581583113297398,-3.487098574713598,-0.1401823119869619,-0.09949779299864916,-0.08895593879061743,0.6578814844317781,1.6663118753855475,-0.06455310349069011,-0.22835174327411784,-0.03424653711715297,0.08834003753381252,0.05473989028948015,0.6484375
-0.10278191270827032,0.8877516901905158,0.6491266686124573,-2.9873587601937386,-0.11998588690606792,-0.08532640910414331,-0.07610393018958461,0.5629890945763235,1.4261217412181406,-0.05521533596937018,-0.19531392768716135,-0.029308031057254495,0.07571571646357605,0.04693077338203555,0.65625
0.039469822743605436,-0.34477352905886854,-0.2508223153700852,1.1541457212473831,0.04726332129292479,0.03126879705174179,0.0300603686211715,-0.21990826389609303,-0.5533144209975801,0.021521685591719776,0.07679891099345874,0.011410682537142948,-0.02892217257458168,-0.017521008882360828,0.6640625
0.06394088654461935,-0.5571375146771192,-0.40591202592244174,1.8671958938813544,0.07601524833422674,0.05139831456785008,0.04830652213732212,-0.35435676051223514,-0.8942523865665398,0.03469539556090882,0.12358200002304634,0.018429695468577173,-0.04696660657363767,-0.028641032440707398,0.671875
-0.06603412539678069,0.5683795735341893,0.4165390203479502,-1.9170581995333573,-0.07679382415526514,-0.055044626646990884,-0.048729768487076996,0.36140114560756825,0.9139695036667599,-0.03546448886987739,-0.12503086977255898,-0.01878165945830517,0.04856839966100399,0.030202364771128105,0.6796875
-0.1162267139926431,1.0029584206797542,0.7344669402598877,-3.3776463014138827,-0.1356659513697349,-0.09614825750718181,-0.08616699413957615,0.637602100389373,1.612016669973338,-0.0625651675387824,-0.2209068226169685,-0.03317539720269835,0.0853976548487824,0.0529147931089265,0.6875
0.004569591652712923,-0.04352552917845685,-0.030046668097558165,0.14074980454902075,0.006545065179325127,0.0028435378726396577,0.004068875051065452,-0.02782965261951407,-0.06914223432514463,0.0026098541498990285,0.010317140676269468,0.001394239809063312,-0.003525964368735585,-0.0018029624920335267,0.6953125
0.09873996341660833,-0.8595476972654503,-0.6268744472533752,2.884459385903129,0.1173765091385272,0.08000156772246628,0.07444663265224274,-0.5466958564110349,-1.3794844070594268,0.05344271927095272,0.1905127313924748,0.02837488667923344,-0.07284343331653075,-0.04444054807504046,0.703125
0.039924968017755066,-0.3503518596716565,-0.2556646390857795,1.1762515296562819,0.048286267533885936,0.03178583627050123,0.030644676309982195,-0.22315328856501404,-0.5610855564525126,0.021748983535706364,0.07800100461536269,0.011570576376295287,-0.02964175194737635,-0.017803966896906175,0.7109375
-0.02354484465207573,0.19971103580979618,0.1458384840556292,-0.6662986808388237,-0.02629119192867622,-0.02023977914216368,-0.01664928477341058,0.12620617518553578,0.32167232664890183,-0.012472482998186374,-0.043418391925416806,-0.006586259754326727,0.01699786324131021,0.010903374774363763,0.71875
0.042727069514297,-0.37381229877438804,-0.2729589588363117,1.2647822548625511,0.051608981470706916,0.03404851750594383,0.03282449949061651,-0.2386178967359281,-0.6007452820020094,0.02327113494847067,0.08333224914330888,0.012373541092461048,-0.03173388873725786,-0.019142284329361967,0.7265625
0.11939446420232643,-1.0380407617304013,-0.7576458423175492,3.4931978397034626,0.14163253854095878,0.09685035501237164,0.08997960961310576,-0.6605812935304763,-1.6670533866495705,0.06462157294255515,0.2299387670247379,0.034304336230848054,-0.08806642415413786,-0.053848629140795,0.734375
0.05318658962910423,-0.4651721687726797,-0.3385156113817757,1.5609011583638595,0.06363283936451852,0.04260162102549749,0.04045599585087139,-0.295733374298093,-0.7452701704440213,0.028921301072821235,0.10321937104248799,0.015346688272591235,-0.03929428699326416,-0.02383578801041296,0.7421875
-0.07497630475326471,0.6451640712757079,0.4729990401199504,-2.173225913767276,-0.08714507025399093,-0.06239307171054404,-0.055327501562834364,0.4102972332652366,1.0376041100780196,-0.040207816815099044,-0.14200730447789264,-0.021341812352010183,0.05506386083346206,0.034209651626491006,0.75
-0.10001565400620023,0.8632988518349182,0.6323584712369995,-2.904724028750991,-0.11655461762087165,-0.08292324516312162,-0.07413542292564193,0.5482176071765522,1.3851357047348982,-0.05375560046836948,-0.18992134474580646,-0.028518188152298646,0.07356273615994655,0.045558188526586635,0.7578125
-0.04855673702686667,0.4183508063994189,0.307006089875803,-1.4090236702854144,-0.05594693828882804,-0.0408039917484393,-0.03576698707523053,0.2644832180823804,0.6691832969781232,-0.026039046640939163,-0.09144469470738469,-0.013792303264876462,0.03572556049614243,0.02229987391289712,0.765625
-0.04472936483741681,0.38471898093834994,0.2819424138339286,-1.297052418451536,-0.05136541889639599,-0.03768284083550897,-0.032826227769688285,0.24292840225011633,0.6170374713345909,-0.023946717933868912,-0.08407900079415095,-0.012682518543676174,0.032855333617415786,0.02061410428283092,0.7734375
-0.05855005953528684,0.5039458601923298,0.36855130358667737,-1.6957445039069177,-0.06760061779000018,-0.04900212220621743,-0.04300718078375829,0.3188131947588207,0.8103966846495949,-0.03135041366255966,-0.11051397044179728,-0.016625298695158032,0.04297462375057224,0.02688181670623962,0.78125
0.007710924655010001,-0.06961801647655727,-0.05072844896444294,0.2363565990204575,0.0102639674624092,0.005262794892313685,0.006532624061232104,-0.045974120217758215,-0.1112248184240677,0.004374724804272726,0.01621508063480847,0.002333681933794042,-0.005768099146417954,-0.0031442190866922157,0.7890625
0.0939693903099589,-0.816881724531472,-0.5965717548955444,2.748486013233497,0.1116074310620813,0.07592119367812047,0.07095089001633816,-0.5207053818351601,-1.3115605123800789,0.05085912586256585,0.18121693966953964,0.02701479805547883,-0.06923823457529123,-0.04223467593867928,0.796875
0.08870318682271806,-0.7729034831522943,-0.5640170883080564,2.5958254785079884,0.10537328602449854,0.07164852500026277,0.06706216952077045,-0.49146744314627844,-1.23850756465211,0.04804424167960848,0.17120109977383244,0.025513055477261917,-0.06544792484968694,-0.03988414704148117,0.8046875
0.030992511594055916,-0.2744404712868824,-0.1992495893602016,0.9161714805851933,0.037549465528112676,0.02441423471140888,0.023998400845931453,-0.17359009756233104,-0.4358329441408856,0.01696195336655837,0.060903833022741584,0.00899292484204953,-0.023064168087618082,-0.01377818477519283,0.8125
-0.010892273785441532,0.08917690294270646,0.0666674687956712,-0.3050126662758225,-0.011713036632950105,-0.00986999710653295,-0.007362170898586778,0.057223857030346874,0.1462762439420299,-0.005664621411925285,-0.019226856868951203,-0.0030107720381643134,0.0078098006854098855,0.005177524412249529,0.8203125
-0.07214128504025571,0.621536893411507,0.4552287476116204,-2.0910981181884685,-0.08386623365427721,-0.059981835717078706,-0.053227347451887175,0.39496057813799107,0.9975015587761742,-0.038754542448949394,-0.13659210268384334,-0.020536013132239534,0.053009667415111796,0.03290462319313288,0.828125
-0.1203632899350296,1.0394295917979854,0.7601703074045723,-3.4952692319378276,-0.14058715364567256,-0.09943728095050144,-0.08925508103787526,0.6606932814183609,1.6679316128302926,-0.06472328647311994,-0.22899347204961,-0.034309818657065866,0.08850500516808275,0.05473359596517739,0.8359375
-0.029450889934845594,0.25072955386267276,0.18434775119101846,-0.8460851167403394,-0.03340323410351739,-0.025037590276554954,-0.021294636533108598,0.15943384405471,0.4034706017418484,-0.015623628113788987,-0.054922040734759064,-0.008286365757016486,0.021475642367689785,0.013580654331542891,0.84375
0.1242012521899886,-1.0803649572591698,-0.7875527396312684,3.628455919451142,0.14752920896079177,0.1007244166270787,0.09346077114059007,-0.687366538756831,-1.7337824251267866,0.06720753284190584,0.23927242915206223,0.035661891818974986,-0.09165572508741843,-0.0559719041886746,0.8515625
0.10059432337231886,-0.8746090676755551,-0.6375398066211875,2.940102570790505,0.11961565453874733,0.08142360639770697,0.07578814345275903,-0.557066851153243,-1.405552982879181,0.054394515832161906,0.19406340801697677,0.028897848194049117,-0.07418018668860872,-0.04528507415324792,0.859375
-0.05818691325413493,0.5011475838839129,0.36674218987758755,-1.6827948642961872,-0.0673907606042565,-0.04854231821785696,-0.04275124806395205,0.31790881586747083,0.8033550948337337,-0.03120731581317863,-0.10992004671550619,-0.01652011426120818,0.04275281113412389,0.026597254090552577,0.8671875
-0.056397033946650056,0.4842975766768909,0.35436119058393706,-1.6289582462945833,-0.06523217804961848,-0.04712079194806539,-0.0413051523560124,0.307658943057425,0.7793300148070859,-0.03013837302213672,-0.10644649919595778,-0.01600001825280879,0.041360598762580865,0.025805189597400947,0.875
0.10680093397580419,-0.9300674000627107,-0.6783493369799406,3.1228130050227523,0.1269208856748503,0.08641788769941264,0.0805836981503613,-0.5918952464359242,-1.4900409690810013,0.057869290406760816,0.20602973165067584,0.030677806214290032,-0.07882548653478656,-0.048049846153707006,0.8828125
0.10948313244937524,-0.9516405681912734,-0.694135366087516,3.1982562672591692,0.13002696930528765,0.08858699801365828,0.08245687366205,-0.6065121164567876,-1.527566485795418,0.05918943276925358,0.21114604526548367,0.031425208663725356,-0.08072137020121069,-0.04925172717936647,0.890625
-0.10569344261808723,0.9144558144851072,0.6683241413601481,-3.0694265819094113,-0.12326589171958618,-0.08756933551030562,-0.07834192645307064,0.5793287394624307,1.4646779243438788,-0.05692061204863217,-0.20084296847659414,-0.030139921534001392,0.07776710406463691,0.04816146578510381,0.8984375
-0.21394403504402024,1.8521788086974442,1.3529151312059653,-6.221529970589847,-0.2505913137193899,-0.17617962794396697,-0.15914357770209595,1.1756508175293858,2.9699747290763443,-0.1152349476937459,-0.40809920643460723,-0.06109800214596406,0.1574268403516335,0.09717099616751566,0.90625
-0.05751694623767755,0.49541123653920255,0.36228878541101106,-1.6659766981058368,-0.0664552202711451,-0.04810067607816409,-0.042245414503055884,0.313637337268476,0.7946029010228712,-0.03081969485169767,-0.10863796366406166,-0.016335538639341757,0.04220664319127245,0.02635974535276826,0.9140625
0.12252708915532852,-1.0654978441428327,-0.7771405690119783,3.576983741679245,0.14531923729023274,0.09929017330399614,0.09219580661249038,-0.678146725997949,-1.7089296993456893,0.0662443201608674,0.2360120142546085,0.035175064966624724,-0.09031982760384243,-0.05515276839206918,0.921875
0.09430136491805508,-0.8214908713286029,-0.5985609149380514,2.756321915743715,0.11202292397903024,0.07615839022802508,0.0710804396873003,-0.5224769468530286,-1.3163213238849525,0.05103525285345433,0.18197727058826174,0.027107232483979664,-0.06950766675823593,-0.04239468715299506,0.9296875
-0.04918172770474774,0.4205648334952788,0.30853527473862474,-1.4190374187540729,-0.05673689666701645,-0.041286178840634666,-0.03598998763933524,0.26782262243677296,0.6786349622914915,-0.026204103909709744,-0.0926366031586028,-0.013922023557995215,0.03606072121739007,0.02253259072377536,0.9375
-0.08166775072500665,0.7010785664811438,0.5131277653938155,-2.362946530521194,-0.09488648476781143,-0.06782611590752906,-0.06011248138988509,0.4466211648280643,1.130313288304065,-0.04362727486247076,-0.15478863441988153,-0.023204427558125774,0.0598834945434001,0.03722499120946182,0.9453125
0.03278977244511499,-0.28981057651527636,-0.2108003401902266,0.9692914607082456,0.039721194279790616,0.025874302781274634,0.02537318555634989,-0.18373401401469067,-0.46068619110243647,0.017994535506358992,0.06426310697572517,0.009523545058503372,-0.024371250671348797,-0.014574401771372541,0.953125
0.11648751218975743,-1.012975295607132,-0.7389858312224159,3.4044033261483886,0.1381432730972226,0.09435871472824328,0.08775598518649526,-0.6445568452759481,-1.6242604927142736,0.0629683836586324,0.22445032250661948,0.033438180963942174,-0.08591043780273894,-0.05244757782441503,0.9609375
0.04592668343199457,-0.4004980097148951,-0.29155384761783326,1.348610912599937,0.05518757348816447,0.036649295409877984,0.03497545470079493,-0.2557607816667235,-0.6438920883637375,0.024898133895186206,0.08943474446546983,0.013238787789007715,-0.033939114614802306,-0.020526353332368633,0.96875
-0.0661706477795097,0.5705150987890546,0.41771641901648854,-1.9163266777333336,-0.07668669751379086,-0.05499976984043056,-0.04874200688881139,0.36197080174955315,0.913888715709705,-0.03549777677946823,-0.12514537910971352,-0.018823514721614174,0.04856928037074076,0.030183034521599695,0.9765625
-0.057123629050575594,0.49181244295970566,0.3603480702382867,-1.6548924258296565,-0.06617257946043446,-0.047568416995911605,-0.042011198952830384,0.31255290030505867,0.7879245447043619,-0.03065956273594667,-0.10793577189925031,-0.016229616904187456,0.0419460822882609,0.026087341028521595,0.984375
0.027038491880615467,-0.23748040895770942,-0.17206117282645464,0.7946579508401647,0.03278851723326996,0.021252272944346288,0.020794967424488407,-0.1509811199855469,-0.3822726030847809,0.014656431477717837,0.05315970861933362,0.007843632027833315,-0.019964170291372596,-0.011990364875846768,0.9921875
0.04430575029174477,-0.3875106249185325,-0.28152300890861814,1.2997683154412027,0.05326957817555422,0.03533649034474589,0.033731587703318945,-0.24665097537668396,-0.6226112506891327,0.024018462965057094,0.08637530603207279,0.012781569045900094,-0.03272721628955005,-0.019807870064360834,1.0
0.00605326921892834,-0.0562187688987456,-0.039935705231539075,0.18858769940388395,0.008463559323683237,0.004005826384899513,0.005249551486419088,-0.036648091966061856,-0.09060029442669808,0.0034803696082005213,0.013228661172707172,0.0018452332398565371,-0.004655988247563738,-0.002486722056113212,1.0078125
-0.007117081538353499,0.05883213663494903,0.04342872753095139,-0.19616895942792403,-0.007018981140012066,-0.006848631639649561,-0.004601313179422272,0.03556983913669527,0.09352215993640972,-0.0036419075646767964,-0.012105675273154827,-0.0019153105909526407,0.005063294076072988,0.0035331242445306187,1.015625
-0.030517372195523917,0.26223020978953177,0.1916957822680957,-0.8794442039540173,-0.034661944748638165,-0.026109941846052833,-0.02212930241258852,0.1644685017955033,0.42002879565653684,-0.01630369947321199,-0.05697633781686621,-0.008606279632746414,0.022377827450460287,0.014184611568341046,1.0234375
-0.09216435220392687,0.795035237262807,0.5810956730116906,-2.6714641371227534,-0.10726335060658522,-0.07660704198939397,-0.06808099485116696,0.5040749245654584,1.277555251066472,-0.04946192794524246,-0.1748982823109497,-0.026232453958235234,0.06773834652945726,0.04206977566683556,1.03125
-0.08553579861742379,0.7357663649127276,0.5380733632989505,-2.4744972802483383,-0.09948048089574757,-0.07113228131728147,-0.06299683131932791,0.46760623472346086,1.184901910921301,-0.04577301767049176,-0.16218849013284997,-0.024319836959456963,0.06276486851718506,0.039010054094420016,1.0390625
0.03110998374038304,-0.27446888105414813,-0.1997956144687229,0.9188398353242138,0.03773089494699255,0.024417453964461145,0.02404702541260047,-0.17469592458191208,-0.4377351306417944,0.01708871586198599,0.06096945020713743,0.00904963168733532,-0.023069710206547224,-0.013792162309816459,1.046875
0.11197428702335649,-0.9730834390328865,-0.7100228188815944,3.2665067890068182,0.13283185784507046,0.09066826803638707,0.08423715091725881,-0.6197653977423824,-1.5624299059407791,0.060565772826320904,0.21570429873289815,0.03215691812912389,-0.0824550570900657,-0.05035639288342633,1.0546875
0.061122080622133826,-0.5321313999662063,-0.38769014245151195,1.7857586350485897,0.07299881848100503,0.04908919782528454,0.04624218887449823,-0.33944484373038575,-0.8550359065634747,0.03311800796593552,0.11846640002522103,0.01758992838715746,-0.04501064266188945,-0.02734837075786298,1.0625
-0.01692085234713291,0.14223536276157772,0.10509662522528788,-0.4799380562490965,-0.01877412956128836,-0.014775360984767285,-0.011867608447506929,0.09037666563493854,0.23047897012952956,-0.00889658541190906,-0.030828548236720633,-0.00472274361509988,0.012274234145463078,0.007917841398721759,1.0703125
-0.014874466991852651,0.12344348656174962,0.09144150708688463,-0.41724929020668583,-0.016320578563748907,-0.013100722787481292,-0.010280228567720396,0.07904110034340867,0.20167628668822443,-0.007784398598820038,-0.02691598798550768,-0.004120122805927084,0.010667741814831756,0.006956487801202005,1.078125
0.02570175278221816,-0.227053966373841,-0.16446019162249811,0.760640068804275,0.03138786124828347,0.020134021074100603,0.019892025511245397,-0.14422333701751672,-0.3633595900768128,0.01402181126541553,0.050718562174449304,0.00747285720356529,-0.019115746537729923,-0.01140781277288639,1.0859375
0.028731427026565007,-0.2522669273763782,-0.18273514167118585,0.8458245595652681,0.034868280541252884,0.022651486125580135,0.022085642365390783,-0.1605640112508341,-0.40580262091685604,0.015619443424301029,0.056490853228544795,0.008315307891634092,-0.021248747879521915,-0.012777261366384898,1.09375
-0.010850993192273214,0.08998224921141681,0.06720595392367452,-0.3054680971619007,-0.011708577879529823,-0.009755517343837287,-0.007378267405855552,0.05742518912549722,0.14517831696294217,-0.0056784735163139055,-0.019279760226113624,-0.0030026948012472168,0.007848263296846755,0.00514741714168672,1.1015625
-0.058718688605388175,0.5038020946862249,0.36921085415046545,-1.6975831225375126,-0.06792440027593757,-0.049011390288316956,-0.04305134281434871,0.3206504718095251,0.8115051108212917,-0.03144446972579946,-0.11087035973289515,-0.01667497184719487,0.0430070992315971,0.026847666619990513,1.109375
-0.07044871485541968,0.6064167687266214,0.44376921176677325,-2.0397520401534104,-0.08166240466373731,-0.05868456243457313,-0.051876238457069714,0.3849583285433265,0.974543290404428,-0.03778630408227852,-0.1333359442158374,-0.02002740266711445,0.051677991994563875,0.03218447266695002,1.1171875
-0.017989776760242056,0.15407681073485177,0.11286267113263002,-0.5139740829906013,-0.019996590901131303,-0.01574010132020869,-0.012797295821881055,0.09605872981633715,0.24427968961210783,-0.009538661240354077,-0.033041209824451405,-0.005027093593884002,0.013185533782036445,0.00843871570205584,1.125
0.047215881815192144,-0.41020149512688786,-0.299610300456157,1.3833170771247887,0.05667996710261821,0.03767808535693607,0.03588095882612893,-0.26309405134978764,-0.6629759644190538,0.025628091364730408,0.09172408786574346,0.013633572159282363,-0.03474601663595347,-0.021072219072960075,1.1328125
0.034577705225245496,-0.30251986394929753,-0.22064920433403626,1.0159321862440562,0.041864968384599834,0.02731738232920744,0.02650105688856114,-0.19373166207337814,-0.48678905390107896,0.01886988520777663,0.06770129846840692,0.010030104970134587,-0.02550742962365237,-0.015335896073015316,1.140625
-0.03357201905278981,0.2858776698670153,0.2097487242955684,-0.9649866387210652,-0.0382861698202573,-0.028547251571615157,-0.024314393665515358,0.18147812141280242,0.4617746632351864,-0.01783896041076123,-0.06258731483930108,-0.009467053952760277,0.024537006848777288,0.015498707986434776,1.1484375
-0.025633200204040845,0.21729117411980567,0.1598374497733574,-0.7313093952996534,-0.029007724564544434,-0.022090794051972895,-0.018355113450529946,0.13785002657021475,0.35170940772846426,-0.013592397908482363,-0.047490663598297796,-0.007205633983773821,0.01865565295547452,0.011875039434135507,1.15625
0.07967434559770169,-0.693557634874999,-0.5056300400970932,2.3322182054824165,0.09485783868461074,0.06415562224328647,0.06024177526736127,-0.44211493007056457,-1.1128467609187507,0.04312693635904412,0.15390577451768336,0.022910333427733732,-0.05879204466618379,-0.035777729335763,1.1640625
0.11836482470023606,-1.0286993410844685,-0.7502927383531977,3.4543988648149675,0.14044312721454033,0.09589859959923375,0.08909221239442874,-0.65524006436156,-1.6508013305460467,0.06399212443291014,0.22800442049535405,0.03396880861699938,-0.08722803467083581,-0.05325032713289446,1.171875
-0.004399152441774091,0.033465077127711344,0.025810584982895735,-0.1190277511813029,-0.003925008963369957,-0.0045425544124546606,-0.0025524517227762753,0.021138713682865892,0.056345920303057635,-0.0021237720746241093,-0.006825725464902829,-0.0011495378183422385,0.0030745319178097654,0.0022985778239919125,1.1796875
-0.13029729863702702,1.1237897213520798,0.8220738709278057,-3.7800980256422454,-0.15204086125750935,-0.1075677475880393,-0.09653917775777206,0.714916290886818,1.8063197451230923,-0.06995609291056354,-0.24780864458056365,-0.03714542997178635,0.0956775526599265,0.05921511314249133,1.1875
-0.08692527672681012,0.7491590944454005,0.5482176322144117,-2.517370667331213,-0.10105125539969648,-0.07207297954370075,-0.06421557024809922,0.47608390197100403,1.2026287384392962,-0.046619450129633866,-0.1649273336583772,-0.02472518491325208,0.06378887218506896,0.03957135330634689,1.1953125
0.025665422850862405,-0.225472088889345,-0.163496613334874,0.7550492493054412,0.031307569900481,0.02002374085830729,0.019778692436300108,-0.1441876946531076,-0.3620806204332857,0.013987439474104642,0.05049426803316347,0.007460982634064558,-0.01899011839460621,-0.011317779298286673,1.203125
0.017537246893651475,-0.15510116746257605,-0.11204545883001309,0.5149394946579953,0.021597460039973943,0.013319028932874366,0.013721834418543423,-0.09932382666313964,-0.24773396234138156,0.009549999875302886,0.03495022719521088,0.005103108128895953,-0.012954947835026858,-0.007585422214623742,1.2109375
-0.052735664376144804,0.45365990310468307,0.3321225673127201,-1.5274343885612756,-0.06110611479218119,-0.04415972438142215,-0.03867531047827317,0.28789918645429213,0.7289291551207477,-0.028311996116826443,-0.0994804021319662,-0.0149930084420338,0.03874689930628858,0.02417878481322344,1.21875
-0.012699010508034425,0.10636425350997357,0.07814652355275521,-0.35520486381131794,-0.013859081916510039,-0.011297265236851171,-0.008712520041978627,0.06721949109560996,0.17041971173916126,-0.00665210555645696,-0.022742166200738996,-0.0034975729794143907,0.009197760105592903,0.005972619987793369,1.2265625
0.07759790760076415,-0.6770205090929445,-0.49384227715446544,2.276633209420719,0.09249158195250522,0.06265222728998567,0.05876215782311922,-0.4303844668067688,-1.0857778729034189,0.04208726310998768,0.15013013354091695,0.022359737020151156,-0.05734353867784499,-0.0349283936335928,1.234375
0.05035318000950695,-0.4409616875351009,-0.32151153618651834,1.4811629698651625,0.06040916009792959,0.040326534364036395,0.038434111665623695,-0.2802904309780216,-0.7061312264891901,0.0273945801677415,0.097890727211811,0.014554856317476798,-0.03727741893464441,-0.022557966595081354,1.2421875
-0.023765462166696665,0.2028950593438711,0.14829799639518085,-0.6800072541682263,-0.0268043638523671,-0.02038907054777677,-0.01696485774786936,0.12796498917507965,0.3248629084374761,-0.012600398194157033,-0.04406873762379445,-0.006667536596945155,0.01737234296247667,0.011039769082869832,1.25
0.02370576754940256,-0.20759673845312684,-0.15124668924468734,0.7015059102819178,0.029155688512326042,0.018403024159612473,0.018401457831585644,-0.13385183302628673,-0.3356277809331962,0.012989794233582506,0.04684437553184787,0.006907030033146778,-0.017523851279298217,-0.010431676354112657,1.2578125
0.10645637545080348,-0.9259466752821652,-0.6748398912869754,3.1112097202824973,0.12657975029597465,0.08607023453003908,0.08016097944897319,-0.5898992923516202,-1.48628366733426,0.05763184232871141,0.20533367752140896,0.03057466320634442,-0.07847938062607077,-0.04789560628255887,1.265625
0.039180898667243176,-0.3440912647336947,-0.24935523615787158,1.150538456790948,0.0473269114919973,0.030983243042378882,0.029926875171272252,-0.2190473666558541,-0.5503124092390073,0.02136264664367923,0.07654627495699132,0.011312049172034919,-0.02897874751201798,-0.017442757710884,1.2734375
-0.10182376487799827,0.8784957708482696,0.6431638017497162,-2.9581149177755663,-0.11870014991204925,-0.08440944157421028,-0.07538556721370376,0.5580478185138151,1.4107872613583077,-0.05469682010213,-0.19343474252589624,-0.02904083776504249,0.07486498720851018,0.04640203050237146,1.28125
-0.11780214418801094,1.017602781386812,0.7445066477278336,-3.4238630818297686,-0.1374958903772632,-0.0974680371314585,-0.0873448720284025,0.6460256510936648,1.6334587333528257,-0.0633378311846886,-0.2240192803759032,-0.033606943325889545,0.08663371540207607,0.05365071595684827,1.2890625
-0.03062515977510251,0.26142751978441564,0.1924384329951355,-0.8828043841238096,-0.03483283431276965,-0.0260923091501164,-0.022240137745906885,0.1654987601296871,0.42172935061471806,-0.01632648358180739,-0.057073954295529375,-0.008645880610993553,0.022377134536242183,0.014179167292475457,1.296875
0.006614456249519945,-0.06167986882699561,-0.043760518390453494,0.20443331803512493,0.009017417878812318,0.004422514257026747,0.005605720867863078,-0.03974334474461242,-0.09637708455788106,0.003759754197344972,0.014222456352197346,0.0020264906681229868,-0.005089618319160404,-0.0027061923646076987,1.3046875
-0.015965176295177907,0.13489533774229231,0.09902707456724824,-0.4521945371314293,-0.01765266403605754,-0.014054324913146116,-0.011202591317093367,0.08488815009819514,0.216851853413758,-0.008438286063665612,-0.02910159314717484,-0.004430936949507251,0.01159063863518414,0.007501455398581625,1.3125
-0.010860746298789678,0.09129868209338421,0.06673450638579236,-0.304731767265994,-0.011820965897863979,-0.00989966055435902,-0.007339270084446153,0.05717269990562681,0.1457545606904048,-0.005718183080746568,-0.019444529006485058,-0.0029800829380745232,0.007925882061754569,0.00520507632424395,1.3203125
0.028639343876971885,-0.2515770109243502,-0.1834753478575275,0.8437729472209097,0.03458229241047694,0.022477228007312194,0.022174045971326863,-0.16014440867640375,-0.4033075508224288,0.015582411506667355,0.056173222200982656,0.008315321124019455,-0.021125031572359707,-0.012666522173386291,1.328125
0.048666903043834135,-0.4260096856793627,-0.31051555480561593,1.4274184073652612,0.058263547994156006,0.03899821063385507,0.037122073231714424,-0.2705117293981112,-0.6823095450840381,0.02643127757470249,0.09463295782931701,0.014051824547864722,-0.035924754328732524,-0.021764352035141613,1.3359375
0.0267776247053671,-0.23687286349336803,-0.17221610711429713,0.7937805406268237,0.03269535150219677,0.021145948036542357,0.020803315339457566,-0.1502532097767643,-0.378672647132379,0.014698178996304443,0.05283872112727767,0.007801432137916847,-0.019916792975425153,-0.011909131176549972,1.34375
-0.012923258968278957,0.10698097025968623,0.07893274166612647,-0.35884820722892075,-0.013906616656274674,-0.011421666516206843,-0.008803116586794975,0.06807002366637509,0.17339213920106208,-0.006662616367626808,-0.023154003240243144,-0.0035490857815587387,0.009224001022335466,0.006043498005942883,1.3515625
-0.014242817871049585,0.11899528075809018,0.08769890259190963,-0.39856490971828185,-0.01540449824031663,-0.01259248479208117,-0.009829716503387521,0.07506347841587838,0.19207614275082463,-0.007371324555872959,-0.025718021847478654,-0.003929631655901036,0.010204472296579156,0.00667537312843386,1.359375
0.04588863908477099,-0.4009835755172496,-0.29186367417778125,1.348035914718632,0.055404493180968704,0.03659133028787901,0.03496667003533602,-0.25636086176592393,-0.6440085911686435,0.025025990404746457,0.08939920241246362,0.013255573011032813,-0.03397926648090302,-0.020493633229093842,1.3671875
0.0879248985712901,-0.7647505126651238,-0.5570669147100458,2.5693365825091115,0.10484832115264846,0.07093455667823263,0.0662992096579559,-0.4879435711679196,-1.228259931067892,0.047647522782827814,0.16989526230335192,0.025254448789016774,-0.06485804269899455,-0.03948937015323703,1.375
0.03063365097229148,-0.2683420066196196,-0.1942481711321555,0.8997351030818954,0.03725836678094626,0.023922933526604625,0.023506579264955724,-0.17200459626425313,-0.43100676240588975,0.016675378667406964,0.060167755898443406,0.008844333514222475,-0.02263396006904936,-0.013535875166190914,1.3828125
-0.06037924017274845,0.5207963627158247,0.38176985491064014,-1.753308009478963,-0.07009550048292634,-0.05061569130303821,-0.04451418595801239,0.3300261372127442,0.8347407955538902,-0.03250284824782908,-0.11419664467098603,-0.017194481012490225,0.044464368416008676,0.027679670836979527,1.390625
-0.07262072528415962,0.6274278354278081,0.45908010057739984,-2.1120977868749433,-0.08466468001354753,-0.0605516062468971,-0.05372110543312593,0.3979563272265998,1.0048264010664805,-0.03914939799479636,-0.13771777876700889,-0.02068354651283837,0.05357532265565966,0.033225952805539694,1.3984375
-0.032889895636912775,0.2823387024962836,0.20677622636447654,-0.9525122039593761,-0.037849103781709234,-0.027932452080957626,-0.02399625131176654,0.17886983787953253,0.4526260859448419,-0.01765398474908827,-0.06158080033539757,-0.009296726107038319,0.02428109426004064,0.015224160658682989,1.40625
-0.029488846081287403,0.2510697686121236,0.1840106939201676,-0.8467214331443346,-0.03358181139625327,-0.025105376027531864,-0.02129244615538326,0.15934309336037367,0.4055826442581836,-0.015685433921018066,-0.05488169541191093,-0.008299508595711439,0.02157379962817084,0.013646311693461532,1.4140625
-0.044817401320579306,0.3827990383053225,0.28043921391141896,-1.287193904140408,-0.051370580984865556,-0.03761618238286487,-0.03260191097090763,0.24322376071321522,0.6181626408475124,-0.023857520444013774,-0.08411641179659056,-0.012666031743622725,0.03266214895920704,0.02052930194570021,1.421875
-0.020251328896018973,0.16993786218783907,0.12519816236527756,-0.5695843374326193,-0.02244881101264802,-0.017468619648937398,-0.014210100567183755,0.10806888356282954,0.2757739985926272,-0.010585990095120804,-0.037167298517596696,-0.005634639471513514,0.01452946328399814,0.009357910804318581,1.4296875
0.021668284715629534,-0.19280659304994419,-0.1397462731792451,0.6493274980115509,0.02670847036565948,0.01683652017567529,0.017059731823698847,-0.1223338551481061,-0.30726897046776264,0.012007293005896561,0.04291056044898488,0.006350154425300442,-0.016235166699476115,-0.009620460014319265,1.4375
0.03669861924597114,-0.32215593257657266,-0.23454245595020487,1.0815716160182096,0.04428148813206609,0.02910376919097279,0.028175793074756317,-0.2049079808027069,-0.5161393175150252,0.02007038542719517,0.07160389915919257,0.01064027905145136,-0.02715565705351226,-0.016366363400468167,1.4453125
0.03338240505179799,-0.29237919566452164,-0.2130362227889014,0.9793062788087497,0.040414348632796436,0.026387833161326184,0.025584497467552838,-0.18678775809794484,-0.4700626665940697,0.018208264310110113,0.06532959337186628,0.009677563835949202,-0.024629986614351524,-0.014801099674484479,1.453125
0.028444916188726188,-0.24936284951546628,-0.18140299191801693,0.8343219830934584,0.03465830039758716,0.02235973749004751,0.021885265045496115,-0.15973921140995476,-0.40113291280690394,0.015486179752892591,0.056005503360313055,0.008244292340060107,-0.021021278722995383,-0.01255279709589264,1.4609375
0.022437020612579118,-0.1979676840089586,-0.14341124935315946,0.6619354057155804,0.027559420835573993,0.017418020615561563,0.01746551061067114,-0.1265889840688809,-0.31696642534146685,0.01223868369437789,0.0445573966578267,0.006509894408280374,-0.01666037047300668,-0.009857108185032654,1.46875
0.02007746910572321,-0.17792905280684368,-0.12858777716219424,0.5945362080487543,0.024715348833578576,0.015450873665982977,0.01572125459397929,-0.1134363442230486,-0.2839136981732519,0.01098221041986477,0.039994816765594014,0.005836926374271982,-0.01491775328087304,-0.008800619844470278,1.4765625
0.009214205094563208,-0.08357876280480749,-0.05994437110108004,0.2778543122417066,0.011909491223985096,0.006555925858141477,0.007582582158793468,-0.05353463248183237,-0.13302931460228312,0.005134999869764012,0.019134816136880645,0.0027447608609895598,-0.006887890678473276,-0.003877112663869943,1.484375
-0.02228807780196769,0.18945980803550144,0.13905975624456318,-0.6378712548518634,-0.025115122056995308,-0.019226458194019105,-0.015913404603268597,0.11990136023353379,0.3049777754500139,-0.011833727111806332,-0.04118802517252632,-0.006252312166451633,0.016263793931600965,0.010376924536085977,1.4921875
-0.028163425191150625,0.24034830954162478,0.1761819058465408,-0.8069782778001959,-0.03197561278704436,-0.0240587056161966,-0.02027800723278134,0.15218578050356996,0.38652996553428376,-0.014988527585870727,-0.05244325992196245,-0.00792822477255144,0.0205474554535615,0.013020801971972385,1.5
0.0215961704297237,-0.1900506536499555,-0.1377739495127605,0.6395289731664465,0.026557618476027528,0.016647766603873477,0.01676877880992378,-0.12180159729155256,-0.3060119124490523,0.011811377618762681,0.042751301028766786,0.006301187156570892,-0.015995413076554978,-0.009497706031151389,1.5078125
0.036841163803679834,-0.3210865733047549,-0.2332801398879844,1.0793782963038676,0.044448216523319775,0.029126725832304284,0.02801963821701459,-0.2056673346595751,-0.518463716467997,0.019990779587913392,0.07187604318432808,0.010655383849332588,-0.02710037340701054,-0.01637669118051118,1.515625
-0.049791509812821044,0.42933136509394537,0.31440302189904135,-1.441558925703785,-0.05742125164368176,-0.041772178721679584,-0.03660744017703386,0.27131450259750417,0.6862994175936173,-0.026682947549211276,-0.09390545384784907,-0.014124966983465994,0.03661477470944019,0.022833686511576357,1.5234375
-0.11217891331977418,0.9682920691743402,0.7077032837997832,-3.2523505702298396,-0.1306644587903988,-0.09281610059615973,-0.08299244819194371,0.6145538546452797,1.5538640089408484,-0.060214216267080546,-0.21318290180373767,-0.031961069525006415,0.08236948416339022,0.051039905053114364,1.53125
-0.025047672518110343,0.21195553696810404,0.15571813475575488,-0.7138861235576324,-0.028107481330469898,-0.021473098617462612,-0.017840722412859188,0.13446995458353875,0.3422286109754809,-0.013174743981198283,-0.04630479422496123,-0.007031572838478867,0.01818621083948762,0.011589560686012797,1.5390625
0.08566598513986594,-0.7475897694668838,-0.5444944248525704,2.506309130348344,0.10200432326258714,0.06913292678226536,0.06477822230584784,-0.47521293499424727,-1.1965529030006732,0.046480226205582884,0.16560332598452496,0.024630633254136287,-0.06323073103251173,-0.03849184144766538,1.546875
0.0474554492291589,-0.41617592412707305,-0.30262908513158066,1.3932096082426626,0.05693689077447895,0.0378077058965126,0.03621923087724689,-0.2646420101438574,-0.6642405746924595,0.02581433799982084,0.09241851702671375,0.013695266853055013,-0.03509693459955959,-0.021177018326452336,1.5546875
-0.04684543077194152,0.40131563962659733,0.29367327553268524,-1.348401320882222,-0.05394726726342673,-0.039373069499307654,-0.0341705848458569,0.2547871143708071,0.6466654654991545,-0.025050068218682293,-0.08811534574593768,-0.013262023792712593,0.03423897540700841,0.02147045913502793,1.5625
-0.016698571273007317,0.14058705427837495,0.10291688092688424,-0.4691734848970372,-0.01842223302799276,-0.014615384318849064,-0.011693242327841614,0.08885756649095289,0.22628997500253703,-0.008797787565994752,-0.030467098458633404,-0.004612457558177345,0.012047586632333782,0.007786629253697122,1.5703125
0.07219043411208202,-0.62914214729209,-0.45887636691979206,2.113815282320085,0.08606025836862996,0.05818316347900809,0.05458734298629491,-0.40055120053537707,-1.0094378697898043,0.039098287110632214,0.13961213313547643,0.020805511875937304,-0.05328115592571824,-0.03241316792871499,1.578125
0.05026295556192171,-0.43877916843431564,-0.3192763532592854,1.468516363933378,0.060140218771568554,0.04018156963782479,0.038151646174887185,-0.27958119168821843,-0.7029837243817697,0.02722715065284993,0.09763825087319324,0.014479386117673559,-0.03705017597544531,-0.022412782559683382,1.5859375
-0.03434364283368583,0.29462729044372177,0.21668280717001406,-0.9974679670564576,-0.039448698528037215,-0.02909801086277851,-0.025036094941448848,0.18682552075651904,0.4736906751141073,-0.018414642908860447,-0.0642960910786356,-0.009767927807012565,0.025274419052190376,0.015895925743311484,1.59375
-0.039880273739341304,0.3425191336110218,0.25162517050270633,-1.156353618224874,-0.046037938797325505,-0.03354711416099552,-0.02914998348508403,0.2178938046345037,0.5492547577998992,-0.02137722008740963,-0.07496585289840094,-0.011339366861764982,0.029374880009978687,0.018333064836146676,1.6015625
-0.020925491948502926,0.17755652995773724,0.13083870716654283,-0.6008652614108609,-0.023826802547249747,-0.01795050760318194,-0.014939626387571167,0.1136485377753165,0.2851215549210321,-0.011099904438254158,-0.03875220998931053,-0.005874572585828954,0.015391067339460267,0.009699266133090901,1.609375
-0.08813832030268627,0.7593601856810237,0.5554745145029272,-2.5561438452947236,-0.10278574962735311,-0.07300672176610175,-0.06507235673354657,0.4831892470617545,1.2206619550093383,-0.04728121416083787,-0.1672941568450049,-0.025087198057014863,0.06477200911727739,0.0401494120889814,1.6171875
-0.12764434788506784,1.102063154953893,0.805749884673852,-3.7056847446827907,-0.1489111032059391,-0.10545478065363316,-0.09457126077764366,0.6997273008891756,1.7702498619342732,-0.06855324857249014,-0.24269795956919227,-0.03639810529232538,0.09376931261056123,0.058081322704427084,1.625
0.018381983771921986,-0.16243838829110996,-0.11775905987710675,0.5489138413791634,0.023188601262921767,0.01399841499004044,0.014453063668027169,-0.10533504641862615,-0.2616213478068582,0.010172685650788712,0.03687398735988487,0.005389290917495904,-0.013760785797897915,-0.00802305840789606,1.6328125
0.21407460559133623,-1.8578621690268662,-1.356280138356522,6.250760079529933,0.2534793658520019,0.17415210073762932,0.1606119513316133,-1.183441650225225,-2.9839837429682134,0.1156570766846585,0.4113362941812336,0.06140374166913547,-0.15784336050119777,-0.09664117856020249,1.640625
0.20579253662899302,-1.7862931589200406,-1.3042954215028069,6.010183619139525,0.24368538623972535,0.16735717809673067,0.15446735164950046,-1.1377333678337935,-2.868733135790355,0.11117165632911932,0.395434870562148,0.05903462886164123,-0.15176802042462162,-0.09289514052897188,1.6484375
0.03644587802486092,-0.3190561386160252,-0.2325180481702832,1.076480403907503,0.04440753087400045,0.028737182025708095,0.027995032708771177,-0.20472374725354242,-0.5133706833685342,0.01986908447364781,0.07137352556628054,0.010556807231364108,-0.027087749273470598,-0.016217819988626342,1.65625
-0.051924143396628306,0.4464187673572871,0.32698598892235,-1.4985150515095227,-0.05970437634585017,-0.04358502386384189,-0.03804486169915245,0.282398768488587,0.7157537021515809,-0.027772686910523606,-0.09777965252101752,-0.014734843677509898,0.038015920133240434,0.023779042759596688,1.6640625
-0.03466771763995618,0.29656687292846917,0.21759643014498267,-0.9968651771706009,-0.03971040058029613,-0.029437559166458304,-0.025203064150552717,0.18790206349427147,0.4763373715673725,-0.018499842646325065,-0.06493640883673542,-0.009780081541497912,0.025382563278390946,0.015952628088040193,1.671875
-0.0748468233102317,0.644738474465349,0.4715430543039139,-2.1698889247627453,-0.08726296790499699,-0.06227249390973322,-0.05523918454007797,0.4098775737508859,1.0360375753619142,-0.04020696183767003,-0.1419801540884905,-0.021274358898292333,0.05505089501496271,0.03416040941354462,1.6796875
-0.1627897874395968,1.4067883929903904,1.0280421619353708,-4.734638692836477,-0.19079673204406616,-0.1341727461964504,-0.12091112034909697,0.894749074082085,2.2598076834978333,-0.08761550657992259,-0.3102262754807263,-0.04646259639360384,0.11985569492703017,0.07400682574455167,1.6875
-0.14366500689879172,1.2403993154512851,0.9070656019072869,-4.178718553100197,-0.16821301954113851,-0.11846613280193363,-0.10658933337154138,0.7894062860856192,1.9943275627091257,-0.07725504403343844,-0.27346581183905505,-0.04101177447899313,0.1057584388949017,0.06536128167976966,1.6953125
-0.03423260527674988,0.29127060515044356,0.2145856653267072,-0.9908680982942298,-0.0393904996639109,-0.028904603958030357,-0.024847417534804035,0.1863432807196369,0.47277602515741945,-0.018243278690484453,-0.06395299442714257,-0.009702324759692408,0.025130209442620254,0.015812967658102993,1.703125
0.024401374726326107,-0.21690858716137487,-0.1562588895891746,0.7179455733410837,0.029626648950452403,0.019079430456359615,0.01891776245204083,-0.1367594316146541,-0.34289900655085825,0.013328796025520229,0.048276849662519876,0.007076816798441802,-0.018079309613765866,-0.010754381136492167,1.7109375
0.04254143012073019,-0.37348812892312266,-0.27088296696331254,1.2488500297032892,0.05102300813082456,0.03396697136594704,0.03247320279169881,-0.23660368294392234,-0.5962791876124318,0.02309374489029268,0.08299540619645794,0.012271340870366586,-0.03145248419484522,-0.01901385820710645,1.71875
0.10217017022513576,-0.8893694625668171,-0.6482973421487572,2.988022173648112,0.12127501311240195,0.08278105676363158,0.07705426593788921,-0.5651658317233373,-1.4267873765666497,0.055274039270625235,0.19702728470595177,0.029346370611808194,-0.07535836470485033,-0.046037059867454225,1.7265625
0.13517820023526037,-1.1743007757020163,-0.8571023704771492,3.948249855785759,0.16024580178587253,0.1096939677036202,0.10169775071635584,-0.7475279831414415,-1.8863225566962158,0.07308919424348731,0.2600391692333275,0.03880442468959153,-0.09963809713794008,-0.06093416741479202,1.734375
0.06663560830846069,-0.5791822465876948,-0.4229693735102895,1.9501662433219393,0.0797980480436597,0.053458078753619284,0.05044111646510769,-0.37074293795345464,-0.9331072170778149,0.03613846657275564,0.12883472219904457,0.01919908191624889,-0.049163668992726,-0.02983610967436399,1.7421875
0.0032936142041218998,-0.029876957096958288,-0.02203218514636232,0.10902701794519014,0.0055016095437091786,0.001588446827614229,0.0031415124419465093,-0.022443352372712003,-0.05267006167447093,0.0020328842538935425,0.007781332853481133,0.0010879907510937758,-0.002600624854553178,-0.0011734588166327008,1.75
0.025824962950482973,-0.22565522078357936,-0.1650102451536399,0.7711335221840755,0.032116773316976946,0.020095950326575854,0.020067091331884016,-0.1467102232005983,-0.3666517781435689,0.014234472880405882,0.05104867750199515,0.007550494286012551,-0.019296807445947847,-0.011441748904166767,1.7578125
0.021043450284836923,-0.18513641123765864,-0.1350220298044035,0.6312557672799821,0.0263164139022916,0.01620340293535732,0.01653498237619167,-0.11996261603061253,-0.29955604616558923,0.011622971854034577,0.04186903093697114,0.0061729420717063724,-0.015787256956334133,-0.009287114582419523,1.765625
-0.06569827910665854,0.5654400512954337,0.41393746357008054,-1.900902084059312,-0.07611119782790386,-0.0548354468188413,-0.04832275657616054,0.35859575617387524,0.9086320337842755,-0.035241992071527936,-0.12420681899925883,-0.018677145686328077,0.04816575280876411,0.030028628720958156,1.7734375
-0.09579519311067297,0.8250603849665984,0.6042000824486156,-2.780013646383025,-0.11178230316952138,-0.07945550825861024,-0.07086207641275362,0.52497921904844,1.3282692791293715,-0.051506055160699706,-0.1817816356793461,-0.02729953612651869,0.07038695244971738,0.043659946654163076,1.78125
-0.02954959613753137,0.25042000593855535,0.18457165132538714,-0.8496053397957958,-0.03383669058870345,-0.02513798611553161,-0.021368163616694507,0.16026663605227373,0.4061814562754905,-0.015742864051251994,-0.054955215147931745,-0.00832949298123854,0.021613865472691663,0.013632399581563611,1.7890625
-0.020403969484185824,0.1715994764337096,0.12681160693653043,-0.5850024307409961,-0.023008174114027963,-0.017603331722333988,-0.014532860718008998,0.10993431968583155,0.2780997750031713,-0.010786671534149077,-0.037470701554882066,-0.005715111700223536,0.014912377284579472,0.009497240330385754,1.796875
-0.08369952616823473,0.7208251185729585,0.5280220023163934,-2.432452897361759,-0.09754337276298329,-0.0694690569907573,-0.06185407001759703,0.4587108442629877,1.1591096939675747,-0.04495914783259614,-0.15864396507954065,-0.023858559986117824,0.0615901468230564,0.03820381958546248,1.8046875
-0.04622953823817209,0.3964611457691104,0.29114496574288157,-1.3407982485793364,-0.05350843208665632,-0.038846409606872,-0.03386498532089582,0.25228607115703433,0.639058315673178,-0.024804647235714065,-0.08695704917331047,-0.013151355173908787,0.034002213988622,0.02125534958793174,1.8125
0.08362537252769738,-0.7285711206358725,-0.5311668000329616,2.446341173789865,0.09942682932725912,0.06749707777238469,0.06321359708717146,-0.4633316288206239,-1.1675787454995732,0.04522016536546349,0.16150819011286532,0.02403966472498989,-0.06171475937813147,-0.03757682067128896,1.8203125
0.1012760041982744,-0.8809394442846501,-0.643297831892465,2.9636438465071264,0.12038463297647765,0.0820096012657094,0.07643708768517633,-0.5608398767854212,-1.4146343862077573,0.054783419016032134,0.1951973301262612,0.029134684547234332,-0.07477438448027114,-0.045601826568301175,1.828125
0.0016804789516439394,-0.017233950201647474,-0.012553809214018687,0.06061907412860875,0.003168342989782583,0.00045359104258286675,0.001947396638705323,-0.012150416416279943,-0.029543710290735554,0.001119812309344079,0.004512235112733547,0.0006388431207114469,-0.0013500720846093368,-0.0004889485848321615,1.8359375
-0.025450797399471065,0.21796493612314988,0.1598725393284377,-0.7332874194163763,-0.028928834888368515,-0.021831199437092427,-0.018416556052820006,0.13752789258672551,0.34933706488159383,-0.013492041953947818,-0.047440773937075686,-0.007156367325132015,0.01875420210350178,0.01183820184203969,1.84375
0.02265781885078061,-0.19954505481319335,-0.14458435843002965,0.6681332713008867,0.027631877816700096,0.0175343356551487,0.017581115791058925,-0.12741604143934157,-0.31883368503437964,0.012453045820826597,0.04466174052122179,0.006587947983396742,-0.016686290835253994,-0.009937156330544396,1.8515625
-0.004779838000874132,0.03758416185651708,0.0287027197539485,-0.12795696187127556,-0.004519695679498325,-0.004900330127458379,-0.0027925678132780987,0.02357868880996113,0.06201308073135977,-0.002350214758714713,-0.007746507385711919,-0.001263989964034425,0.0033958610494619268,0.0024522427146773315,1.859375
-0.07091753967921745,0.6108984621049728,0.44757093198998,-2.053717395506185,-0.0821753981695302,-0.0590550037471134,-0.05222606172485166,0.3875640582701552,0.9806062558834837,-0.0380299409540552,-0.13416836914938204,-0.02019228356327712,0.052046867438516255,0.032378774914602185,1.8671875
-0.03524802499767843,0.3024315177214627,0.22232430197646608,-1.017030383669904,-0.040084787936596505,-0.029884873206532405,-0.02570474479694627,0.19057228667486606,0.48387054625163023,-0.018791859419434568,-0.06576060406799858,-0.009990161670492527,0.025813405722483456,0.01624610066947974,1.875
0.047776807752481165,-0.41730898947462636,-0.3038273315809269,1.4017305222990895,0.0576669313546022,0.038118745035518535,0.03634389247708368,-0.267142276701222,-0.671108401606761,0.026021303005838187,0.09321158462165505,0.013786855792110763,-0.035353292755035896,-0.021341974550445363,1.8828125
0.05958119883981251,-0.5209199769682189,-0.38008691856288285,1.7504120931935911,0.0715139674168892,0.04786073764986052,0.045345000834869385,-0.33205452525773593,-0.8355212957948673,0.03242445309805529,0.11580537531804544,0.0171992386187147,-0.044147715305258566,-0.026729274059262922,1.890625
0.053759982184287756,-0.4713478732301245,-0.3438033981487607,1.584544053106269,0.06454614771475614,0.04310658233230068,0.04108270849438803,-0.2995783417942554,-0.7544163305286569,0.02925909868596973,0.10460859695867807,0.015543610788590937,-0.039902810974799426,-0.024135878903946657,1.8984375
0.08071413109657644,-0.704542920282409,-0.5136455666798554,2.3688859819430603,0.09618799831760681,0.0650972649003304,0.06112932878912798,-0.44782113778930543,-1.128532496268636,0.04373031665222374,0.156089316310475,0.023241694878288643,-0.05971224215760419,-0.03633262337417211,1.90625
0.03619706689390665,-0.3177881223105655,-0.23123199461188737,1.0696292241239505,0.04380495178037312,0.028583281480545574,0.027778865834942865,-0.202544647325937,-0.5085228796182198,0.01969006551018227,0.07073439782122772,0.01049963425118116,-0.026896258637444402,-0.016132731703953945,1.9140625
-0.09459836361334391,0.8166789541916083,0.596758691973233,-2.743093645492367,-0.11014397865678335,-0.07849210491886863,-0.069959940459883,0.5182150323314909,1.3109120915482513,-0.05086350571363912,-0.17976387186480391,-0.026918086855073336,0.06946555492560882,0.04313129915932977,1.921875
-0.14256786604875246,1.233112304401599,0.9008421776356975,-4.1448245790986675,-0.16675664952265923,-0.11771677135670874,-0.10585141488967645,0.7830217731103616,1.9780332356802617,-0.07678862099231748,-0.2716699461968437,-0.04065624631006238,0.10490750201458923,0.06487564021160755,1.9296875
-0.05630648055273854,0.48521531100220866,0.35554299522463895,-1.6364371355588287,-0.06545256920754271,-0.04706518389478095,-0.04149112468778548,0.3082972049697186,0.7786334571761461,-0.030308973088184855,-0.10652422211992386,-0.016008700961803544,0.041501710341686066,0.02582190335734746,1.9375
0.015568414353948214,-0.13890997301037158,-0.09926196607503511,0.4562201050009848,0.01906550844516719,0.011773920190111803,0.012193752625443567,-0.08766716824321524,-0.22033204607853096,0.008509273488113285,0.03117909761490326,0.004528960328416859,-0.011408484589941745,-0.006728057530514339,1.9453125
0.008473483513547056,-0.07764661924932723,-0.05455671919919589,0.2511016487899687,0.010862770748469378,0.005959954904383684,0.006948828626882495,-0.04903001219078835,-0.12174939927774556,0.004774173053301154,0.017688819013378262,0.0024923908819399457,-0.006221672618551018,-0.0035170728638297577,1.953125
0.000238905913678765,-0.004939664203753886,-0.0024933402982184128,0.013434530864873518,0.0013862613729497516,-0.0007531598865068019,0.0008520463293250157,-0.004143595460413543,-0.008540578286209707,0.0003527126652357831,0.0019223244111492045,0.0001485788290722788,-0.0001902389947926498,0.00020285071991826318,1.9609375
0.008126074694785487,-0.07262631850085943,-0.05278421456367584,0.24639645286899065,0.010771072702467632,0.005736070323995167,0.00680288479132694,-0.047879706025719004,-0.11937008729962449,0.00459740592383636,0.017019444102482136,0.002431796674246409,-0.0060533554658444046,-0.0033957254812790154,1.96875
0.0027581762753510616,-0.027324946292699815,-0.01959090076113394,0.09300191779281856,0.004447391134706664,0.0013168900751636256,0.002842937890162571,-0.018509779302667454,-0.04432832893464298,0.0017560200187513937,0.006827328637118665,0.0009206254550535763,-0.002167999088255149,-0.0009791538984847547,1.9765625
0.024166672184391214,-0.21419612978305827,-0.15544966943944352,0.7169393170426798,0.02965004567324905,0.018792159136889114,0.018819327255967272,-0.13660317321912088,-0.3411706236737088,0.01336469597479622,0.04790722999227149,0.007052212033935931,-0.017951605913745526,-0.01065816347270129,1.984375
0.07055797746721972,-0.616414109819263,-0.4489401108202672,2.068604597692965,0.08432193915289143,0.056779279624223467,0.053440323908746284,-0.3921828637520758,-0.9867202373905392,0.038364714152186896,0.1367531298822294,0.02032573356830369,-0.05213493533326546,-0.03167527373133564,1.9921875
0.04968096619463884,-0.4352854411741478,-0.3169613250824242,1.4645397495934667,0.059875126372772106,0.0397205572440044,0.037894371791911206,-0.27722547402618875,-0.6974982907722376,0.027047624445942855,0.09679471515655773,0.01436632752988801,-0.03687559085761776,-0.02227653685005752,2.0
-0.019362467170374122,0.1633677631876898,0.1198358501561465,-0.5429187026702809,-0.021238598127613365,-0.016861281360006555,-0.013614495091021502,0.1027767669864325,0.2626476064994097,-0.010210733980607867,-0.0354055332822852,-0.00537534688230144,0.013851823904221232,0.008974508313165043,2.0078125
-0.007722412695366023,0.0633192964911987,0.046749901127121095,-0.20652663772516733,-0.007491624038027549,-0.007441652871284177,-0.004973799262125312,0.038411818420973715,0.10176144273097636,-0.003953892957726054,-0.01324161717328035,-0.0020566451571373164,0.005318523222438988,0.003768138656485939,2.015625
0.05048841134272681,-0.44072485942742073,-0.32092873310419406,1.4830808537802904,0.06080219533782075,0.04021986620603725,0.03839534518901668,-0.28165766140619675,-0.7071566010759938,0.02738496733636921,0.098040276745732,0.014575775775410877,-0.03740219801514581,-0.02255071887945058,2.0234375
-0.0077847809222367295,0.06352299855158372,0.047699448613408094,-0.217638526815698,-0.00820429656856105,-0.0073498879402428205,-0.005143548723879522,0.040603512008584884,0.10336191349026932,-0.004075609724952204,-0.013568626980655498,-0.0021088862414715666,0.005623216489519242,0.0038006128067420886,2.03125
-0.14085123584269596,1.2162854741671587,0.8893761362821819,-4.096034753010198,-0.16513035616089847,-0.11617678749932622,-0.10448151779117276,0.7744378157580549,1.954235503284022,-0.07582338090948741,-0.26825951583505403,-0.04019381384234457,0.10370464181094007,0.06404212046592211,2.0390625
-0.1311507875365517,1.1333810340200743,0.828336377194968,-3.8177705277533627,-0.15371113717598028,-0.10822031048711474,-0.09726105206700528,0.7208624251621334,1.8192766348507678,-0.07058686041331007,-0.24966365167384044,-0.03743911500488627,0.09667167763612579,0.059703537718715644,2.046875
0.034099890551286496,-0.29755078660594525,-0.21684902033919085,0.9950135743200149,0.04100877254951103,0.027045103927058074,0.026091280303037232,-0.1900608559733957,-0.48014739395199646,0.018513796495925022,0.06666678768641894,0.009845047939940413,-0.025004910930760474,-0.01510908550218278,2.0546875
0.1273404478228876,-1.1060410488965,-0.8071562996035492,3.718279680987959,0.15101631058528103,0.10333562851907506,0.09575151363659479,-0.7043399341738532,-1.7781078609454783,0.06882599856522127,0.2451830241640994,0.03656405600064379,-0.0938284680501085,-0.057395761469844826,2.0625
0.054028344949719455,-0.47179306133540966,-0.34381723906086603,1.5903048804777913,0.064919003193703,0.043227398934784216,0.041087913941512136,-0.3010735271110614,-0.7578567705299413,0.029366909163507364,0.10492257358602251,0.015615258961641823,-0.0400148734846799,-0.024232784396171797,2.0703125
-0.021217393075812066,0.17993635871170682,0.13257579103263867,-0.6032918636675781,-0.023614175423869288,-0.018450394613532515,-0.015106550357318248,0.11319914654882045,0.29063335507923405,-0.01118565599871389,-0.03904670680433506,-0.005946149077158521,0.015391663611684698,0.009896769594294762,2.078125
0.020875227157479987,-0.18483470508538613,-0.13302415370179269,0.6159559563879847,0.025805992106836838,0.01601430480550809,0.016233191326401723,-0.11835231631578713,-0.2937309270754382,0.011459666773642303,0.04153507886585703,0.006049117320698606,-0.01551039362806856,-0.00911176287061334,2.0859375
0.06575169032493898,-0.5740511610746765,-0.41703276764870356,1.922065131302763,0.07849504450427812,0.05280029302801196,0.049717132065573974,-0.3651167518859862,-0.918369715117322,0.03563098948656921,0.1273810942813276,0.018894908915271156,-0.048534132417682715,-0.029457515384278644,2.09375
-0.003190001131184757,0.022985964088823276,0.018153401603740793,-0.08114805263407797,-0.0026741496427883896,-0.0036073709735476582,-0.0016648212634062872,0.014715025088367629,0.0397745220748167,-0.001484089820288063,-0.004642233405077368,-0.0007832616310389201,0.002183899642515419,0.001717292225401878,2.1015625
-0.08621112359049109,0.742414029035785,0.5426180385093552,-2.496814532387856,-0.1003283282951313,-0.07155163943980633,-0.06355928892653409,0.47176449198229803,1.194096773205592,-0.046180260545889903,-0.163536120139189,-0.02451562787651724,0.0633045104680376,0.039310965073611884,2.109375
-0.06341852894632724,0.5454211167556,0.3985912027898782,-1.834446092083416,-0.07338952038493106,-0.052884013250650806,-0.04654444006042588,0.34590262390750104,0.8763539534462,-0.033896938335855546,-0.11982531349744911,-0.01801084539953554,0.046547096503237184,0.029005820615267353,2.1171875
-0.02626760403565214,0.22426250160979738,0.16421256957219618,-0.7523992168806892,-0.029559063432906665,-0.02248635438271222,-0.01885881303676357,0.14121514745581484,0.35861112739932477,-0.013924053434038998,-0.04867802432469834,-0.007390584655080953,0.019191084451471403,0.012168473170638232,2.125
-0.07049760324787593,0.6078364686592452,0.4443456240491572,-2.0388698161199916,-0.08166939316636306,-0.058691071717514975,-0.0519150284907258,0.3852812772787164,0.9735869232879816,-0.037821422831928284,-0.13338763663202838,-0.02003410815520919,0.05174991576931849,0.0321647472763604,2.1328125
-0.058617820429681056,0.5044566457860853,0.3690230223923341,-1.6942716375702525,-0.06789945729719803,-0.0489264417707115,-0.04306375432417916,0.320350084860853,0.8091847304365243,-0.03144744645295611,-0.11069827998751393,-0.016633132799178763,0.043034235091572004,0.02678490622225654,2.140625
0.10234688948247386,-0.8906774595885406,-0.6494636141945547,2.9901476284948125,0.12145956323875416,0.08283824705532165,0.07710101805301797,-0.5664659123448083,-1.4288271650792648,0.05532154125906666,0.19740463433017835,0.029408079186002134,-0.0754588980277657,-0.04606135522663842,2.1484375
0.1909732657510493,-1.6582739742951873,-1.2099328112481187,5.571186266066664,0.22592994474237824,0.15532042956820966,0.14327930237026887,-1.055237121054464,-2.6614131884792878,0.10311578213894446,0.3670404926348355,0.05476051128976839,-0.14075280936964954,-0.08616343044367883,2.15625
0.0468909967955217,-0.40943875050005507,-0.29801048220921805,1.3776907811060182,0.056467969251973095,0.03736282440525187,0.03572456500849283,-0.26149306193872396,-0.6577308891516501,0.025458717617047474,0.09120295185192862,0.013541181414746114,-0.034712358752174995,-0.020949545259459294,2.1640625
-0.09102957322491337,0.7852886311330878,0.5745635365865874,-2.63894087481765,-0.10599282367797522,-0.07544408471759453,-0.0672441138921331,0.4989511351644594,1.2602231172488219,-0.048894317022286776,-0.1728372999334653,-0.025921908684877603,0.06685420686542112,0.04145511281227164,2.171875
-0.019357082459936052,0.16364789830363338,0.12056917792066173,-0.5538987320573818,-0.021769583559533023,-0.0167092511917994,-0.013718698080257481,0.10429547460003567,0.263286001749061,-0.01025232159914045,-0.03563094455638518,-0.005420088745483059,0.014111335725625188,0.009004417743397853,2.1796875
0.04726651357138012,-0.4138436460660837,-0.30148849303683495,1.3861045600795334,0.05672570986415165,0.03777519891323218,0.036055419443209516,-0.2633030943089508,-0.662690662299817,0.025691938323627827,0.09195150618514876,0.013643403743733266,-0.03496528213216017,-0.021117440341750816,2.1875
-0.06466974277485593,0.5562378053377847,0.40687182762664487,-1.8726309047140923,-0.07493383951508889,-0.05392689310406198,-0.04752794186075821,0.35303657764554663,0.8953939015335615,-0.034631290611203944,-0.12229253761632984,-0.018385555828800144,0.04744057786014975,0.029594878077903983,2.1953125
-0.11861665633989882,1.0239357431449547,0.7488980697931666,-3.4442476061865515,-0.13851030420502045,-0.09810863286354193,-0.08787118007977593,0.6504994387678986,1.6462164451797117,-0.06372419088527707,-0.22560232334536576,-0.033828702473443356,0.08721909985175391,0.054018278696933306,2.203125
0.034350363798983194,-0.3013947485643953,-0.21853474636692302,1.0097766293766193,0.04146676314846747,0.027070369493412346,0.026305265340043474,-0.19215968106720197,-0.4821589527966625,0.018726683825740352,0.06717273371594937,0.009939579874124011,-0.025358060808567735,-0.015248630650851825,2.2109375
0.1214672231105742,-1.056310933917728,-0.7698995609006586,3.547765011148223,0.14407546899197793,0.0983204195503326,0.09138043125890385,-0.6724115710638413,-1.694788124683213,0.06569176592701,0.23398954553728946,0.034872284436091604,-0.08951550447086754,-0.05469165612367713,2.21875
-0.0071542079161498835,0.058444073330254864,0.04383524475786868,-0.1983052852888193,-0.007291558612284368,-0.0069447699691340525,-0.004647501721696844,0.03626296131794013,0.0941939097764438,-0.0036606826049359388,-0.012149268733723248,-0.0019379531061589543,0.005192339565482134,0.0035474382346517832,2.2265625
-0.07502642702151201,0.6472975310754354,0.473463451668893,-2.177475831498265,-0.08726690978360792,-0.062381476568890024,-0.05536752006553107,0.41063892714235883,1.0384888478335863,-0.04026976624991915,-0.14209380062898572,-0.021371329050709157,0.0552276735828641,0.03427794802576408,2.234375
0.049463253599594574,-0.4312692285128619,-0.3144790696801205,1.4484058949688952,0.059292994073961096,0.03961647077270619,0.03759240589590481,-0.275188163427083,-0.6936691446119373,0.026862124656724495,0.09618821724370694,0.014261157181500925,-0.03644588823300095,-0.022106412061932538,2.2421875
0.08419637565033046,-0.7334351586170808,-0.5350232019652608,2.465485371118355,0.10040039729304392,0.06804565272226382,0.06361032557749954,-0.46698777351701404,-1.1779277893080602,0.045626412373329484,0.16278721506920563,0.02423148102686167,-0.06217471103717771,-0.037882287740276264,2.25
-0.08204020259840228,0.7059387274788342,0.5164755697399904,-2.371495315964869,-0.09509579967213866,-0.06806860345408591,-0.060473998787976234,0.4486500298628699,1.1339381429050723,-0.04399365593276638,-0.1553237205213448,-0.023315815200475733,0.060081379805988176,0.03734555540294731,2.2578125
-0.15049671671096,1.2997009333449392,0.9500008621840623,-4.366918490815672,-0.17572337982894531,-0.12413686986883585,-0.11163369634806014,0.8258892462964995,2.086915633070524,-0.08092291303760517,-0.28647786737600334,-0.04290502710072747,0.11050430388526841,0.06836615777274493,2.265625
-0.00019038995529444688,-0.0017092568203241117,-0.0008078320380170024,0.006570450626020019,0.0010210548365401902,-0.0011493135538417389,0.0005767099168390578,-0.0021933991124958815,-0.0026997345236163886,0.0001174812705984793,0.0010263039250454709,9.516056595780425e-05,-5.530073014210036e-05,0.00037371224758136204,2.2734375
0.08808540479065478,-0.7670686465489518,-0.5595137702610102,2.5759486737367205,0.10477121649406843,0.07105627178131399,0.06653161312193145,-0.4884640300200074,-1.2300344945697481,0.04771463840071779,0.1699571222813973,0.025335572615156066,-0.06499426439522872,-0.039572553498183914,2.28125
-0.00796029848527276,0.06428237073618702,0.048453718026900856,-0.22185625901412664,-0.00834399094802832,-0.007583270166002063,-0.005186672258084963,0.041005650795389516,0.10598868635056262,-0.004115410299765309,-0.013788854194198693,-0.002176965380360029,0.0057236640523423326,0.0038982241883472207,2.2890625
-0.04750907327454315,0.4077654375548873,0.29944730326994734,-1.3750567660623148,-0.05483089562555034,-0.03994944418787377,-0.03479268519105862,0.2589869258156246,0.6560179300658551,-0.025486115200138947,-0.08945458163273655,-0.013506593047463513,0.03486270603212582,0.02181159613785407,2.296875
0.06388720224393707,-0.5557166437954244,-0.4051416289041017,1.8695467161850616,0.07639284354713567,0.05125419079060816,0.04835223862717948,-0.35506995177349154,-0.8936480248325988,0.03459397899417854,0.12371582164047268,0.018388221980671877,-0.04711509746446138,-0.028602114715170854,2.3046875
0.10754527187819449,-0.9339095948821706,-0.6820486935025845,3.1440709783831258,0.1277508605085623,0.08705114226332089,0.08102234408646793,-0.5956756088737709,-1.5011512471257666,0.05817861836915473,0.2072703454052617,0.030904653642626834,-0.07926571426849419,-0.04839307031500519,2.3125
0.010380624046091549,-0.09395443093331779,-0.06805778435004008,0.31635213945905094,0.013239548090378013,0.007609162959444053,0.008561407263479174,-0.05987325708171259,-0.149626233340451,0.005803734197278705,0.021355701152638677,0.0031023744140043783,-0.007798538649272541,-0.004460328963989918,2.3203125
-0.03699906195140894,0.3150059194751436,0.23155651850034126,-1.0650382314546192,-0.04258044540692375,-0.03113487036710156,-0.026806835690565668,0.20147238990981306,0.5096583259157217,-0.01972951081810423,-0.06927799780502528,-0.010465856565772884,0.02703352754084625,0.016976573144023514,2.328125
0.007899852103527286,-0.07342512517738396,-0.05206562205151572,0.23923350893430725,0.010339985552844447,0.0055696987510618495,0.0066346146958231305,-0.046166387380730485,-0.11483752483230351,0.004508161897657598,0.016647949580073925,0.002376833217832282,-0.005964384675524552,-0.003306555331914789,2.3359375
-0.015201239008107275,0.12835858297776231,0.09484899525446229,-0.43604383709601297,-0.01681137706074706,-0.01338873558502671,-0.010728635957974793,0.08085718974592462,0.20606829059727202,-0.007961800035745245,-0.027604865992130686,-0.004239788276924251,0.011159361059037047,0.007186670907862782,2.34375
-0.0904369144049605,0.780635272678481,0.5714004779610237,-2.627597147330528,-0.10536292544342063,-0.07496865166123097,-0.06695391164343202,0.49549002951837995,1.2521907982934348,-0.048583004566778484,-0.1715913460093541,-0.025781656568753298,0.06656727286428815,0.041236616371697975,2.3515625
-0.04133534879501527,0.354255835409572,0.26050202158878727,-1.1955395680465388,-0.04747818017220462,-0.034782541145222404,-0.030229172819928735,0.22496688658142347,0.5693433663370409,-0.022112312106176476,-0.07754108136816718,-0.011733976924182626,0.030313974745833548,0.018988191226594186,2.359375
0.08786491472675169,-0.7654566368095739,-0.5577537378640487,2.570633124766856,0.10470203266911739,0.07090953948140746,0.06633221406025513,-0.48722199486118073,-1.2275378069955494,0.04760045719271517,0.16975837920521447,0.025259236210165705,-0.06486535518358412,-0.03949462226244826,2.3671875
0.08183461329134371,-0.7120254708556799,-0.5200544385372132,2.3969555953500565,0.09757875443147151,0.06590742304079027,0.06184232914319334,-0.454259351266533,-1.143892435466788,0.04435267859055586,0.15809569100742465,0.02356512348964943,-0.06036285293621292,-0.036744008612451265,2.375
-0.05161409324947883,0.4450176533661101,0.3245297557717102,-1.4902260036760315,-0.059562631525672614,-0.04334073749879326,-0.03783742498185965,0.2810107403248043,0.7120149268320605,-0.027648104524475012,-0.09745204648023591,-0.014610824572639246,0.037927758819560516,0.02367830016567599,2.3828125
-0.10590839982932218,0.9144788439599719,0.66829212149997,-3.072390117468727,-0.12342103035166622,-0.08776920268888533,-0.078362917101305,0.5801396462005495,1.467567105422438,-0.05692436100779765,-0.20133996610823282,-0.030160783263919532,0.0778210322291903,0.048254251694030116,2.390625
-0.033543802538967375,0.28618088918720497,0.21010445306793435,-0.9636342867772407,-0.038163435757989625,-0.028512632951994927,-0.024269751717955434,0.18133626323528895,0.46153487119009984,-0.017857188095819963,-0.06269103263802465,-0.009463143072703732,0.024452031450687358,0.015480048880340788,2.3984375
0.03588140673896201,-0.31531494125768345,-0.22956543895744763,1.060415647353839,0.043534287133631173,0.02836314780477008,0.027585483020289424,-0.20110037583650983,-0.5043901773896172,0.01959256172756423,0.070268404813651,0.010412185278402054,-0.02666269675422751,-0.01597812931917838,2.40625
0.05201500178215658,-0.45455095482608016,-0.3314057881866115,1.530128036933233,0.06246560713292661,0.041624262039502286,0.039593329850759335,-0.289760046351983,-0.7293488931765949,0.028265315196763403,0.10113632354886141,0.015029027593043079,-0.03851620896688738,-0.023308858692358284,2.4140625
0.05638238659897627,-0.4926789485987534,-0.35826816742421536,1.6539580490075387,0.06756781840999224,0.04522474977603325,0.04281820824342677,-0.31359514065420363,-0.7897406761969135,0.03059678832012315,0.10950237896664004,0.016243043631272023,-0.041732926806078624,-0.025284290553396694,2.421875
0.0327402246210734,-0.2881946637317418,-0.20811260788159286,0.9613833789910291,0.03964304487620316,0.025886717608733727,0.025146292489122462,-0.18303674852582744,-0.4601308210490028,0.017821357647941488,0.06428276365309978,0.009435294655487137,-0.02428271940519158,-0.014558127968846056,2.4296875
-0.046499623361317154,0.3991131649538306,0.29317647937511215,-1.3477104564744133,-0.05376818784633732,-0.038952575878217925,-0.03403916086546896,0.2538829614069885,0.6417985348264945,-0.024945913258613103,-0.08744042360791435,-0.013237492008064549,0.03415874950251924,0.021326935143293483,2.4375
-0.11216458145391053,0.9688873689173707,0.7081121089408258,-3.2580931867887952,-0.13109522423329342,-0.0927157784942533,-0.083066198736369,0.6157057156049316,1.5543969896315928,-0.06035447919882113,-0.21327744821320535,-0.031986510225412275,0.08254211585874471,0.05105027680972946,2.4453125
-0.08422676674092279,0.7262236498956771,0.5307888700945803,-2.441831930544114,-0.09812775579962627,-0.06990282446823148,-0.06216217025731432,0.46146129450335166,1.1660469743941069,-0.0452293409522682,-0.15989919222971172,-0.02396317994362029,0.061903260001100635,0.03840230774435962,2.453125
0.012394505867324346,-0.11208734173664177,-0.08080753661538248,0.3723643951394269,0.015664559433912817,0.0091776302208249,0.01001695966287742,-0.07113356868398986,-0.1772401895077735,0.00693440842707445,0.025096143772033903,0.003683811672028892,-0.009281848416917498,-0.005332517253045726,2.4609375
0.0938018549101878,-0.8172137457197294,-0.5957630164523284,2.7414634470741155,0.11149714485663564,0.07587342026558976,0.07077750914158976,-0.5196838075622975,-1.3100520838238614,0.050852306270909496,0.1810285419716306,0.026974052713433047,-0.06915342059980992,-0.042180894209437145,2.46875
0.10585266989657934,-0.9202228552991891,-0.6715848389760904,3.0912264169950716,0.12571287613892523,0.08573944702551244,0.07972102127241851,-0.5861995484814225,-1.4783930541952837,0.05734063736867677,0.20412285401047445,0.0304244548693139,-0.07793937840047362,-0.047620554469695896,2.4765625
0.05035191559986606,-0.4385139973419992,-0.3199061500351605,1.475187522593212,0.060436704062845154,0.04018982925903959,0.038250964288797915,-0.2807060845257554,-0.705646406916571,0.027382614973002994,0.09784121511690286,0.014534000025518946,-0.037083302127419504,-0.02246262251165551,2.484375
-0.010276906527677276,0.08640130833003068,0.0639483156181282,-0.2896720545808449,-0.010890740867562443,-0.009543010401867908,-0.00701532757285029,0.05320668558161021,0.13871312016635498,-0.005353837568535959,-0.01821993071954294,-0.002831063235391719,0.007478564430400109,0.004998309345757532,2.4921875
-0.0010978766843619356,0.006024133187490013,0.005615151019917178,-0.021101679725599506,-5.468800030539038e-05,-0.00200020877403732,-0.0001436237973715783,0.0028051350721273838,0.010290985698246545,-0.00042448341314012445,-0.0005981306103729876,-0.0002032638435462925,0.0006603019376242465,0.0008049726529424101,2.5
0.05201022329649819,-0.4547593616682705,-0.3309404577088203,1.528180594149843,0.06247874194699966,0.04155221865335631,0.03954657029404275,-0.2896173072361529,-0.7297899035824562,0.02823248754500102,0.10109231390290571,0.015011742894874757,-0.03847525403287845,-0.023297503820826078,2.5078125
0.030656755393372166,-0.2700518346373536,-0.19625406981462504,0.9095738046211642,0.03734342390097943,0.02408652814524749,0.023661474295355617,-0.1720061084081851,-0.4324983496735066,0.016739707157317284,0.06020702127029625,0.008914888607347,-0.022809869460321344,-0.01365467375373379,2.515625
-0.08305419560749078,0.7151820918293107,0.5229640412429951,-2.4009345409308014,-0.0964880483607682,-0.06900716862139754,-0.06119324930105716,0.45436005199559687,1.1502835472879032,-0.04457865289369537,-0.15744770536908068,-0.023620957582374844,0.0608436215320238,0.03784339812917823,2.5234375
-0.14410170465885486,1.2442892557035836,0.9091888976022541,-4.1819099341220705,-0.1683309068099787,-0.1189397333284305,-0.10678928376730663,0.7907183197241034,1.9993955004373645,-0.07750431286412582,-0.2742605858699202,-0.04109650084074633,0.10579836909997471,0.06550861877016569,2.53125
-0.07510102505832425,0.646720497294883,0.47318697589513764,-2.1782522903747075,-0.08718840239149586,-0.0624044375018754,-0.05536378842252235,0.4107567485288377,1.038958910590589,-0.04030193266052493,-0.1421701605511277,-0.021374635482134103,0.0551152462759156,0.03428942860990616,2.5390625
0.001349746737076913,-0.01507954632196127,-0.009438623175462249,0.04388154381990399,0.002670579204353105,0.00018007969932348335,0.001607803845263442,-0.010241055632183782,-0.024423846536550213,0.0009035576009689967,0.004117831758055113,0.000475378374564109,-0.0010416210245717294,-0.00030926221679927946,2.546875
-0.010098671648715868,0.08477671963854633,0.06346635570302506,-0.28904307212399316,-0.010831567670505431,-0.009202585046645144,-0.006959669715258918,0.05290484550610238,0.13502636041863797,-0.0052898010950820406,-0.017861835279898992,-0.002798611908931766,0.007405990553248506,0.0048719910124518885,2.5546875
-0.017124500625490188,0.145412715892981,0.10706709200073196,-0.4893855040087594,-0.01903831610460135,-0.014935237264412586,-0.012101491520796169,0.09158700725773719,0.23261010290806874,-0.009060270715679056,-0.0313323942434396,-0.004781172022878445,0.012502612554945882,0.008031919159118725,2.5625
0.03952676270821154,-0.3466993922409364,-0.2524995137828735,1.1645232568439494,0.04764545855518007,0.03144864228306868,0.03031973565580687,-0.2205733188416925,-0.5551573418452737,0.021543788481155294,0.07714402601716217,0.011443259517678531,-0.02926326734699304,-0.0176396848303885,2.5703125
0.0480325514025057,-0.42117695805835154,-0.3063832814785153,1.4135013105388496,0.05760850861752339,0.03837976323172805,0.03668571988616732,-0.26749327593551026,-0.6730262997979496,0.02616840372238685,0.09348191413126125,0.013867345214299538,-0.03551757613885703,-0.021502080602981415,2.578125
-0.01944876234367242,0.16425748638500545,0.12122447060715738,-0.5532286207527941,-0.021807306219282292,-0.01689146890474729,-0.013779886515196252,0.1042448974707691,0.26512394088695423,-0.010244636973558088,-0.035696850064180365,-0.005445577514836563,0.014196017786622219,0.009053143171816066,2.5859375
-0.0027009935346791153,0.020200022112858203,0.015377912454381812,-0.06845862399959113,-0.002063230085505349,-0.0031889830517246045,-0.0013301750867162965,0.011975607432451343,0.031384845491441785,-0.0012663751650508295,-0.003742045748798853,-0.0006437339762369062,0.001889443460324367,0.001496652759952839,2.59375
0.11966538112869898,-1.0403747769414995,-0.7594385188226361,3.4931782012903487,0.14193570496827757,0.09695472833464133,0.09006472600611035,-0.6622401457586568,-1.6700405822589037,0.0647156220157086,0.23040191443552926,0.03437246271337251,-0.08819796245568418,-0.053862995585232054,2.6015625
0.13420865278653774,-1.1675536976304373,-0.8518575564387172,3.9179368238003995,0.15903794650346875,0.10880611577869127,0.10096532247395544,-0.7424861471720259,-1.8708994406527475,0.07260272134782034,0.2582821691395487,0.038530745432057645,-0.09893651084757422,-0.06042939837248671,2.609375
-0.010887497373763563,0.08969429023346052,0.06664599188357344,-0.30507495126947665,-0.01168623889835503,-0.009992876403811185,-0.007408372495210014,0.05693399893437759,0.14739242132330985,-0.005642299631108201,-0.01936255745086921,-0.002982161165697693,0.007867462644695612,0.005240830386314214,2.6171875
-0.08782037434021168,0.7580325436165356,0.5545142241528893,-2.546023657135338,-0.10219017808252716,-0.07293360635377368,-0.06494314087407327,0.4809701767808319,1.216264671985672,-0.0472030170336597,-0.16660503887946784,-0.024998835017026464,0.06456046754407237,0.040051514567081184,2.625
-0.002202361446268148,0.01773046593624237,0.01360634300064772,-0.05566764072789694,-0.0014003026135309892,-0.0027918646178017098,-0.0010513073963502359,0.009200930066978594,0.024706272919552828,-0.0010754049738148778,-0.002726150703135242,-0.0005234399057506215,0.0015883070038138587,0.001299072149171419,2.6328125
0.07064247235070863,-0.6137289826210529,-0.44754865399625865,2.0651732921554946,0.08439137266193848,0.056872271645127516,0.05340822074980381,-0.39248580317601356,-0.9882495608386327,0.038253489844528754,0.13675665242996154,0.020306433924371547,-0.05208470303514521,-0.03167196287633191,2.640625
0.03908815226391377,-0.34179281812904244,-0.24883210413715362,1.1492340604454945,0.04728968660428128,0.031049483012903997,0.029938301645628808,-0.21869631996531036,-0.5492942885336032,0.02129362214931404,0.07637786093536614,0.011294914822989447,-0.028951041253695565,-0.017411043903689784,2.6484375
-0.009516719999304637,0.0781547944681899,0.05809380104757604,-0.2636672113407205,-0.009975864740226418,-0.008750409573471157,-0.0063261888256033304,0.0494876825011329,0.12635355401401815,-0.0049006436947597294,-0.016713458668506466,-0.0025904856876895165,0.0068071763585534125,0.004557686902758303,2.65625
-0.06587140173547129,0.5656882173431801,0.4144448259897947,-1.904159306181473,-0.0763570308065032,-0.05488737410166137,-0.04840487884975757,0.3601558524907241,0.9100916187673819,-0.03526312490022094,-0.12456347213150612,-0.018713238955700342,0.04829658070602945,0.030052518256215327,2.6640625
-0.16862940344208685,1.4553411864682357,1.0641747521486444,-4.896006468773561,-0.19726005573395286,-0.13896584920426203,-0.12510043197828524,0.9260203320758666,2.339742316941203,-0.09064760423933876,-0.3211035317473505,-0.048119469472324844,0.1238739030891957,0.07656783773444165,2.671875
-0.20078437316981682,1.7339264033914819,1.2673051999163705,-5.832208022752931,-0.2351046966798917,-0.16523367572921865,-0.14909965041064588,1.1031039654246066,2.7873805763922035,-0.10803491039523641,-0.38260826046580876,-0.0573163342849344,0.14749902817029417,0.09112631219047201,2.6796875
-0.07099366181687915,0.6106282779161504,0.4467641557067393,-2.054732146427217,-0.08246343447261917,-0.0590095299224244,-0.05226846673670104,0.388388242314662,0.9824043167679248,-0.038129015398990745,-0.1343844324508913,-0.020180574811070134,0.05205949112262015,0.032391091923618553,2.6875
0.06699380025768722,-0.5832909701488905,-0.425053113429777,1.9601746283901502,0.07988735956041083,0.05382977983657194,0.05064995422057911,-0.3717860461145798,-0.9365126372216661,0.03627440067694788,0.12952047675282197,0.019287188619698494,-0.04936897423039822,-0.030029445176423718,2.6953125
0.07458332018362387,-0.6483458295221075,-0.47247414120813863,2.1792000471241137,0.08894252425167896,0.0599350627647233,0.05627127262692697,-0.4141389456586388,-1.0418911413610839,0.04041514308533759,0.14407262705067056,0.021444699839551107,-0.0549367115872861,-0.033421241906229686,2.703125
0.05509574458183422,-0.4799806445308593,-0.34951327927416437,1.6119340776684805,0.06612451708482796,0.04397840250894318,0.041748810607848796,-0.3071577053816833,-0.7711892468485569,0.029906775055037943,0.1069139594578974,0.015870517801237504,-0.04066863664955944,-0.024595925048425435,2.7109375
0.08947828329347517,-0.7789840875373709,-0.5677153609740555,2.615089609813347,0.10652719842696214,0.07220353649885107,0.06747723032007749,-0.49627515234619607,-1.2500365548953811,0.048419789920945665,0.1727702936523827,0.02572436565663608,-0.06602090795863648,-0.04020448632834722,2.71875
0.07559018073733637,-0.6595912625351822,-0.4803237771450067,2.2126107960942876,0.09001273100576182,0.060919058307083655,0.05716346424057987,-0.41917720618890963,-1.0570788901858723,0.04094837964940754,0.14617447385913424,0.02176121710845037,-0.055776267274732554,-0.03396405621220513,2.7265625
0.009351034237679993,-0.08539987644451001,-0.06120578910471045,0.2828201089239625,0.011931148770645786,0.006731624757319422,0.007728132188822398,-0.053939580886261426,-0.13543366552098934,0.005257202129292324,0.019405394386756397,0.0027952547280681293,-0.006946160662432783,-0.003972680532563568,2.734375
0.04476328559476126,-0.39063717384928154,-0.28480853488787655,1.3109134038355528,0.05359234499496703,0.03570908821407327,0.034154442652242135,-0.24907869065004662,-0.6277429513772049,0.02433975510769689,0.08716115070625038,0.012905842554663097,-0.03291593720051306,-0.019955426826440893,2.7421875
0.14807594780094116,-1.2848748218441173,-0.938467431649426,4.319675821729922,0.17528915369055859,0.12027189861149182,0.11131772589669069,-0.8185137849312705,-2.0650562091408555,0.08004883800273188,0.28484016234987275,0.04247336968791519,-0.1089591976868731,-0.0667079263868539,2.75
0.10552745279867383,-0.9176786881455689,-0.670190503836361,3.0862484434507413,0.12539538780886966,0.08547453849788099,0.07963872834456802,-0.5844010640897626,-1.4739083154389137,0.05715342665974676,0.20346174887886362,0.03033484672283109,-0.07780574345082214,-0.04749944917854088,2.7578125
-0.05589778653264326,0.4789346412865268,0.3505007319952997,-1.6103405773058064,-0.06448753179472541,-0.04663107603742058,-0.04086705539286632,0.3048710707903632,0.7709526813690972,-0.029869458795793644,-0.10534754816472934,-0.01583401317923099,0.040853059091780664,0.025513987553319406,2.765625
-0.09215763199960882,0.793453384970698,0.5807479658740794,-2.6688755307033314,-0.10723172595334471,-0.07634757293246461,-0.06807446567309654,0.5048564234919082,1.2754775488015748,-0.049477291807640475,-0.17477283545017483,-0.026225659200459245,0.06758733214303256,0.04193172511954199,2.7734375
-0.009983112635642034,0.08351679318037249,0.06215528097723907,-0.2806533655188191,-0.010602458899443853,-0.009189096102017551,-0.00685940866361457,0.052205213215116564,0.13335904881203794,-0.005236275645890848,-0.017734731604191215,-0.002734696930309864,0.007232120463526817,0.00479321446709613,2.78125
-0.056856773476124854,0.49011136402050975,0.3589244811113233,-1.6458786790979687,-0.06567475714872113,-0.04766276613839119,-0.0418402300069714,0.31004607588678007,0.7865314868714386,-0.030524414892639934,-0.10753728523595593,-0.01615184234571757,0.04169499583938957,0.026064490141089944,2.7890625
-0.22982659733952565,1.9872174971349843,1.452710395369034,-6.680369562195048,-0.2690660989363446,-0.18927026051751533,-0.17090698944993782,1.2625209618102533,3.19301923078743,-0.12376519492686006,-0.43835519479563256,-0.06564677176252902,0.1688556383611087,0.10436888899321863,2.796875
-0.25013355740932347,2.1624529486509405,1.5810765493181203,-7.271817466112322,-0.2929452086473486,-0.20580849190453826,-0.186086813662969,1.3744457502075407,3.474803553398835,-0.13469155087749457,-0.4770096649998031,-0.07146236264803324,0.18379405376734534,0.11353170558802508,2.8046875
-0.05670190298867722,0.48770564383883896,0.3574722366877664,-1.6411577204840395,-0.06545206004791887,-0.047355059538150335,-0.041710015195101625,0.30917641661165385,0.783033969453067,-0.030376809700430617,-0.10689907225836033,-0.01610977921631067,0.04157434727799653,0.025943138063464877,2.8125
0.09972452267788698,-0.8668028159157177,-0.6324864389519418,2.913810748431492,0.11849172652651248,0.08072919577999145,0.07515122695384964,-0.552419874364404,-1.3932084179254787,0.053990095034287436,0.19230379819140067,0.02865505822174067,-0.07346038110493983,-0.0448729741544099,2.8203125
0.08895085220219814,-0.7743597084102786,-0.564808584428205,2.6016202933016963,0.10571789765980062,0.07185716551625153,0.0672182601070196,-0.49301856899544055,-1.242797523302478,0.04820548472289953,0.17170577334645884,0.025559103331315135,-0.06554039503569829,-0.03999603467073184,2.828125
0.04874010273645744,-0.42689129187346825,-0.3104606029048272,1.4307368468523607,0.05829916729044892,0.03890404096498577,0.03719319801331201,-0.27121352881513866,-0.6831091797725127,0.026539898546657018,0.09482613222432797,0.014040249384944805,-0.03593437334731701,-0.021801959574123876,2.8359375
0.07657132083773412,-0.6677328510345705,-0.4865201652500526,2.2398702326120037,0.09102467054575746,0.0617202419203032,0.057895316406658674,-0.4243052693846873,-1.0706013063428879,0.041555796344421726,0.14800949097043298,0.02202545521091822,-0.056381312262000625,-0.034403093612266275,2.84375
0.10859231485074751,-0.9448358677263407,-0.6895304444457249,3.1726353826453098,0.1288309331806343,0.08795645358332015,0.08179460306386675,-0.6010133599213322,-1.5163213435802476,0.05882410815498941,0.20918653669490833,0.031229325441380122,-0.07999885954414182,-0.04888408449313006,2.8515625
0.11328472649578439,-0.9858738279164679,-0.7195900181660242,3.3107710658442775,0.13445860319942288,0.09175404344142384,0.08534744834137109,-0.6272806982322326,-1.5812194357496616,0.06132129253694289,0.21821820357463606,0.03258288481608976,-0.08354560026488499,-0.050992415350482746,2.859375
0.11788093747950314,-1.0256498054347536,-0.7483110136675496,3.4435283647885067,0.1397755412137499,0.09548652019672282,0.08876925710320269,-0.6523557232280474,-1.6446097536078887,0.06371849545199527,0.22710546464973397,0.03386785964069498,-0.08691050482535674,-0.053065687111039254,2.8671875
0.075216622439025,-0.6551716176698379,-0.4776186859216841,2.1977883777061513,0.08945423849695675,0.060622442512344187,0.056847517295901644,-0.4166999405326026,-1.051192789862979,0.04064781739009199,0.14545166867080483,0.021629184926596413,-0.05542258823031864,-0.03374941371640494,2.875
-0.04474385751895326,0.3845312947277735,0.28182699147639795,-1.2961253951157052,-0.05159473594610406,-0.037493661580220924,-0.03274595898815129,0.24422579637149072,0.6168137560202632,-0.024023115365308077,-0.08411988822851929,-0.01270045197015003,0.03284724637699965,0.020543229668403176,2.8828125
-0.1203766845210499,1.0396848359843462,0.7605650267854795,-3.4955205730142236,-0.14037812088366175,-0.09941831151835478,-0.08919725576114493,0.6603654735615062,1.6681858955263624,-0.06476066124033644,-0.2287949820238285,-0.03433526113087457,0.08841578066125233,0.05475525510494277,2.890625
-0.06558747220266047,0.565727521503529,0.4141681547963005,-1.8979803680962375,-0.0758583683130701,-0.05468745835514301,-0.048297990204754095,0.3581037221223726,0.9060012381398277,-0.03521389049851264,-0.1239651677997999,-0.01865683203246988,0.04810124299768298,0.029955575967362955,2.8984375
-0.007760856958552951,0.0657582334915604,0.04829410150748937,-0.2143153793484583,-0.007857592830268732,-0.0074811778808450465,-0.005149764400464546,0.039316269375881244,0.10242367699951851,-0.004028424381451275,-0.013435580112559839,-0.0021056872660319146,0.005621899711915137,0.003825034121652824,2.90625
-0.06052918926708767,0.5222847537883559,0.38163576686520495,-1.7496154409564224,-0.06986236100298683,-0.05071169325090784,-0.04451792388319593,0.329726469989648,0.8374071766110996,-0.03241201656198339,-0.11445666773082527,-0.017191644087501984,0.04440834917905006,0.027736917720504357,2.9140625
-0.11585698429105555,0.9997623842185792,0.7311590763855834,-3.3576748647458374,-0.13483971996128155,-0.09592078900455296,-0.08574274137340157,0.6343992208789371,1.6071642312222891,-0.062169313515590865,-0.22021973346538096,-0.03301929000246439,0.08497593821854518,0.05273901041213726,2.921875
-0.07181910319762627,0.6173117997327863,0.45239164192376596,-2.0750979542957673,-0.08309343828412465,-0.0597537315008003,-0.052808117597293855,0.3921517634460608,0.9939464146173936,-0.03841853832388187,-0.13585569401390532,-0.020430509108925916,0.05253087258900671,0.032750066082129575,2.9296875
-0.02537785639462372,0.2148388085092773,0.1583520208246814,-0.7255709396575271,-0.028655859676438997,-0.021664073679368595,-0.01813921384121088,0.1368070616640456,0.3474186747674115,-0.01339748730359901,-0.046984182305580234,-0.007146557378587146,0.01845034292304586,0.01171998758859443,2.9375
-0.04333645402680287,0.36961887271428,0.2713644716701393,-1.249557384493147,-0.04990584526359615,-0.03633602758182422,-0.03156265012257278,0.23593031100206843,0.5971006270332861,-0.023071775341232833,-0.08133228486764764,-0.012267608866067224,0.03171857582452145,0.01985456232289076,2.9453125
-0.01500963177205651,0.12362631075090297,0.09177174182257973,-0.42399049454987425,-0.016620353843104025,-0.013148008998487243,-0.010416410971221722,0.07992187684989673,0.20301333794477516,-0.00781665321360453,-0.02711095670195147,-0.004145318198856285,0.010863635209121205,0.007023169948148015,2.953125
0.0923718157577265,-0.8054079374779243,-0.5871393805779791,2.7002751859319374,0.10958330028148672,0.07470026532912542,0.06971717173861465,-0.5113974060597978,-1.290460706169306,0.049992239698240584,0.17826023992404058,0.026570222255439858,-0.06807837858289097,-0.04156127683463011,2.9609375
0.1262712886270002,-1.097197965029719,-0.8007025673832269,3.681720940112973,0.14926463564280734,0.10236270450218336,0.09492666286919707,-0.6978167208675233,-1.7612691744736042,0.06818354020223566,0.2429590559327224,0.03624298232018536,-0.09286237829187015,-0.05684247138282977,2.96875
0.04482048417433112,-0.39088484312387894,-0.28474963702198713,1.3075588412134782,0.053412453333704334,0.035644512810010597,0.03401880132366276,-0.24907612673570423,-0.6278129755317505,0.024253432692213917,0.08705733433797247,0.012924487673224612,-0.03285938135301927,-0.019939209632121938,2.9765625
0.010207661369491331,-0.09077784124457171,-0.06551082523729257,0.3026075286501805,0.012960610486859842,0.007321624198507171,0.008163437834967752,-0.0588183904018265,-0.1469063047250771,0.005614195268149639,0.020911413656676026,0.0030321712183885236,-0.007477470748554682,-0.004289017979262205,2.984375
0.0707511565931428,-0.614447314809077,-0.44843131624978955,2.068779464597884,0.08453403323637444,0.056886859356997665,0.053420212160296285,-0.39289135374767287,-0.9899573907415369,0.038266422090300796,0.13684427443322245,0.020368574110569623,-0.052140230974029665,-0.03170537438309225,2.9921875
0.07524827610507501,-0.6533373789576429,-0.4768590174867177,2.200061413732121,0.08993890878821152,0.06057135268314977,0.0568363929532091,-0.41780306279028556,-1.0526371204713163,0.04070390704277673,0.1454939356249433,0.02164544085322825,-0.055494636026458835,-0.03373549316133314,3.0
-0.012039146293739101,0.10132481252298409,0.07517967294901026,-0.34090818681222335,-0.012855714662080266,-0.010843392168465929,-0.008269189806872482,0.06328434985916312,0.16201186104060392,-0.006311221890642377,-0.021487693971189218,-0.003353404487343318,0.008697902377796532,0.005747461213825032,3.0078125
-0.04631825973970636,0.3970043590169922,0.29159111739799126,-1.3349335108118365,-0.05320001752286057,-0.03888314869526521,-0.033765411302011335,0.2520227401529728,0.6389612151381374,-0.024727371992353774,-0.08704809818331521,-0.013162800523446587,0.033830422002307035,0.021211661208480767,3.015625
-0.01007486358450054,0.08310920673550862,0.061671487047134446,-0.2747506855436398,-0.010365443957491356,-0.009251111877143954,-0.006631812689834159,0.05171455907358551,0.13416159999369914,-0.005135417967832184,-0.01765867549286661,-0.0027587052594389115,0.0070633467551388706,0.004786012648657254,3.0234375
-0.0458867368254486,0.39313467739429886,0.2875962397659367,-1.3159494141395562,-0.0523626886478514,-0.03856772110833988,-0.03338489001899512,0.2486392718207686,0.6314757209700894,-0.02441784517985106,-0.08610629234157147,-0.012967749632825253,0.03338849226427777,0.02100033703618154,3.03125
-0.13698329592348796,1.1808004692656704,0.8634014966416637,-3.969915059218838,-0.15973089761197493,-0.11304641846801347,-0.10145045080809763,0.7510430916399317,1.8988584659541914,-0.07353005787896322,-0.2603961309689679,-0.03902383052223247,0.10046944401631673,0.06222130766824776,3.0390625
-0.0970891771253712,0.8344543699835435,0.6109420143817945,-2.811151474189419,-0.11318772948849205,-0.08031740689768987,-0.07169077199611665,0.5322074844733758,1.3455388287197758,-0.05205971057492064,-0.18422494591234104,-0.027624384229137763,0.07120772771938476,0.044157860456991445,3.046875
0.07354523486705143,-0.6419412291172347,-0.46775978462716095,2.152060442255099,0.08731338917900938,0.05932595575744633,0.055635859718725464,-0.4072809324626914,-1.0267406971852526,0.0398382057284479,0.14202688156659626,0.021178136174551533,-0.054211788974514376,-0.033032218661401457,3.0546875
0.14792440886236458,-1.2835958353410195,-0.9369868120442001,4.311299357053325,0.1748343820614415,0.12014475664526943,0.11102105633030832,-0.8170042364812783,-2.0621081812857978,0.07983520923423859,0.28425033605866434,0.04244142754408866,-0.10879255265956331,-0.06663677171831352,3.0625
0.04378696543826663,-0.38065537477949773,-0.2776295429807071,1.2773752349740952,0.05245721955120872,0.034855208056124395,0.0332165355829313,-0.24364984178595794,-0.6149124330144493,0.02369168400245021,0.0850817345545938,0.012633366278623178,-0.032118413925412814,-0.019478537771367044,3.0703125
-0.05833435137445135,0.5030023606432569,0.3677998813988905,-1.6914004588678808,-0.06756102434545756,-0.04882181027958484,-0.04289710579286439,0.31827661322315504,0.8060512372830441,-0.03126111738321652,-0.11020077818124985,-0.016587699455616264,0.04293367006109452,0.02674530749609251,3.078125
-0.03638615610150409,0.3121712221097417,0.22858153105711143,-1.0490679279155053,-0.04166962101920049,-0.03095225933554604,-0.026404174292118627,0.1968722093747719,0.5022658728426882,-0.019372370024459643,-0.06814065720811756,-0.01031346158576433,0.026698087210212815,0.016828350896955613,3.0859375
-0.006995521481760561,0.05751841416401529,0.04329517022516734,-0.19611230872095803,-0.007091292600669066,-0.006867138545113725,-0.004544958567846908,0.03522248378880711,0.09343922397922304,-0.0035884907743234493,-0.011857902066046696,-0.0019200228343540181,0.0050882632391030455,0.0035279686236358455,3.09375
-0.08178618258660418,0.7044759267122227,0.5165827778282839,-2.375100693493062,-0.09510675696901202,-0.06793685087088351,-0.06046465367781278,0.447854179884459,1.1323375576223584,-0.043954142856717,-0.15492986510649306,-0.02331515071614473,0.06010695277742625,0.037324060788239494,3.1015625
-0.1542321539047118,1.3305992758141314,0.9736746108543541,-4.478789270398671,-0.18029165412855686,-0.12712956188042715,-0.1144426910765105,0.8469838330192787,2.1392416870159727,-0.08295186877664561,-0.2935513893951345,-0.04400408339696631,0.11327231688043739,0.07004169078386999,3.109375
-0.0781448027376655,0.6718764930139005,0.4916246036509925,-2.2588614995196377,-0.09066943651227752,-0.06485730410166067,-0.057519996155879445,0.42736916218294907,1.0809453202530104,-0.041895290493807684,-0.14797339159352824,-0.02220767708010975,0.05719019477375065,0.03558726407262885,3.1171875
0.08021936411923104,-0.6980463159069106,-0.509242008999387,2.348501699199852,0.09564849250231641,0.06472915774660894,0.06063474667708632,-0.4450672190423012,-1.1219300384124344,0.04341396284712199,0.15505560832268722,0.023079794165972948,-0.05923836698962072,-0.036059049498294644,3.125
0.1498250330067733,-1.3008442269823512,-0.9489548377593707,4.371240909982577,0.1774030542024787,0.12168720733303816,0.11249513217032014,-0.8280619539102027,-2.0901627484670477,0.08091156045643874,0.28824496080448253,0.042974186753068404,-0.1103367214710928,-0.0675549376328415,3.1328125
0.13215484421378346,-1.1496198095186763,-0.8383241237488427,3.860509753305002,0.15656134456753626,0.107213622375836,0.09937251762393143,-0.7306593596422515,-1.844182661228924,0.07148956064584992,0.25441537706942396,0.037955095562114495,-0.09739144941436459,-0.05958761041822998,3.140625
0.14975561701123857,-1.3022300165446463,-0.9505614867361412,4.377635281368437,0.177442243805953,0.12162987088318569,0.11262635417178744,-0.8281379726381969,-2.0894148683862817,0.08106396677763057,0.288069816164569,0.04303628255215673,-0.11044984314915961,-0.06756897524257584,3.1484375
0.16728044244739992,-1.4517960806503931,-1.0604693355500499,4.885523839208204,0.1982393026816938,0.13601349057638482,0.12569142494757846,-0.9249994597030893,-2.333816691702082,0.09046350778091165,0.3215723653171191,0.04803132437255046,-0.12331738676662367,-0.0754711922734634,3.15625
0.046250728390254715,-0.4027608017120277,-0.29392459189467707,1.3577227882249592,0.05577131486008779,0.0369410996427165,0.03528585792299449,-0.258072480566384,-0.6494208087535304,0.0251511868060679,0.08995658226010737,0.013349545846952617,-0.0341843466395637,-0.020649700926521686,3.1640625
