AF3,AF4,F3,F4,F7,F8,FC5,FC6,O1,O2,P7,P8,T7,T8,time
-0.031319942632833185,0.2663370721854208,0.1952304915247766,-0.8971703929738819,-0.03596863880015023,-0.026581120059305394,-0.02249945647160178,0.1699818992559086,0.43193253474264365,-0.016661573788335358,-0.058479856749723766,-0.008838752157403023,0.022853570261792584,0.014429402093995316,0.0
0.07296090106309637,-0.636192051751722,-0.46263811142364364,2.131852375623625,0.0867214155064686,0.05876396106981576,0.05515079092660123,-0.4041813903845772,-1.0187283503456752,0.03949333846452856,0.14107149707367872,0.02095668288684856,-0.053792628584731966,-0.032750170441975084,0.0078125
0.13556061459785484,-1.1779614713276279,-0.8577808061002309,3.9509962671868384,0.16058045548043623,0.10997958638349954,0.1017670650938024,-0.7493224004753823,-1.8897095901134,0.07324469533421175,0.2608786956957846,0.03885059338702289,-0.09985387722547806,-0.0610576995208598,0.015625
0.04962542133664342,-0.433623969829546,-0.31459198096907975,1.4518745288453427,0.05967711328206005,0.039569202993591034,0.037604587387865374,-0.2764427525766658,-0.6943567520083801,0.026948202646237665,0.09639137683644808,0.014287743687869054,-0.03666218410423124,-0.022142469291117302,0.0234375
-0.08770064914447552,0.7561759993552774,0.5538417158250563,-2.544316601010017,-0.10191268293328486,-0.07290853584565544,-0.06492746873413403,0.47996673056581785,1.2156892295128325,-0.04710121752889545,-0.1664893404523227,-0.024972831882639275,0.06443003371835816,0.04003336400689658,0.03125
-0.11136317931624863,0.9620192726573789,0.703838032451006,-3.236094909538065,-0.12988502978055078,-0.09228463724776266,-0.08261519290625384,0.6105200211670677,1.544228813035598,-0.05989388309276309,-0.21178822896055516,-0.031740203116127644,0.08195671255021846,0.05076976493406188,0.0390625
-0.03548437721479748,0.3051079953743387,0.2236068476417711,-1.028667811698106,-0.040639710807079545,-0.030102672170070944,-0.025902672591552097,0.19253147886366054,0.4878993879748681,-0.018978032162143155,-0.06643847362058009,-0.010040551681907726,0.026158740960299295,0.01642555477668293,0.046875
0.008201808640012381,-0.07406676474456535,-0.05375486038216775,0.24722114316062885,0.010835761155475592,0.00575823271181137,0.0068453484911960155,-0.0482780006860673,-0.12049719497323758,0.004603596464448284,0.01735589945494784,0.0024629264008580814,-0.006086053398960314,-0.003399407702733067,0.0546875
0.0039002205724327256,-0.037520996602843096,-0.027090902994209954,0.12653077694079565,0.005834840624110244,0.0022973363503441314,0.0036906303680787726,-0.02464779072424932,-0.06102709652198159,0.0022880649538417467,0.009162428983474028,0.0012467584748981917,-0.00303485631049083,-0.0015123412599278494,0.0625
0.007769525989521583,-0.07092017118750861,-0.051288273509177106,0.2391856005630478,0.010383338384312046,0.005464974148114891,0.006528868578838677,-0.045962714347588224,-0.11486754229092742,0.004380175078418703,0.01644060074117947,0.0023620214865355837,-0.00590644540326325,-0.003280520004066372,0.0703125
-0.013882170247695608,0.1166391906626219,0.08568668650106953,-0.3915779684710932,-0.015115070152675568,-0.01226966865389209,-0.009644520641696326,0.07330698461575619,0.18645301033033734,-0.007252465480078326,-0.025090860901086608,-0.0038278409074163485,0.01002886284825555,0.006521911926950013,0.078125
-0.07396321625445852,0.6364785513425892,0.46517729450234646,-2.136987537689579,-0.08578826597398626,-0.06144932753609303,-0.05439019198595612,0.4042914936049234,1.0223831626070088,-0.03961277309338486,-0.14004517301646174,-0.021010077967315452,0.054175387041595705,0.033696408668480095,0.0859375
-0.06591245814996329,0.5666122412452809,0.4141211469492487,-1.8992079887951818,-0.07628352832096852,-0.05488537625295703,-0.048286619463638124,0.35993312536091193,0.9108672173449635,-0.03528819003150759,-0.12461829913883524,-0.01870738225496879,0.048183096551161146,0.03003958152046052,0.09375
0.01791160103478596,-0.1588519446080141,-0.11550926139992332,0.5382389116056568,0.022272861821250288,0.013673436991769997,0.014244843142619272,-0.10181583300614139,-0.2541689467279673,0.009876299110597704,0.03573590648674501,0.005257491622602322,-0.013448068401052345,-0.007864231716473862,0.1015625
0.030899810263835224,-0.2712416869097674,-0.197168272224227,0.910121631102747,0.03738245292943424,0.024278454479353152,0.023830240216663134,-0.1731679913193857,-0.43375906678457465,0.016874028719208838,0.0605540530372878,0.008946961601167189,-0.022877761714268932,-0.013687104919726493,0.109375
-0.007068864323263494,0.056921194137110394,0.04303252231552947,-0.19778561026848174,-0.00735381145571651,-0.006788863550000962,-0.004553521932183675,0.0361974559758601,0.0947530244390109,-0.003593020855242823,-0.012041913729680729,-0.0019344977139572632,0.0051155152844801575,0.0035159171749239992,0.1171875
0.08547805011255545,-0.7449636279460514,-0.5424000079607133,2.4981786323790347,0.10167591172344541,0.06895690253079834,0.06454646050886739,-0.4737529900276287,-1.1932716899540048,0.04629857255585375,0.1651429258484218,0.024549037790009286,-0.0630102440506842,-0.03838908968339424,0.125
0.22232865295812856,-1.9296661391182774,-1.4079890049895794,6.4831069964514,0.26279473409604726,0.18094328162526116,0.16665909869381076,-1.2278737177008092,-3.09796069680699,0.12007552426152002,0.4270166277443872,0.06373011837091386,-0.16368618045040728,-0.1003381337926942,0.1328125
0.12320286174737412,-1.070569810983827,-0.780936213146923,3.5952853882335334,0.14604463478782448,0.09980884397006613,0.0925637773049162,-0.6816247348093145,-1.7195964303445486,0.06662418827713903,0.23723315637984702,0.03538800246824761,-0.09066089340018328,-0.05546252773169158,0.140625
-0.12656673156096987,1.0925991461871496,0.7991024290610306,-3.677971553150571,-0.14797363547751857,-0.104595661004657,-0.09391421294707486,0.694760506319208,1.7550461029158906,-0.06805417523224518,-0.24081926828206746,-0.036085877239990884,0.09314082030748091,0.057590818648129816,0.1484375
-0.16290177479877482,1.4070070275929973,1.0290758720560458,-4.734868534089978,-0.19067282611799294,-0.13431200446652047,-0.12096834082559578,0.8950217429964995,2.2608826425127972,-0.08765621632188428,-0.31036962305705174,-0.04649869380838693,0.119791660742379,0.07402520718407672,0.15625
0.009166638675790498,-0.08333450704868721,-0.059463749104821814,0.2764644737512152,0.011910189858105701,0.006539678195418658,0.007526824530462281,-0.053139239005987604,-0.13261963028079357,0.005108730310435201,0.018959211340316626,0.002740838424576086,-0.006883881051780844,-0.0038671747469474233,0.1640625
0.05720836599102958,-0.4993992588779563,-0.36345143655886314,1.6753696025828246,0.06849047269553689,0.04589033792776195,0.0433614055370267,-0.3179795098110678,-0.800992655749561,0.03099948368251408,0.11100087059880194,0.016493877544997357,-0.042238680403143145,-0.025612760983362886,0.171875
-0.06205834751073205,0.533785624177508,0.3912725541910314,-1.7975210117649745,-0.07176906326705117,-0.05170306467036776,-0.04568042672650979,0.33889329710365806,0.8580105830311908,-0.03330758321971358,-0.11713675643810291,-0.017650957898272198,0.04548731148580655,0.028371777387460256,0.1796875
-0.11644009519265006,1.0055987069229178,0.7354057084129837,-3.379429792784845,-0.13561590697201464,-0.09622833751843131,-0.0862097696220014,0.6380513618393112,1.6139756198968964,-0.06259862795114973,-0.22121981182424927,-0.03321629573351025,0.08543882993646473,0.05298376508925718,0.1875
-0.08367120247009725,0.7226328884929304,0.5274346279283102,-2.4217441894846066,-0.0969890315444081,-0.0694601895413902,-0.06167778067262986,0.45705320145760026,1.157125899635205,-0.04488087832091881,-0.15862157453905407,-0.023793549069586434,0.06131745153998452,0.03814696954641074,0.1953125
-0.09190786958945014,0.7935638114601703,0.5786493799901397,-2.6586534963506807,-0.10673400119710154,-0.07625853856832454,-0.0678082375655641,0.50235770229687,1.2712939848189235,-0.04929206622597202,-0.174420537978868,-0.026109196261863202,0.0674071292570754,0.04186992261509382,0.203125
-0.07735893706654201,0.6661306801030114,0.4866040674374378,-2.2356610581668748,-0.08970577661932304,-0.06437127120646519,-0.05694317608282485,0.4225513537629825,1.0697670270502828,-0.04145538142254524,-0.1464856212680288,-0.021976459992105565,0.05670652205837552,0.035279872001759735,0.2109375
0.05948087606521149,-0.5196016473185994,-0.3783124404165096,1.744855620745515,0.07116373973740078,0.04766183291035133,0.04521361302218246,-0.3307985461813617,-0.8325368296881711,0.03229564011010587,0.115420408986708,0.017118872246866302,-0.04394085978649995,-0.026653929030284608,0.21875
0.19542553520882355,-1.69632459018686,-1.2378691172776082,5.699326580755041,0.23088145938460092,0.1589780032536681,0.14666642877776528,-1.0791870552690093,-2.7228842289529673,0.10556918663930369,0.3754486204720203,0.05600467075992924,-0.14384196403002697,-0.08816988546619596,0.2265625
0.18980583457925151,-1.6476573655116113,-1.2025348208509319,5.534595728003242,0.2240846787259985,0.154390451993006,0.14242202867158718,-1.0478078963805828,-2.6442542954657045,0.10253954984454018,0.36458203245308424,0.05441786755667134,-0.13962625413458854,-0.08561651896872982,0.234375
0.09386704699888748,-0.8180974420575743,-0.5958907664758798,2.742129365243038,0.11124276486614812,0.07585763631590688,0.0707810682732572,-0.519187370368942,-1.3095844116455204,0.050827485065700694,0.18104722471105222,0.026970018281867406,-0.06910525176797622,-0.042208086904703616,0.2421875
0.00988294353990948,-0.0912496754746167,-0.06433893195059916,0.29660139093097354,0.012589647521499743,0.0071352838521724134,0.00805645517968266,-0.056717678671667646,-0.14208661534140074,0.005535491217096398,0.02042846164178161,0.0029273283407304203,-0.007392186640006095,-0.004212367318211221,0.25
-0.017051466952695837,0.14347198765133623,0.10671967918515368,-0.4899417826192598,-0.018992427733521777,-0.014890291195857766,-0.012117373205725515,0.09139882628158756,0.2317200412651477,-0.009036829090881535,-0.031135191259039022,-0.004783899886246227,0.01245306363389811,0.007996881063364507,0.2578125
0.018455415669034206,-0.16271944530714924,-0.11762886289812864,0.5436874606988544,0.02288983721322726,0.01414778730946779,0.014384171937605699,-0.10452080625551885,-0.2619966527974348,0.010076286610288369,0.0367710609961497,0.005378440075704475,-0.013676883599040048,-0.008044688717372421,0.265625
0.02191267628121929,-0.19308205235916395,-0.14017710294294505,0.6496632531025409,0.0271262419559782,0.016950692320876995,0.017086302616889183,-0.12398247445140402,-0.30976438176672627,0.011988658651731928,0.04343831200240983,0.0063848755426003405,-0.016361474728375125,-0.009627280220223246,0.2734375
-0.10710868935797295,0.9236548888687707,0.6750962034611475,-3.100993575890396,-0.12460615380425275,-0.08862665667874649,-0.07913477289512488,0.58650091970197,1.4839404429387673,-0.0574909941240565,-0.2034240111715881,-0.03049021232166925,0.07848400569387393,0.04872014015054283,0.28125
-0.22589130941248534,1.952983620150082,1.4265170544226555,-6.5604317398708965,-0.2644840160285572,-0.1858266770967974,-0.16788713885250703,1.2408874650602884,3.134994112940225,-0.12151610656241889,-0.4307896803008205,-0.06444578680500038,0.16600453696798786,0.10248140201099756,0.2890625
-0.12219815428543136,1.055767889628772,0.7713000296117444,-3.5471338982648852,-0.14257760335719943,-0.10100696269296512,-0.09060287746085886,0.6697226578380571,1.6930162506741995,-0.06566611116158151,-0.2323870308664353,-0.03479514478776798,0.08985218229264533,0.05560567768090148,0.296875
0.0637684253424319,-0.5551212341375422,-0.40483900959030983,1.8657702355107608,0.07631419185888216,0.051131565508690795,0.04825948053951064,-0.3548171730188395,-0.8925391427462371,0.03456148515378848,0.1235645211740388,0.018372280382183966,-0.04702459259072244,-0.028532853784364962,0.3046875
0.045612676211264455,-0.3988472996002581,-0.29042663909189287,1.3410513004494624,0.055019047235669145,0.03626651414725272,0.03483496176728536,-0.2546841887898745,-0.6396035741519567,0.024796918939812868,0.08887097613151408,0.013162987455542232,-0.0337811172114581,-0.020347439321231776,0.3125
-0.08131038457751352,0.699899643280109,0.512172271102674,-2.3526467136007496,-0.09446629879227522,-0.0675688554887283,-0.05989738741104446,0.44499844427148616,1.1258386707795076,-0.04361764284853475,-0.1540789385792733,-0.023142735505415447,0.059630274742996245,0.03706766028305979,0.3203125
-0.048400202578442436,0.41517045709291434,0.30416397704808046,-1.398047111081145,-0.05593165845904334,-0.04059041765642337,-0.03541836111779304,0.2640735253843234,0.668456178245324,-0.025911271570070515,-0.09116348890696248,-0.013725951521234177,0.03552731016882191,0.022191420868969188,0.328125
0.054234343169889974,-0.47313392669811344,-0.34482513371020834,1.586766120072232,0.0648255216591037,0.043434430780563894,0.04115925198638798,-0.3014002686177298,-0.7591056242155834,0.029392802331506623,0.10526559466274264,0.015627310525797068,-0.03995443840333574,-0.02423599447390186,0.3359375
0.01763152015749385,-0.15596387303812695,-0.11302605462746199,0.5209324795575908,0.021819282823326725,0.01348233378783467,0.01385349095198939,-0.09987229896340111,-0.2506063569408216,0.009677931345045288,0.03524178747348767,0.005141245751033422,-0.013053816484785643,-0.00768375094389309,0.34375
-0.00986605645504986,0.08189162694261355,0.06137631326334753,-0.28021944727970244,-0.010610736873741224,-0.009024387100557089,-0.006698378685369239,0.05183861787486064,0.13186001391744573,-0.005134468812967603,-0.017430323963280692,-0.0027418459336455126,0.007191334212429025,0.004739842016003135,0.3515625
0.15238818604702842,-1.32335670847413,-0.9646016555263536,4.4415462687578,0.1801938510958588,0.12378826935069663,0.11437782447128987,-0.8417839240102983,-2.124073465786473,0.08231101107469795,0.29301686914279657,0.043668404270857816,-0.11215112754379447,-0.06868816863149169,0.359375
0.2787222702864602,-2.417293414169044,-1.7639822498777515,8.120851648916673,0.32891258330378725,0.2272046032278387,0.20872805220575733,-1.5379901009166443,-3.8809980994670012,0.1504194787242688,0.5348119602898661,0.07982391739029505,-0.20514347852494255,-0.12586180949661258,0.3671875
0.14161229840467748,-1.230613130021837,-0.8976633557569819,4.1356030440501,0.1677769011306072,0.11496346299915308,0.10650147663025049,-0.7831780233909341,-1.9748744255818431,0.07658061201785545,0.27253227092968785,0.04063221167317927,-0.10439038311648371,-0.06384349012234311,0.375
-0.05175071715638206,0.4425121219046759,0.32429403147806063,-1.487695748116286,-0.05961969472014519,-0.043334849682410234,-0.037753312140403075,0.28171718603989176,0.7135862776930952,-0.02758590081675796,-0.0974159553156946,-0.014648858131010408,0.03777350382358263,0.02362789632706776,0.3828125
-0.07071274256142217,0.606776726041362,0.4437656123349501,-2.039179973580632,-0.08189958710781484,-0.05884873197079297,-0.051925340232967174,0.3861377435793104,0.9769008726173704,-0.03782702265243693,-0.13371111964315063,-0.020049393125741874,0.05173471040761866,0.03221633556937665,0.390625
-0.06795248682629323,0.5850418415746872,0.4269017266252672,-1.9620980237570393,-0.07862140226265772,-0.05658126342732232,-0.049954790155305816,0.370986043717205,0.9383794142006097,-0.03641211278554203,-0.12853111181011773,-0.019257151213104083,0.04980435238294169,0.03101746450213729,0.3984375
-0.1920962107967465,1.661803128682753,1.2131492194015725,-5.579413087163128,-0.22467922940252202,-0.15826061299952474,-0.14271784325360215,1.0548899618806855,2.665393020466049,-0.1033653694565626,-0.3662099827135279,-0.054790483755203484,0.14123149713901514,0.08725365102151937,0.40625
-0.24471718702399975,2.116790179721111,1.546493134404016,-7.114080580981322,-0.28665707629043885,-0.20141067435085797,-0.18204324195537241,1.3447698242430814,3.39831300219105,-0.13171447713691883,-0.46692382205502764,-0.06987284765704176,0.1799603530097007,0.11109583006824907,0.4140625
-0.07657486759615592,0.6591449075514775,0.4830124591891412,-2.2221634572799314,-0.08892712554135723,-0.06374217159459149,-0.0565243302545039,0.4186675370508981,1.0606564141754102,-0.0410766522126345,-0.14507487473083602,-0.021798173138747413,0.05622317046354233,0.03499590358063094,0.421875
0.08865684864573188,-0.7721732544038017,-0.5619642218603216,2.5865861120980753,0.10539798502092708,0.07162038042113958,0.06683957758428849,-0.49117841200792745,-1.237223207953216,0.04796006826988417,0.17120391225459863,0.025452287216399055,-0.06535407653509788,-0.03980875543487084,0.4296875
0.04264089202317744,-0.37326822027854484,-0.27080530263054925,1.2486823429730987,0.05122652681699895,0.03397749624829178,0.03250968601107161,-0.23747002112250995,-0.597196537335504,0.023140078097164556,0.08315385753073927,0.012284286861638303,-0.031490409187004395,-0.019000578533612256,0.4375
-0.05607337887708823,0.4820548259106133,0.35328814859141866,-1.6224042006950106,-0.0648791057208033,-0.04689468244380347,-0.04116106689082174,0.3060429259438725,0.7757192241018684,-0.030057151989790393,-0.105789999123554,-0.015944062970539463,0.04113696934986832,0.025680483350267194,0.4453125
2.2741155583903198e-05,-0.0031591114303935208,-0.001820507587660582,0.011335036668489349,0.0011819820230985116,-0.0009769820232250162,0.0007187085773855407,-0.003308713475527966,-0.005343408757679238,0.00018400247073505912,0.0015372217041930275,0.00011775824151628406,-0.00013187993984221173,0.0002877737667589416,0.453125
0.10976776785930652,-0.9531574223147486,-0.6958246578812968,3.205459762918601,0.130296439448071,0.08895173174700802,0.08263081981171917,-0.6076561250368452,-1.533122975486999,0.05932322361967857,0.21155758051348303,0.031516767081703284,-0.08085426446098525,-0.04941812816851171,0.4609375
0.09826185161236405,-0.8538899026727698,-0.6228620364895455,2.8708500935730044,0.11670677497077607,0.07956083829209763,0.074047765007065,-0.5439100854213557,-1.3734761984791217,0.05312798529626424,0.18953163779156076,0.02822388333347176,-0.07238437713566113,-0.04423836912491861,0.46875
0.045685642377501966,-0.39930886236327334,-0.29061020204908133,1.342410938908897,0.054865270657093096,0.036414489886360195,0.034847865170696005,-0.25448627395570855,-0.6413725041390129,0.024836889539676176,0.0888920948992202,0.013189337205942212,-0.03374546324725531,-0.02042881058180806,0.4765625
0.09772395646906368,-0.8504275721074718,-0.6202678350479621,2.859458823549024,0.11615055091208633,0.0789137839346297,0.07374539880864966,-0.5415468470999938,-1.3646699400375857,0.052927937366912405,0.18848394804157165,0.0280850821319601,-0.07208365873786655,-0.04396858443027159,0.484375
0.15528324754777115,-1.349379212478035,-0.9844886757031435,4.534644139477614,0.18381588046811584,0.12606944546161888,0.11670561518333912,-0.858342593107693,-2.1655822911053844,0.08394000487165217,0.29868464307598375,0.04454891895555216,-0.1144262041660383,-0.07003940170164721,0.4921875
0.04628418479785998,-0.40597941757977923,-0.2948411498356833,1.3579534502585995,0.05541599771685322,0.0369436834848329,0.03526658228365952,-0.2572333312547618,-0.6493558371107426,0.02514771433737537,0.09010120965394652,0.013358978415556028,-0.034167864876746966,-0.020705970017267136,0.5
-0.13851440527249015,1.1946272416161323,0.8741387873104186,-4.024833256778964,-0.16204461058591244,-0.11430300125654064,-0.10274977697980416,0.7607605456251716,1.9218863792522405,-0.07446074768475124,-0.2636320924640248,-0.039498599647717916,0.10184432058333957,0.06298359157920534,0.5078125
-0.1711967203184205,1.4786445427803807,1.0805334857997182,-4.974307953906418,-0.20031199278823117,-0.1410977816114241,-0.12712017445874185,0.9400309883681646,2.376576871122017,-0.092023353367884,-0.32624057673266876,-0.048821504998783204,0.12585722975030572,0.0778072890488857,0.515625
-0.054123056146542975,0.4653367055088396,0.3396367352819568,-1.5609570025739214,-0.062319695019881834,-0.045291845250314204,-0.03961613017953107,0.2944409894023375,0.7473690288397058,-0.028877262514502778,-0.10211610019669853,-0.015317665171560966,0.039621393468514746,0.024794727811594693,0.5234375
0.013562413493179867,-0.12084763794111995,-0.08810300629143422,0.4107642228944683,0.017446619335802625,0.010104483350121679,0.01096694200433431,-0.07856006054400543,-0.19420980461889087,0.007575319074345612,0.027554967544669073,0.004017578599648356,-0.010248468927577357,-0.005854322101036018,0.53125
-0.02807755042316088,0.24012137345618526,0.17650774085441975,-0.8062186432868677,-0.03157445911109801,-0.024007343095955376,-0.020213599928483175,0.15098383902570817,0.385676700146133,-0.014949333259119551,-0.052108842872169325,-0.007939484113435098,0.020426146009186224,0.013025386261080412,0.5390625
-0.05825585607275009,0.5019147890849173,0.36819444633397425,-1.6892937416242055,-0.06723073539684753,-0.04872067938578446,-0.042884439977056966,0.31757769832168503,0.8053215170360247,-0.03126354728823009,-0.10994486412213168,-0.0165888864556398,0.04273018381374269,0.026694550604710793,0.546875
-0.02911094655156058,0.24869907550045642,0.18317505333142153,-0.8398584449078308,-0.03314170170751939,-0.024812866433505748,-0.02113349432676497,0.1575527669893468,0.39893192804483923,-0.015532860238589751,-0.05420631243620815,-0.008228385322864648,0.021326569643754286,0.0134498345489966,0.5546875
-0.014112569684365812,0.11724953044381134,0.08702003786922519,-0.39983623308460975,-0.015656865773168518,-0.012476515995609484,-0.009824614200236573,0.0753588203684189,0.19025451501893142,-0.0074126375039867826,-0.025497615998802372,-0.0039074100886261395,0.010253419436167102,0.006617832117753513,0.5625
-0.019500846745808022,0.16379251357536453,0.12078061298419927,-0.5561224705807516,-0.02205240349965133,-0.01689926608993374,-0.013801094878377062,0.10510528680444957,0.2663544189716411,-0.010329648573644521,-0.0358967954891374,-0.005436516044536141,0.014211953278729516,0.009083297584508286,0.5703125
0.02770795179666054,-0.243453658700389,-0.17719465526380684,0.8167836043694334,0.033559028736685384,0.021684339356091115,0.021376325865860992,-0.1552275094747058,-0.389733079141491,0.015076202548626122,0.054329025538514514,0.008066596149198956,-0.02046334086428378,-0.012235890262034824,0.578125
0.10397901837857282,-0.9029360013352767,-0.6593030649677932,3.037662705410383,0.12346156827300417,0.08409463675109304,0.07828869786865698,-0.5758246970634628,-1.4513188914643342,0.056187171630992565,0.20037355672628746,0.029877023029404103,-0.07656941744164088,-0.0467531799662444,0.5859375
0.1025650840055747,-0.8913354314613023,-0.6506677756142385,2.9986197851930156,0.12194384430953453,0.08297254902031174,0.07731175446238225,-0.5683548377650743,-1.4323776928267318,0.05547026383093333,0.19792262530138413,0.029456583401339328,-0.07560475086970349,-0.0461423144020541,0.59375
0.025187749723412742,-0.2218900537682463,-0.161286147941805,0.7461931058951718,0.03088561078275421,0.019677629573336373,0.01959946750785564,-0.1419642275227038,-0.35625113441292494,0.01379111596483041,0.04993298127197583,0.007306533331790418,-0.018700872481363637,-0.011139525833845722,0.6015625
-0.022803089343788267,0.19450886517739138,0.142885823196877,-0.6531123646961364,-0.02571133949103611,-0.01959562065473536,-0.016297097657050962,0.12284727662502874,0.3110033477399026,-0.012090443274308634,-0.04210872945809272,-0.006418512752846537,0.016699362649952188,0.010581491153829751,0.609375
-0.02230620497668279,0.19123534692160926,0.14029709342043187,-0.6398522266029387,-0.025148547228775103,-0.019214355220258755,-0.016020223368012374,0.12021413036837693,0.3036126299528014,-0.01183055037193801,-0.041350365926251645,-0.006257563017750256,0.016401570053027222,0.010362208088185958,0.6171875
-0.03592578531054999,0.30856660566523314,0.22619757596928203,-1.0349952210910944,-0.04105087583572611,-0.030403459585994774,-0.02617222639265344,0.1948642587948752,0.4933390247807542,-0.019138958970249052,-0.06736783921072997,-0.01014398455299689,0.026348993546072803,0.016533430944429103,0.625
-0.03893032063561304,0.33265141686954053,0.24436541573788684,-1.1210360379807163,-0.0445451657300814,-0.032889325375127364,-0.028314560571715705,0.2111840984720423,0.5364214537376364,-0.02071642399407225,-0.07299715607565536,-0.011011508897173046,0.02843945521021352,0.017902253005738493,0.6328125
0.027346095127100515,-0.24266455576677676,-0.1754783094801739,0.8075708634340745,0.033313837853169125,0.02136845511067812,0.021216490951094825,-0.1536700686115578,-0.3843923367071652,0.015020762744044076,0.05383098693838079,0.007939878376615429,-0.020355731686043044,-0.012089366588801262,0.640625
0.0788545329362706,-0.6887438398646188,-0.5013037935823088,2.305204668460901,0.09382585136035457,0.06356135546703288,0.05962442508352763,-0.43711709127510945,-1.1010614733285302,0.0427742766834735,0.15236198275005267,0.022677466295696825,-0.05821730137560221,-0.0354073427909421,0.6484375
0.013778287617764838,-0.12477861134172542,-0.08951111361037994,0.4105816038036216,0.017292207349054192,0.010313118378401312,0.010992020491161568,-0.0786374090797315,-0.19659540278392637,0.007678677465759364,0.027875041121201705,0.00406534251435889,-0.010327143399685088,-0.005964296014120691,0.65625
-0.06201323723473405,0.5317690844843449,0.38974157738623016,-1.7935279035505214,-0.0718237240898515,-0.05174239355704744,-0.045555306174432236,0.33864896599964417,0.8578017656913574,-0.033203654012849936,-0.11711540770408393,-0.017614202888484667,0.04540118393731052,0.028339624207712442,0.6640625
-0.015715634461730292,0.13155967551087144,0.0967782162069459,-0.44341414308424904,-0.017291544689633134,-0.013873582822030278,-0.010937070520231676,0.08329044411947452,0.2144425739792769,-0.008288618780334397,-0.02855003057902757,-0.004361613164780659,0.01131314671055388,0.007403137792217091,0.671875
0.03162408060975893,-0.2766666498403872,-0.20201753596210986,0.933750492161222,0.03849979385717472,0.024896206479313867,0.02435369359863693,-0.1777044715014587,-0.4446485056650846,0.01718808812290132,0.062015618129498365,0.009187159796562712,-0.02346565998377302,-0.014005693526655207,0.6796875
-0.06728634551718099,0.5813440060178872,0.42473902634515115,-1.9497345228988239,-0.07786912037380764,-0.05600557175188192,-0.04961423204422211,0.367377648868883,0.929548195135645,-0.036156988964161065,-0.12721954843268218,-0.0191242693623397,0.04943507191663711,0.030761226257192922,0.6875
-0.15766763372671508,1.3638136571003323,0.996880519973976,-4.583366394554122,-0.18435759389856973,-0.1299843247555754,-0.11712810448833569,0.8657302991698526,2.186285997087323,-0.08487627602889937,-0.30014683468305714,-0.04500824574859255,0.11603440374812558,0.07166061709819789,0.6953125
-0.050381236146152204,0.4335946254539037,0.3177354601259174,-1.4579543436084532,-0.05823220691531134,-0.042250853984700056,-0.03694661162826954,0.274805864468153,0.6949950773229244,-0.027004784992659004,-0.09489378047438574,-0.01432018235261584,0.03707820513221136,0.023099084556426647,0.703125
0.10421324547250464,-0.9055554496377372,-0.6607677926493607,3.046044274921944,0.1237237024141063,0.08425236750828315,0.0785391720510541,-0.5770727932483646,-1.4551182228102886,0.05637926832276018,0.20085368817829183,0.029934422273455937,-0.07675178543960849,-0.04688597704754805,0.7109375
0.08813324319647213,-0.7661644759521381,-0.5592928391570736,2.5784066633920126,0.10484561141989858,0.07118513726707133,0.0665142427036303,-0.48837987509181247,-1.2325948850337163,0.04772692404462911,0.17003239238757678,0.025360973315166825,-0.06495460569050286,-0.03964356201502485,0.71875
0.004450016981639679,-0.04211013837057011,-0.030117333926206545,0.14100956855838162,0.006297940834376894,0.0027782490013353632,0.00401721127014694,-0.026962814986712408,-0.06888144816089259,0.0026065527717795524,0.009922057532520559,0.0014173802041095758,-0.0033738666411685806,-0.0017906656540426578,0.7265625
0.03209110089953974,-0.2824888131326419,-0.20512987827370358,0.9462687753464286,0.038812876249171846,0.025339911938814845,0.02469957111378012,-0.1793634341927189,-0.4518109723502506,0.017515283790012177,0.06291746913366879,0.009301267320028603,-0.02375016959330629,-0.014279218429754294,0.734375
0.07633251325423987,-0.6656300930812029,-0.4848903856833484,2.235585337133211,0.0910231575481714,0.061430779503873344,0.057781644348273264,-0.4237660494367322,-1.0657870154901363,0.04138655952962507,0.14765982863692453,0.021940705947086993,-0.05638001193909658,-0.03426136801806217,0.7421875
-0.0017979113249165205,0.011664719691066701,0.009486052505205832,-0.03983414136478587,-0.0008262472092727008,-0.0025207229449774444,-0.0005530383830137928,0.006417100945548216,0.0207731507259052,-0.0007339924330787968,-0.0019001839534618968,-0.0004075512577591961,0.0010819480808721815,0.0011171428636704975,0.75
-0.08833633264779986,0.7611494209132045,0.5567972992786046,-2.5615448020485085,-0.10275189440067628,-0.07326331087275716,-0.06519991613821724,0.48360678140550145,1.223718006379992,-0.04739855288237042,-0.16762015227361132,-0.025147689617311883,0.06480347904229125,0.04027625522616162,0.7578125
-0.03043723980931152,0.2591633599982913,0.19050734309606254,-0.8771935651118595,-0.03470917106357018,-0.025858090192058567,-0.02201669367049628,0.16490174931185042,0.41829644616368555,-0.01617476981253558,-0.056833029683296475,-0.008574351164093606,0.02225598191154684,0.014069680094996404,0.765625
0.08830435793980788,-0.7695053969931115,-0.5603586510354812,2.579964144387326,0.10503366750892054,0.07124498403614879,0.06659585075763513,-0.48952501612908894,-1.2329089220110148,0.04784691805573664,0.1704997585267189,0.025387478061751543,-0.06510122284645482,-0.03966247505156639,0.7734375
0.09061028543234231,-0.7894854173038516,-0.5748957488309812,2.6480654418731993,0.10773710440404147,0.07307291796440121,0.06831886547958602,-0.5023762594470331,-1.2646895706733605,0.049058313701642056,0.1749501529590955,0.026037854834388453,-0.06682055395024096,-0.04070709088870735,0.78125
-0.03629621305921731,0.3097187676831438,0.22752326930352954,-1.0450953489235584,-0.04164546124052139,-0.030750955471811475,-0.02637282836882753,0.19703516107304472,0.5003446308265567,-0.019390541430195474,-0.06797487766053746,-0.010263719991539381,0.026529926063968236,0.016711125807138273,0.7890625
-0.14027538771944761,1.2107478754023844,0.885181652674569,-4.0709660702163575,-0.16392981856907798,-0.11575191332900243,-0.10396192204200339,0.769996593278875,1.9458467795479917,-0.07542914093672531,-0.2669597378298179,-0.04000384498352617,0.10302880803431316,0.06374788582747451,0.796875
-0.09543503152881067,0.8231329959356447,0.6019647340860018,-2.765359833151061,-0.11100120216272115,-0.07898187682505006,-0.07052034229796762,0.5226794832051007,1.3210172658856218,-0.05122197913358466,-0.18104059141387702,-0.02717692703834379,0.07004653017363947,0.04343500382156413,0.8046875
0.033431066995657434,-0.2925095580445746,-0.2128880203192713,0.9853528847984019,0.04067625743180945,0.02648131770539413,0.02561757536862381,-0.18744466603582974,-0.4721028838442577,0.018239689750071786,0.06560648620757453,0.009689288828492385,-0.024738341489609347,-0.014893282641346466,0.8125
0.05848517936347549,-0.5092193141994061,-0.3712912680891756,1.7123662517177345,0.07000635994648645,0.046924893245737904,0.04428016670442465,-0.3251635169597648,-0.8203683596550264,0.03170044373906533,0.11344485543501291,0.016854157034996264,-0.04309178606328593,-0.02620637853544371,0.8203125
-0.04542686317884944,0.39117129862277933,0.28629542913154576,-1.316528320052121,-0.05245148863073507,-0.03817044117838568,-0.033299439828366986,0.24776025735748528,0.6258051416309455,-0.024354037171163825,-0.08550917397239345,-0.012891806332935157,0.033472318463772625,0.02087537503474001,0.828125
-0.07253149240323929,0.625891207167877,0.4577263722071482,-2.107113465799369,-0.08441261087324452,-0.060354956398234655,-0.053480388633442254,0.3971424010128902,1.0037934346511967,-0.0389696423161735,-0.1373830868885798,-0.020658518623751055,0.053433329639667175,0.03317781029003563,0.8359375
0.06901725733800722,-0.6009767722721517,-0.43868271276135806,2.0182437116323757,0.08223940504065042,0.055503809755073935,0.05231773532759971,-0.383121762468131,-0.9642977426730521,0.03737053286420821,0.13350995800033535,0.019861819445135282,-0.05085903899181554,-0.03090034605468183,0.84375
0.1744811661299091,-1.5153003677890102,-1.106813283794674,5.095655402680997,0.20654264190007446,0.14179931106894483,0.13115067364061564,-0.9647245896950336,-2.4311552478946163,0.0942769234766178,0.3353455985750797,0.05007123768622746,-0.12864861482540196,-0.07867680225208737,0.8515625
0.08294417031125595,-0.7224793168586076,-0.5273236864326878,2.4331697834184594,0.09899735764949151,0.06685574659528036,0.06276971739955738,-0.46065500136367205,-1.1586156496859206,0.044954505669328786,0.16022019128149245,0.023885314048894775,-0.06136814634514121,-0.03728371530893657,0.859375
-0.06656262543703031,0.5728131518223404,0.419556503256203,-1.922051052919105,-0.07694806822219927,-0.05550388312901076,-0.04896582332733628,0.36329968369436494,0.9201849315562476,-0.035666510369363774,-0.1258746441785898,-0.018908564923267607,0.04869254211872568,0.030366721400452486,0.8671875
-0.10517008804138805,0.9071284523748264,0.6639175071293467,-3.048284074241926,-0.12253924258156966,-0.08708306336662983,-0.07782478118865882,0.5764708122431487,1.457014639127544,-0.05650254057011,-0.19982062558307281,-0.029959006215284766,0.07717498665742901,0.047838902832563264,0.875
-0.07921548034042976,0.681871360721777,0.4991948623973418,-2.2934955888393613,-0.09212550648557076,-0.06581663343069412,-0.05841014239859174,0.4337519897765961,1.0961203975922469,-0.04249077592724529,-0.15015676185760535,-0.022534390496488078,0.058134807283011534,0.03609849655146838,0.8828125
-0.06516310176390153,0.5597158592518965,0.4104265804124278,-1.887105642566712,-0.07563581710544538,-0.05427212612485434,-0.04794427447757063,0.35641131923486497,0.9006338099604335,-0.03488153888688479,-0.12315294982380992,-0.0185350158919985,0.04785656366519286,0.02974676337800165,0.890625
-0.01837023548768616,0.15414594489992806,0.11492783152773059,-0.5285821035234303,-0.02061624323775721,-0.01594306045199834,-0.013096646603574387,0.09865715556944413,0.24995175989107823,-0.00965088026400014,-0.03355265935195717,-0.005163245347231607,0.013470471340138247,0.008580724722541982,0.8984375
0.07135974936406425,-0.6228789464445906,-0.4528071474043312,2.0829110523061667,0.08494230482407128,0.057459791325960824,0.05386865595769193,-0.39575795186718793,-0.9974269147199333,0.03870703329182832,0.1380845176619115,0.020520298835949222,-0.052554344628378956,-0.03200416474693508,0.90625
0.11700132380940007,-1.0174464427413528,-0.7418789254522404,3.413266957056453,0.13870320504182565,0.09475126364294253,0.08799093548106932,-0.6474228602969383,-1.6317813767694573,0.06329874131789252,0.22539581526800212,0.03358699822650836,-0.08614512909998978,-0.05263141650098321,0.9140625
0.08895450754194395,-0.7737556447214397,-0.564315507031558,2.597489793381251,0.10578768447938358,0.07180290281807118,0.06708372756974368,-0.4930475403328951,-1.242130599758093,0.04815890258762762,0.17178872612709659,0.025550611405563948,-0.06549469510528838,-0.03993420557453251,0.921875
0.03749663580109544,-0.3278467430090671,-0.23870023444707084,1.1001593421665767,0.045295642273910246,0.029739014093976977,0.028687303024427166,-0.20961730381597798,-0.527083975567207,0.020388899085804484,0.07330542051783129,0.010829902280991474,-0.02766038089445626,-0.016664863003656466,0.9296875
-0.022527108488884645,0.19202120764401187,0.14049127584969803,-0.6438398593318582,-0.025229619696067945,-0.019406019469734373,-0.01605540892375081,0.12076394921996998,0.30785376036564105,-0.011983441661850381,-0.041655817926945664,-0.006312805668425432,0.01638719699763256,0.010492377296218845,0.9375
-0.08671124326057258,0.7480453466639165,0.5459713614447379,-2.5078890062261046,-0.10058882569678919,-0.07201610178744249,-0.06389399526757054,0.4739130951823488,1.2008864665725663,-0.046571156953121175,-0.1644825507533418,-0.02465190544288817,0.06348776310079872,0.03954275591202347,0.9453125
-0.10251347675781161,0.8847650098396831,0.6459086261495374,-2.9663612041644947,-0.11915558335587723,-0.08496589508922112,-0.07568118269986925,0.5609600428592015,1.4203044982362116,-0.05507159073986687,-0.19464830374447736,-0.029174456452098117,0.07510023911562465,0.046674639255419224,0.953125
-0.06425913426880335,0.5530734867463666,0.4042317137067754,-1.8550191848654318,-0.07436071048774473,-0.05360052671245471,-0.04717599034079503,0.35077557356105604,0.8877314404874581,-0.03445115791572334,-0.12148893029927882,-0.018240574585157033,0.04705942474010705,0.029334365443787355,0.9609375
-0.040080105295968275,0.343955656956174,0.25190133393395236,-1.1553039693456906,-0.046155543248606046,-0.03377831515353645,-0.029203431913699267,0.21814839923644133,0.5516299064227826,-0.021441189982759935,-0.07535596711299994,-0.011336607631874013,0.0294073580574683,0.01839993892241769,0.96875
-0.027395836987516218,0.23483908622009306,0.17248570317271614,-0.7895130642439472,-0.03129093292955286,-0.023387385276999222,-0.019815279574866902,0.14856007812016161,0.3754988224775859,-0.01462806186099673,-0.0511068244237592,-0.007726635575619171,0.02015640664500977,0.012681687611230274,0.9765625
0.04729918023426935,-0.41261540359126114,-0.2999159617537488,1.3844644328586897,0.05663476723335796,0.037801744915672356,0.035921928802965485,-0.2627559275106009,-0.6636974756952796,0.025650082964662844,0.09194203888351762,0.013636932031115167,-0.034819370565242896,-0.021143225464399097,0.984375
0.14329872930055654,-1.246094823062234,-0.908250181621002,4.181651881170046,0.16960326011994722,0.11643038948275182,0.10766586721297705,-0.7916516715520819,-1.9989872356922156,0.07746322019753722,0.27576828474324383,0.04111629142684002,-0.10554853184690287,-0.06462972006626644,0.9921875
0.12625465484301066,-1.0998270442910811,-0.8014630318478638,3.6877408832602154,0.14962322824881955,0.10245155078712068,0.09503625925442705,-0.6982907168272864,-1.7611299271777558,0.06834576817776788,0.24325877269480214,0.03624797036659534,-0.09309892786710039,-0.056904825317541936,1.0
0.0016488439755642937,-0.020004586912349628,-0.013099837567879006,0.05954914760966411,0.0031758916340592865,0.00039372523130790554,0.002003560413991022,-0.012498801037592893,-0.027344516323254936,0.0011939156119801853,0.004912357739266743,0.0005845597901567144,-0.0014285564100974184,-0.00045687570903879933,1.0078125
-0.08003989789211265,0.6887805998334892,0.5044025067535208,-2.320861748966852,-0.09287392487710358,-0.06649383102522456,-0.05906522144331207,0.4374332742187146,1.1085305335377624,-0.04287613953959836,-0.1514269181472693,-0.022798672187102513,0.05873901015208821,0.03654178053339497,1.015625
-0.0596132101542639,0.5126769235306021,0.3756735663257452,-1.7270417509901577,-0.0689577760026867,-0.049793651903242815,-0.04385904928977979,0.3252870223906816,0.8237872336607565,-0.03190520893455927,-0.11254806586171298,-0.01694654704482961,0.043784615703472,0.02728651994018387,1.0234375
-0.019201138448049195,0.1635366078189861,0.12029942946879746,-0.5494418794323077,-0.02151744494741345,-0.016789797767933524,-0.013675572096218945,0.10285059263222418,0.2616275520752264,-0.010147306783795924,-0.03546663966071678,-0.005370258730955017,0.014087831434849122,0.008993008272942126,1.03125
-0.01212740283434226,0.1032627537146987,0.07571665712044102,-0.3423145926485903,-0.013153627227700531,-0.011062647125456154,-0.008384091747537433,0.06375450062339133,0.16354752174865192,-0.006372103734353367,-0.022014884722294476,-0.0033420255406162837,0.008868044452212941,0.005807385019589589,1.0390625
-0.012029276875633708,0.10252767945112413,0.07493600648817281,-0.3395564090769796,-0.012948160485726667,-0.010942958459775255,-0.008307681891938267,0.06313714187923587,0.162256408317513,-0.006369426590100432,-0.021717706982671083,-0.0033193871594182304,0.008741916005626536,0.00576859062218498,1.046875
-0.005813255339150971,0.04785606954477746,0.0353723140482447,-0.1592712207553297,-0.005590679176901164,-0.0057535498473589184,-0.0036424683925892934,0.028931785590899636,0.07536111733548247,-0.0030319712235015355,-0.00965372700598176,-0.0015501692826034221,0.004109959792091772,0.0029341691722650468,1.0546875
-0.0029217164682706184,0.021810734656735695,0.01702333169183466,-0.07425174500387413,-0.0021623895190885363,-0.0033279124788478495,-0.0014490462192306168,0.012970391898846275,0.03449937054069036,-0.0014203556604381526,-0.0040112034002384,-0.0007237441565188957,0.001938339845578268,0.0015873332326366849,1.0625
0.010823607193346123,-0.09837950190788913,-0.07040018762582653,0.3290614051404055,0.014007547987674094,0.007917142902671764,0.008846682415401872,-0.06280576437495235,-0.156705502015486,0.006064597042601851,0.022323600169688512,0.0032287373909854443,-0.008216854478940633,-0.004667381450138404,1.0703125
0.038884046152144525,-0.34250932627158176,-0.24904311656621927,1.148907602693056,0.046950519686068656,0.03086794255772397,0.029842688198077155,-0.21737144862085472,-0.5460834510155529,0.021226080731957808,0.07601107482698062,0.01128397442012963,-0.028889446247721384,-0.017369531463549845,1.078125
0.04545039443967812,-0.3991826552738936,-0.29119623399759575,1.3396653585762641,0.0546081952869315,0.03624651338822479,0.0347831013569554,-0.25356015621689915,-0.6366666372086636,0.024758612598299982,0.08854940426659084,0.013165216288150806,-0.033684577883909016,-0.020309239269245313,1.0859375
0.012365494575409348,-0.11116724108887582,-0.08118380745829866,0.37337008118984283,0.015682519380466012,0.009185770564675474,0.010064661450391203,-0.07127719014714036,-0.17700879299254324,0.006913971961952082,0.025195890225686326,0.003675555319542902,-0.009250705092160591,-0.0053110668180582805,1.09375
-0.03026277053591319,0.2587271918682594,0.18956011910146875,-0.870672423090674,-0.03451103624086665,-0.0256707631478321,-0.021832145784137055,0.16393808318937775,0.4148462188223227,-0.0160724753772081,-0.056424272783107014,-0.008541682510077872,0.022190422496321742,0.013965782402313213,1.1015625
-0.04803443258105871,0.4120693852234848,0.30248874524430114,-1.3907105484523077,-0.05557743316690909,-0.04016987673260171,-0.03518773128351483,0.2625123597615181,0.6618759881639927,-0.02568499332154674,-0.09046816972651307,-0.013635001952114499,0.03531590665415466,0.021986689349924794,1.109375
-0.03085498259509385,0.26339852241879397,0.19421015724805749,-0.8935236888343596,-0.03547440852397135,-0.026100707888191188,-0.022444956802959607,0.16818170569964044,0.42369572321020105,-0.016476055608360567,-0.05761058106666306,-0.008732935052589123,0.022733122904913316,0.014232484150765319,1.1171875
0.004481075601791366,-0.04145915996055976,-0.028820835082158023,0.13450016665604989,0.006220194183692136,0.0027283325995090856,0.0038942848751303788,-0.026978420518105162,-0.06709769384694103,0.0025434466766650573,0.01002347090258483,0.0013639284248157207,-0.0032553120174062863,-0.0017125487332795,1.125
0.011095368747506199,-0.09848312349226307,-0.070854124768422,0.3307801143350614,0.014257682947511034,0.007986370173617087,0.00887875299996119,-0.06433371092760293,-0.15891656407335336,0.006116796017702407,0.02272311564750833,0.0032680184847485687,-0.008235424457222928,-0.004683733104056724,1.1328125
-0.028894142101605947,0.24697627146247708,0.1812877123647904,-0.8289620587982085,-0.03263200166238886,-0.024827854332529896,-0.02088112812046669,0.1553859308658859,0.3970948310930256,-0.015418154321400633,-0.05378369379568765,-0.008144411136791456,0.021042374776877013,0.01340518183700809,1.140625
-0.04067380233583792,0.34874016664717566,0.2555171559090312,-1.1714076048560587,-0.04649384261504539,-0.03441906319888051,-0.029631075817284212,0.22032829305474771,0.5605642039939732,-0.021738542429439563,-0.07635967284549348,-0.011505298682267249,0.029688227347358237,0.018721094183504445,1.1484375
0.036908723791089705,-0.32302648824995805,-0.2349668467217674,1.085754797434961,0.04472632776454027,0.029175921283641205,0.028281917143961312,-0.20673770277438838,-0.5187192968668838,0.020127475966896978,0.0720976236177577,0.010677791254141153,-0.027342044079857474,-0.01641047957825961,1.15625
0.10620269274093812,-0.9241207061887058,-0.6736243574204288,3.104301345817586,0.12622094842955425,0.08594545648781182,0.08003804431966358,-0.5882700255049736,-1.4824652170174963,0.0575170251043032,0.20478375790389686,0.030502506549823095,-0.0783502547681608,-0.04780376692886327,1.1640625
0.04021073628518216,-0.3535922738052891,-0.2570295653733537,1.185723621417359,0.0485477680706389,0.03197347142770392,0.030813912442328537,-0.22461755750751067,-0.5648818837035656,0.0219420739345437,0.07855705623908955,0.011647160411915129,-0.029840546306314643,-0.017964581671206674,1.171875
-0.07487770060303664,0.6441100935239024,0.4709708070232606,-2.1650518252983546,-0.08693202912867219,-0.06217066669402367,-0.05513513072700389,0.4096347851537579,1.035015502179702,-0.04011967761633488,-0.14178251169580858,-0.021260843338808007,0.054920649936202,0.03411773733612703,1.1796875
-0.048714063497082585,0.4192314626465064,0.306375019049293,-1.405687434131462,-0.05622088023431341,-0.04075969914027178,-0.035677410134490724,0.26571844531102085,0.6706337288217962,-0.02602963437460567,-0.09186272334519417,-0.013786672975207933,0.03579826300381398,0.022285442047180557,1.1875
0.08024477240590978,-0.6975821019815214,-0.5089750849523752,2.3477615997327197,0.09552381121443865,0.0647015469428163,0.06059860476109916,-0.4448979471199017,-1.1223853212654207,0.04347177666757732,0.15494646375853466,0.02308306911752378,-0.05910294273305115,-0.03606085946003418,1.1953125
0.08708113594395082,-0.7578202515306092,-0.5528292975737477,2.5468173870805133,0.10364207638905201,0.07022718736727467,0.06578607675295683,-0.4830235777043723,-1.2162967142599863,0.047127855793528926,0.16819440136959088,0.025025726403743277,-0.06424446467072052,-0.03911505119336086,1.203125
-0.05325931176931027,0.4572973386471162,0.33431225331004033,-1.5400478204952108,-0.061495796370973556,-0.044604096839032326,-0.038935782438999436,0.2900252175395002,0.7364476548048392,-0.028539298055760665,-0.10030967466826281,-0.015122836234830454,0.03899670625678229,0.024440162083289703,1.2109375
-0.11767774549266274,1.0151960039175443,0.7418953790418611,-3.4163403562932553,-0.13742438151771483,-0.09725674966076832,-0.08706007411686714,0.6453982339012322,1.6326550625615217,-0.06325011188703317,-0.22368677075818053,-0.03354678889325111,0.08645947643644741,0.05358496278809538,1.21875
-0.02458390171185554,0.20841517574033278,0.15344828029039395,-0.705192387702436,-0.02797138286557406,-0.021050777344342644,-0.017621064137460975,0.13298201302990478,0.33770446209988114,-0.013063266134220743,-0.04561674827741227,-0.006912999541837658,0.01797384227604519,0.01140430812958937,1.2265625
0.03565346211844425,-0.3133708115874221,-0.22717923276283913,1.04858347951706,0.04296691941648864,0.02821558299203906,0.027290977632826736,-0.19893658239243422,-0.5004988690219851,0.01937262882686097,0.06968152138071854,0.010314142207389293,-0.02637484421346823,-0.015873939538412256,1.234375
-0.040627356510033553,0.3481641347084621,0.25579457594433913,-1.1747753390986837,-0.046719290762212755,-0.034230474857150736,-0.029719766177492012,0.22111239567809324,0.5600188772161987,-0.02177549092655896,-0.07627485670644159,-0.011516643172539776,0.02978779701941513,0.018678042428969005,1.2421875
-0.08840462873031231,0.7625351788531946,0.5583741693372382,-2.5677539754252443,-0.1029510468932606,-0.07331618547610959,-0.06542303634856099,0.48441143299453215,1.2240349443768859,-0.0474978693071177,-0.16772741410373856,-0.025187979199379908,0.06500740445901235,0.040310215574222014,1.25
0.008266725140404616,-0.07501398318347674,-0.053173935689927114,0.24811671849152497,0.010837988782258987,0.005809977386447518,0.006778380932868438,-0.04817474380624224,-0.1212421286641888,0.004679201849227461,0.01730516739104815,0.002470728699936117,-0.006129691473329713,-0.0034713090703164854,1.2578125
0.10590079867375203,-0.9208506653074938,-0.6711741997631695,3.093669105967337,0.1259033253763082,0.08569383326443518,0.07973683697188813,-0.5865608436147748,-1.4797146559858831,0.05734354518445463,0.2042557845337687,0.03040667161383589,-0.07805014792288913,-0.04767422870377814,1.265625
0.06978732076370599,-0.6082073963770852,-0.44319704945495986,2.044778673723982,0.08355932172771482,0.05610691517244795,0.05283738899123805,-0.3881356197124751,-0.9769925330259697,0.037870862815747246,0.13521751548861516,0.02008205474518367,-0.05157331352439452,-0.031317378605599994,1.2734375
-0.007583055360815811,0.06122711221572254,0.04588471336568899,-0.2056663340904126,-0.0075379937520842506,-0.0072291120115887736,-0.004878233624527086,0.038186360862568915,0.10025682427220683,-0.0038433665385668226,-0.012877566363995136,-0.002041851881839918,0.005298353663103454,0.003698486038827936,1.28125
-0.007477883111161043,0.060188465169959404,0.04511184693168161,-0.202019399112931,-0.00758812036638112,-0.007140996424277915,-0.004780164789112305,0.03804452959155654,0.09939204438453086,-0.0037906459319318134,-0.012783032139279634,-0.002002396863967391,0.005263038512666037,0.003645805967429861,1.2890625
0.027390146024186022,-0.24005308729488445,-0.17530393389284574,0.810279301405413,0.03333311736887824,0.02140618417777411,0.021219417849228147,-0.15388099103575464,-0.38600858121469545,0.01497953874397129,0.05379471653703376,0.00797808454007143,-0.020247834845925548,-0.012099223670570433,1.296875
0.02672649789126827,-0.23237174545238423,-0.17094122910777745,0.7872776878446374,0.0325398886422929,0.020885723272727592,0.020672326465123608,-0.15032812367546328,-0.3774320193744505,0.01458558611816584,0.052398906751210346,0.00779216539950364,-0.019653090879726727,-0.01175537067298484,1.3046875
0.009273815275895768,-0.08191418437864025,-0.06062861020273249,0.2793040885563008,0.012013023026547416,0.006633747034144456,0.0076383024206670425,-0.0541440370433899,-0.13476278175182685,0.005170202172264649,0.01902213782079281,0.002797990364185136,-0.006871513892800729,-0.003878334467429884,1.3125
-0.004857281236017891,0.03775096912919091,0.028569345212179194,-0.12926606143474237,-0.004615289662679567,-0.004918647464785172,-0.00287684807033344,0.023906406784192934,0.06219513485225315,-0.0024271230981910965,-0.007841304090068921,-0.0012591980661961232,0.0033886582271942245,0.002454298167969338,1.3203125
-0.02563222947107518,0.21608768782172988,0.1600031594497983,-0.7333786075094806,-0.029058426605471976,-0.021942259309480173,-0.018382377080557524,0.1384404509550593,0.35152928063910094,-0.013615211790004772,-0.04744773807249622,-0.007221136156987607,0.018629739896679445,0.011837512734412019,1.328125
-0.030887849427058457,0.26214631376273245,0.19340431821986326,-0.8878583203208091,-0.03522313317841994,-0.026264899445035506,-0.022337423719870055,0.16729582868406362,0.42465615237313564,-0.016452931602300158,-0.05750818412175894,-0.00872723384094964,0.02253962071141799,0.014242467695620039,1.3359375
-0.013072865822390398,0.10880905624441421,0.08080508647780163,-0.3697773563383296,-0.014231277349646215,-0.01167338131560595,-0.00905662239112022,0.0690574369556428,0.17663666742961306,-0.006850001846106575,-0.023471050835008875,-0.003620514042432976,0.009457624212767773,0.006192864195707444,1.34375
-0.028942119699988403,0.2465943842548865,0.18137511704513198,-0.8322255860299221,-0.03291292736442936,-0.024645801253118202,-0.02092489163650966,0.15654188142580996,0.3972404123646113,-0.015408413004154922,-0.05385151306678142,-0.008160168069290603,0.021155068661482927,0.013374720418229995,1.3515625
-0.08580561438208137,0.7394028280641406,0.5414265361391527,-2.48966922374143,-0.09989008169586926,-0.07120880643689617,-0.06342823603182327,0.4699681744503674,1.1882854092624526,-0.04607823379408478,-0.16270193478018521,-0.024437765132260703,0.06306350213839416,0.03912849268389178,1.359375
-0.08764303218420412,0.755722248952239,0.553066630309454,-2.5434404652014466,-0.10208170982312222,-0.07275004850298782,-0.06480155819494055,0.4800931386724553,1.2138953811659414,-0.047061131274128615,-0.16627231499420791,-0.02496280301040656,0.06444787834487403,0.03997246199739983,1.3671875
0.005921480735828402,-0.05484808242216369,-0.039362681513846656,0.18416306464686183,0.00811194112848337,0.0038398785080188116,0.005169800433548331,-0.035655044782578145,-0.08774987292577759,0.003428389636963518,0.012834806232759344,0.0018142911641033635,-0.004491001907681682,-0.0023998744147074712,1.375
0.09576768808576881,-0.8335317310658381,-0.6080665851862512,2.802301234721102,0.1139530430672053,0.07743322874046293,0.07235220352975036,-0.5308526380983472,-1.3377337799608402,0.05188993832469617,0.18489970722196192,0.027516102869931124,-0.07070231142596702,-0.043091365107091426,1.3828125
0.09045329978777761,-0.7871362129390743,-0.5738593125960484,2.6442894332464664,0.10767891270890496,0.07311707691803311,0.0682989976627723,-0.5013237759068989,-1.2639410378675144,0.04896984079421295,0.17470698135643947,0.025984780529019903,-0.06673211277799194,-0.04067060422062184,1.390625
0.024671681902241966,-0.21632433669085002,-0.15691560661464327,0.7250789001440007,0.030176714410289913,0.019250286367564054,0.01901340752727522,-0.1385578633539189,-0.3489309371092653,0.013438806443865133,0.04865395007625772,0.007166006046583504,-0.018192729395654954,-0.010865815661739602,1.3984375
-0.0047148643502939805,0.03831837519013586,0.028784229808110604,-0.1286578018087081,-0.004385512349785775,-0.004849303157576777,-0.0029248744284829644,0.02312210873340732,0.060116219142282025,-0.0023858529917855855,-0.007626282072646094,-0.0012295119694865936,0.003413061832612108,0.002435766539140253,1.40625
0.043111382620844234,-0.37694931685538124,-0.27474826617902176,1.2686876574617743,0.05199463426228603,0.03427361696414891,0.032950909859782204,-0.2409430590067669,-0.6046182800191346,0.023465309257013397,0.08400649801818698,0.012462273442160474,-0.03193323016829101,-0.019230131468275933,1.4140625
0.09171192317558854,-0.7982453953733647,-0.5826274551405979,2.6843424709532546,0.10916572213393802,0.07405777894051377,0.06930108700266617,-0.5087510015787469,-1.28051313529498,0.04967645653410589,0.17699450613017223,0.026375158939022713,-0.0677293645763794,-0.041227213570884665,1.421875
0.020438118238243985,-0.18013434346818777,-0.1313313464348651,0.6056606391920252,0.02513410467739355,0.015729684993978154,0.015974510475615017,-0.1155408106771215,-0.28954949131187185,0.011209500253861731,0.040423650526852435,0.005993943787307102,-0.015132773113651065,-0.008947962973357535,1.4296875
-0.13043421840574174,1.1265346681217152,0.8233827242419627,-3.7885693449260742,-0.15251396496141226,-0.1077632948626959,-0.09673895437375238,0.7159870866487249,1.8089300664958055,-0.07013237080343236,-0.2483252044913821,-0.037175185485794515,0.0959758843211386,0.05934257260293934,1.4375
-0.140540461065332,1.212517652745032,0.8871208593635396,-4.080652127993102,-0.16436328225970115,-0.1160460443465044,-0.10421414718211426,0.7714797507672666,1.9499640848452535,-0.07554507126117167,-0.2674699756718212,-0.040088517143253684,0.10330357404803077,0.06388728161969671,1.4453125
0.04473467509980234,-0.3929211173841203,-0.28496914976821464,1.3153048314279612,0.0537781915944498,0.035618220371704444,0.03415859257189276,-0.24946723506640053,-0.627426230345221,0.024341353655506458,0.08724226557098537,0.012908024153173506,-0.03315483322845591,-0.020008000694277547,1.453125
0.14859885154853522,-1.291468015321176,-0.9417905669953572,4.3385517876670185,0.1761162478712964,0.1206858240238034,0.11164335688359805,-0.821712233045575,-2.0735561647687475,0.0803079777995453,0.28602635243023955,0.04263819124191176,-0.10956212674820734,-0.06702891242925337,1.4609375
-0.011774709619761025,0.09828832739028906,0.07261388715516195,-0.330901057140128,-0.012521379859309081,-0.01054133260351611,-0.008113528840746372,0.06172722901242264,0.15655486459460297,-0.006142187467551512,-0.020857802480904054,-0.0032300385422847533,0.008501715759220456,0.005577046266926966,1.46875
-0.1937622911780543,1.674199565473762,1.2235413613732757,-5.62797254714437,-0.2266837860687955,-0.15952340649367222,-0.143902501815142,1.0642129882634612,2.689334613656095,-0.10422110216783723,-0.36915685049834573,-0.05530287890654494,0.14239145036723688,0.08797452815632867,1.4765625
-0.12923952402313946,1.1159190014275364,0.8155757045913713,-3.749748991912528,-0.15088574048139405,-0.10675726765122488,-0.0956810489364949,0.7089115977259238,1.7934997185827235,-0.06945338190262164,-0.24588624415057952,-0.036857935996972305,0.09491864917592135,0.05879580647706192,1.484375
0.0428822244858512,-0.373432019738884,-0.27270990739327217,1.2581533009747872,0.05149354508738136,0.03411714360868264,0.03276337734303316,-0.2389550601057826,-0.6007118033491651,0.023284926508948336,0.08332123381709013,0.012377031527144334,-0.03161905552520797,-0.019091808457792934,1.4921875
0.07959441361249694,-0.6916042025419117,-0.504819903223852,2.3248036383006982,0.09461959930971728,0.06416266157730595,0.06010215960727914,-0.44103168037032975,-1.1123547029850982,0.0430682422147617,0.15365679541142888,0.02287538210354212,-0.058545702060377396,-0.03571427173617302,1.5
0.042412265531184844,-0.37132676269241305,-0.2698022905108799,1.2436001014761908,0.05091867719122061,0.03367730348287079,0.03233124423021566,-0.2363890792316427,-0.5953633622045863,0.023066328360308867,0.08266501449140422,0.012235722708257488,-0.03124553713194561,-0.018908711472919924,1.5078125
0.07090419219876545,-0.6188393903462988,-0.45006574738177524,2.074596538557376,0.08456475707623437,0.056948728384718664,0.05360765006034535,-0.39371356433252375,-0.9911163753298138,0.03844731189263121,0.13719973663259002,0.020392335694720418,-0.052328149117528394,-0.031809438848186766,1.515625
0.09036086712639395,-0.786935199512096,-0.5732437751234017,2.640367050481303,0.1075509616647579,0.0729021507658748,0.06813717795013867,-0.5011177052760281,-1.2614440349419433,0.048906818265953944,0.1744262305916151,0.025966154151813605,-0.06670694322250349,-0.04059623111666817,1.5234375
0.035375215267196246,-0.3108264534866169,-0.22577833698992067,1.0395388855452887,0.04286304972364121,0.027973298806800575,0.027112991907017284,-0.19812120974252467,-0.496863741470495,0.019230611889127218,0.0693161002140775,0.010239467794872538,-0.026263614867220588,-0.015710869448894233,1.53125
0.012503440700406604,-0.11283766248298596,-0.08119375839454154,0.37595722005001597,0.015918511091375907,0.009311963740643367,0.010063008551043537,-0.07187387739312319,-0.17931989999757053,0.006906679753256121,0.025590129253865095,0.003704741931457656,-0.009420683945123447,-0.005396831498576087,1.5390625
0.029708483808937154,-0.26080503379756775,-0.1897765344974441,0.8780940892017347,0.03613047471305484,0.02343337420771482,0.022905607953916968,-0.1664990252695023,-0.41930944495889344,0.016228288014060344,0.058369983963103174,0.008641859562289928,-0.02201045435761101,-0.01320639073372974,1.546875
-0.054507778978823876,0.469270609570608,0.34288934025462664,-1.5752538577152062,-0.06300889269026867,-0.04547561941029021,-0.0399605063985814,0.2974722491611837,0.7517603895936807,-0.02911777099242938,-0.1029124665021515,-0.015446118525110231,0.040042737820999465,0.02493032320823782,1.5546875
-0.18336767304560916,1.584514663791014,1.1577346544630647,-5.32778336238672,-0.2146758137390374,-0.15097802432893448,-0.1361354617046539,1.0073869352634537,2.5442569690784196,-0.09857187099289193,-0.3494786671382372,-0.052323469475236396,0.13487204367926367,0.08326886043149836,1.5625
-0.13133609738169574,1.1334365982975667,0.8288582214068756,-3.811597948194449,-0.15341943125964655,-0.10845660714631732,-0.0972973503262994,0.7207385183404261,1.8207400387326649,-0.07056948529401144,-0.24986768465842782,-0.037452394122424244,0.09652794193867069,0.05970234305497369,1.5703125
0.0516262408957091,-0.4502695015770412,-0.3279737917315795,1.5157478176646233,0.06194683051888151,0.04126481795375898,0.039246524680868776,-0.2873584247910398,-0.7238539650765758,0.027999156390409063,0.10025352861828377,0.014886687781194332,-0.038143053089676755,-0.023112147862011774,1.578125
0.08698177146585576,-0.7560024502752118,-0.5516444711084213,2.5429262584609442,0.1035374189641728,0.07019093645994935,0.06560568354659935,-0.482281857091906,-1.2148936937701353,0.047026020614602655,0.16792029105954645,0.025001837386109723,-0.06414237152831936,-0.03907341063501331,1.5859375
-0.0222413201784101,0.18940562818532292,0.13905168875782895,-0.6394945372345845,-0.025077068473963047,-0.019267633200343894,-0.01594691029696549,0.11947147535239468,0.3050442081625239,-0.011859832822705987,-0.04111587097609618,-0.006247566431277888,0.016270646970412524,0.010408527989993432,1.59375
-0.011802354878379481,0.09878950982755666,0.07321219053570167,-0.33516655449578464,-0.012771183443648308,-0.010787119158657432,-0.00814822235112733,0.061952767125271244,0.15976879985803058,-0.006216133759379506,-0.021188406027697136,-0.0032606427037100176,0.008589446532989991,0.005685851119895891,1.6015625
0.12085532947542403,-1.0502395360963743,-0.7660572864910253,3.530731305879063,0.14349582987520018,0.09782839558495005,0.09095389294256576,-0.6691633640862668,-1.6859494663200651,0.06535903878099009,0.23275754177197913,0.03469880784879042,-0.08910910188288824,-0.05439713623743023,1.609375
0.11014060780378658,-0.9585678409519386,-0.6991401969874873,3.2228877292688676,0.13095638017270364,0.08915330949848825,0.0830650391651194,-0.6103387204547321,-1.5372189060958987,0.05966665814555612,0.21242976207388672,0.031642437437668175,-0.08131909502126485,-0.04959737339725472,1.6171875
-0.06327007311711155,0.5425085475236109,0.39749652773494215,-1.8252074403535308,-0.07323733851359383,-0.0527539852779016,-0.04638166830416111,0.34532773002236233,0.8744235959984585,-0.03379438786472997,-0.11944265925264669,-0.01796717232965843,0.04630540890831821,0.028860383999937893,1.625
-0.12972110028796077,1.1190160051222622,0.8187992001449903,-3.763484942225437,-0.15155475529155413,-0.10716471033571669,-0.09612411401562439,0.7119270778157096,1.7980506533911846,-0.06967954386157679,-0.24680112305404295,-0.03698708033889334,0.09531468048773059,0.05893905586937062,1.6328125
-0.014543836171650023,0.12252985918356692,0.09099561464645821,-0.41454285282854825,-0.01599845256757566,-0.012852297634172909,-0.010257221241457547,0.07750415341456479,0.19609348978012117,-0.007661214025461391,-0.02638193851276022,-0.004051524042355194,0.010612611590053021,0.006835419225983866,1.640625
0.06377083676011262,-0.5561578504182745,-0.40474303945259665,1.8627485836181132,0.07613303783489493,0.05132888105494584,0.048221530996141154,-0.3540493426417076,-0.8919985408577549,0.03452430823364944,0.12368769512530756,0.01833711157791865,-0.047028067988729445,-0.02857323250542428,1.6484375
0.004603909005941061,-0.04380488139038714,-0.030783152790459227,0.13768502607975708,0.006335268119282178,0.0029110095682820998,0.004098023429167384,-0.027876936041623626,-0.06815600588860428,0.0026152745646893937,0.010433026594011926,0.0014008332247389466,-0.0034273491982715447,-0.0017541955730851053,1.65625
-0.039129707064084515,0.33624584830917686,0.24614611559966454,-1.1367711893869337,-0.045209800711664465,-0.032940528685337055,-0.028548719941775453,0.21334517345409212,0.5396484153319828,-0.020950566030544945,-0.07354093139879113,-0.011100335319699717,0.028856466932507364,0.01806193260411697,1.6640625
0.016435500620697045,-0.1447266157299512,-0.10572664264122243,0.4853993320613872,0.020352052014812917,0.012506880769590445,0.012979777679578001,-0.09306513995108305,-0.2341210128826634,0.009061489933040512,0.03271291161686833,0.004831464509804293,-0.01209225731059683,-0.007113727129635973,1.671875
0.04354354460322436,-0.3812632273386299,-0.2784695651957088,1.2834862002507572,0.05249957322760912,0.034681954803263526,0.03333441418146153,-0.24318396738049103,-0.6115446445472632,0.02373401666214098,0.08482549789941436,0.01262557903165948,-0.032257868798056734,-0.019446757291128082,1.6796875
-0.03437444916909474,0.2926155404240789,0.21410429965471425,-0.980062797057034,-0.039058101301256594,-0.029144833817596638,-0.024794698523446883,0.18553854074029424,0.4719372255602663,-0.01827935361559703,-0.06412584697170012,-0.009656906172536648,0.024948838832316328,0.015780498974673537,1.6875
-0.08189328572324481,0.7055569318200389,0.515984955769622,-2.3657798068402203,-0.09492601095982224,-0.06809531108306216,-0.06036284536056926,0.44737256456683233,1.13258057022396,-0.04394886159918027,-0.15517699907271854,-0.023276557874268463,0.05996531143323009,0.03730091554861119,1.6953125
0.01622628748382758,-0.14300492679870386,-0.10357243035109182,0.4875029907043649,0.020515877177753643,0.012224033627906588,0.01280965150353666,-0.0927683036256552,-0.2316418745312304,0.008918937170179499,0.03244311848814716,0.004766736017103776,-0.012168921746395903,-0.0070899704287596755,1.703125
0.13047760268930728,-1.1332109930929177,-0.826399598599977,3.812809313589411,0.15480809627294506,0.10578435022664003,0.09811376755640899,-0.7217481698603166,-1.8196155661179838,0.07051134291386453,0.25108687268017815,0.03744283811586005,-0.09623288846535641,-0.05880387797254622,1.7109375
0.07641307312277465,-0.665768358426155,-0.4845923581073568,2.2355236469029514,0.09100114588900732,0.06154424151427272,0.05772904341829135,-0.423682046673333,-1.0672246653625288,0.04136840246628947,0.14769293500756223,0.021968482836677808,-0.05638267802297833,-0.03431307249202325,1.71875
-0.070962960026239,0.6110978381786214,0.4480214356285201,-2.0618373253875526,-0.08248851546741522,-0.05909260888254932,-0.052389396897010165,0.38816886058963274,0.9821514311841578,-0.03805767380851178,-0.1342989922683551,-0.020208916457710592,0.05221790942548846,0.032452629562662476,1.7265625
-0.08730787114271356,0.7527132913544707,0.5511582844011915,-2.5400876280148865,-0.101734786889774,-0.0724513774557112,-0.06459869757437728,0.4781507300135312,1.209371169651947,-0.046820610794124945,-0.16554177796740188,-0.024887955696379582,0.06431976130721226,0.03988051496299079,1.734375
0.019346905158424327,-0.17233803572126163,-0.12469133276650754,0.5706454312691744,0.023708362619278223,0.014872272560988636,0.01516429021119185,-0.1092939860864245,-0.27368331827840775,0.010694318098250348,0.0386057635041904,0.00564339687462291,-0.014253978431999225,-0.008440358383785956,1.7421875
0.023747890364261323,-0.2109380326634763,-0.1529882188482469,0.7045318476861422,0.028910031386301365,0.018462631504666392,0.018546696608775348,-0.13347557907031454,-0.33516378076190473,0.01302579776731062,0.04702133983536135,0.006917457893743158,-0.017605566731170367,-0.010487098350138196,1.75
-0.10520570613129522,0.9077719185604165,0.6637122443841997,-3.0504310950180216,-0.12262710655766583,-0.08710484474061787,-0.07779393397329137,0.5767119038145387,1.4571955777378516,-0.05653711971204684,-0.19983766173886552,-0.029977717082193336,0.07728544361311372,0.04788386734643749,1.7578125
-0.1365159606156974,1.1807288157239393,0.8624817332369163,-3.963896600234849,-0.15928157728163445,-0.11270655069833323,-0.10125177839106196,0.7489162471098714,1.8916407172329293,-0.07341381799890452,-0.25983200088300507,-0.03893193230508202,0.10035039375185324,0.062070188124625864,1.765625
0.012386299072005415,-0.10979946296439184,-0.08015646449759956,0.37382638766113097,0.015913139894860293,0.009208070409397388,0.00996476486384137,-0.07147765181037127,-0.1792425790913291,0.006879636247042193,0.02515814254463871,0.0036871970556837715,-0.009297180275963001,-0.005356376195792959,1.7734375
0.13371336980881657,-1.1627936339060816,-0.8484632813551902,3.9082103551301275,0.1585299923318185,0.1085088521180123,0.10061760998125222,-0.7397939885590993,-1.8654710937190018,0.07227739553288284,0.2574534776636799,0.03839991737190754,-0.09867147888279858,-0.06029377485826222,1.78125
0.09284756754941484,-0.8095522878912119,-0.5896477281987461,2.7142113366198233,0.11030242948774353,0.0750419851766677,0.07006319344112717,-0.5144493300631673,-1.2956417916749194,0.05022081893292451,0.17926628846892276,0.026679723952653493,-0.0685607424492217,-0.041757084652811485,1.7890625
0.019677822909069043,-0.1751603809816477,-0.12633327543267303,0.5793236748297508,0.02412457131134701,0.015172944528760801,0.01536732290617255,-0.11107098829783264,-0.2775032197916705,0.010783254973005602,0.03912525344841271,0.005731405095896259,-0.014612823308964976,-0.008597931672933445,1.796875
0.03790337816531304,-0.33265503310803535,-0.24198422034672262,1.1126361838182544,0.04562733768701336,0.030102133809238183,0.02901974594499489,-0.21150278404835776,-0.531700455666522,0.020655783972370497,0.07392660118919335,0.010971582009085996,-0.028031005839760963,-0.016866072425909186,1.8046875
0.07606718664814216,-0.6630600348659926,-0.4836043018587842,2.2289862658615376,0.09072158296658998,0.06127203850646575,0.057587606677476116,-0.42222912880386265,-1.0630977424801478,0.04125915578883736,0.14701399065175524,0.02191225081188104,-0.05619814415898414,-0.03416098957739081,1.8125
0.041484770468032985,-0.36274310504913837,-0.26406531202146005,1.2217578551950712,0.050146225686316596,0.03287502059006865,0.03173352546143397,-0.23206038923227124,-0.581870953368586,0.02258733068655691,0.08088938293259759,0.011998871667430104,-0.030735617557582345,-0.018478469207759512,1.8203125
-0.03203380771208091,0.2749299692144498,0.2016708057327657,-0.9212410528338852,-0.03641172694554603,-0.027300788075724256,-0.02323290268406535,0.17317739350540198,0.44048225104408706,-0.017092678258610123,-0.059816184904149666,-0.009057617796612584,0.023467178145158262,0.014812385489057658,1.828125
-0.08009332123588554,0.6913563980750671,0.5053149829800405,-2.3183550639109622,-0.09300385590822674,-0.06655067814792286,-0.05910098268462988,0.4382604980775596,1.1074787006455051,-0.04300096317440777,-0.15176698736128685,-0.02279290730744936,0.05887023360004881,0.03651449457305948,1.8359375
-0.09765486870145008,0.8431293772499241,0.6159011837697327,-2.8274518124731047,-0.1136330865715542,-0.08085962416591189,-0.07216047850605997,0.534988072829507,1.3508153670255667,-0.052429528608316456,-0.18530431024731728,-0.027799160515246744,0.07176478298053506,0.04442911692291001,1.84375
-0.09341205240191776,0.8058911233625858,0.5893509964188193,-2.7090539229612944,-0.10872976171980425,-0.0773976522609571,-0.06902921278508128,0.5116381091675294,1.293116574865682,-0.05013233037024257,-0.17719913437761045,-0.026606924221843634,0.06866974426712127,0.04256125816187054,1.8515625
-0.06114471332265248,0.5257793256831369,0.38574540370211186,-1.7771721604111859,-0.07100100035537936,-0.05102557390841229,-0.045039580370784836,0.3342688006646422,0.8462455417199964,-0.032779538097370865,-0.11556305153062552,-0.017407679819489097,0.04500002891021868,0.02802123793663307,1.859375
-0.021819264991796112,0.18496399226798008,0.13702524767455693,-0.6328007979532714,-0.024823454468677307,-0.01884812778015196,-0.015730797828608277,0.11792849827203046,0.29920101484024186,-0.011622225369907967,-0.040376523276047536,-0.006152376595763673,0.01607085610131784,0.010207776072722795,1.8671875
-0.015279346737973624,0.12887210979088368,0.09542331013821453,-0.4370176140564003,-0.016953905443455486,-0.0134776846523107,-0.010808849794009909,0.08167227824520086,0.20664809386072103,-0.008086652331630462,-0.027829732993010663,-0.004253531962490919,0.011175014614216276,0.007188461638934542,1.875
-0.02399538816109905,0.2045348691916824,0.15014316821596674,-0.6863478093744618,-0.026999621304638594,-0.020602302025731708,-0.017213095440968364,0.12915141423386545,0.3272233100360475,-0.012730668031921771,-0.044434231193062654,-0.006733599519889475,0.017469015417500212,0.011105433989957,1.8828125
0.0256429238498831,-0.2264904949035252,-0.16462046221791324,0.7609341887890552,0.031468903567259655,0.020006979752065154,0.01996161170468784,-0.1447354616974853,-0.362421989673887,0.01407814031820881,0.05064768019898439,0.007469184430195756,-0.01916427251579125,-0.01135715321861555,1.890625
0.139058158621132,-1.2099558852631074,-0.8826479875912936,4.064299743638866,0.16489839823924662,0.11281258657746475,0.10468439070872183,-0.7696534439065089,-1.9392035493658473,0.07522815848021411,0.2677558949795859,0.03992417143454322,-0.10266194728488741,-0.06268793085435163,1.8984375
0.19389923490908145,-1.6847243876283757,-1.2293618907967194,5.660682431272593,0.22939667852351942,0.15770655416909463,0.14558375907689747,-1.0715257483848313,-2.701906107642155,0.10477195485886819,0.37265428247321647,0.055619882952790606,-0.14296246964488388,-0.08750703474971991,1.90625
0.09744262522788064,-0.8482893326701021,-0.6186957126350711,2.850189938564443,0.1158300522745322,0.07877756993808571,0.07351626156598401,-0.5397722609480757,-1.3600273115877541,0.0527544563091543,0.18791126880098064,0.02801626984280487,-0.07189214306279022,-0.04382797874886623,1.9140625
-0.04661381455383253,0.3999746190791628,0.2927211336442826,-1.3465093799940682,-0.05377756369940836,-0.03914722325351604,-0.03405080597628698,0.25394758698731573,0.6442997047918512,-0.024916780511508252,-0.08785521791849182,-0.013213224639025991,0.03418120179097833,0.0214111778356357,1.921875
-0.06569317800787206,0.5654603829077516,0.41362416237939115,-1.904816599316171,-0.07629020893855068,-0.054798233485010193,-0.04834539860228313,0.35894027433298537,0.9098056570234188,-0.035227034556437734,-0.12429626393711261,-0.018687163946737147,0.04828584929112564,0.030077285094211467,1.9296875
0.02141318748554392,-0.1884858401424827,-0.13670682808850962,0.6288962413851525,0.02622357814718518,0.01651576709870495,0.0165936022989093,-0.120889731812865,-0.3025939102985755,0.011697996047468129,0.04250751275860699,0.00622174889129795,-0.015752352939613443,-0.009352528885708518,1.9375
0.03737592842421122,-0.3263377429164593,-0.2373022192280709,1.095597165068148,0.045093360575490446,0.029654730318104804,0.028513342170145593,-0.2086426376941618,-0.5256568329664827,0.020302040457994934,0.07307556988618842,0.010790343687401604,-0.027525115870008922,-0.01662551025212697,1.9453125
-0.0736539619071294,0.6349806853446943,0.46448191591148486,-2.1303544747211096,-0.085445524701346,-0.061171975384544816,-0.05423580301693283,0.40299260038883994,1.0182429732341092,-0.03950507943336196,-0.13943361881586558,-0.020955086420683163,0.05405700785871283,0.03356942765997892,1.953125
-0.17143960825431784,1.4811807087110342,1.0823342090115164,-4.9728960180660975,-0.2004376908765319,-0.14121022119552962,-0.12713172585771207,0.9414731931525325,2.378222889811816,-0.09217138901751924,-0.32655616579567287,-0.04890979708006687,0.12592355764629332,0.07780323871756765,1.9609375
-0.13991823026744685,1.2080133253254357,0.8830395372221764,-4.057732718500721,-0.16334029172106293,-0.11541519664129612,-0.10366556764700557,0.7677668692180604,1.9392713301505078,-0.07519450981338309,-0.2661899773250396,-0.039886273263479786,0.10274863273887397,0.06354860136267614,1.96875
-0.029585416857284427,0.25307481787402886,0.18569425223336283,-0.8507970706599309,-0.033565954913921565,-0.025116845003229825,-0.021437238170045586,0.16007333880821886,0.4042507691156328,-0.01579149949585686,-0.05505520855517923,-0.008327989997800378,0.021632300854072885,0.013638549882138315,1.9765625
0.05037508919325804,-0.4389434295657301,-0.3198636917243131,1.4748630674126122,0.06042891874597296,0.0402547183619865,0.03820086596658579,-0.2804081903123123,-0.7070808213737991,0.027260922722518968,0.09786798483576364,0.014539964687380025,-0.037159477139553726,-0.022515813002958504,1.984375
0.06563305476227742,-0.5715137783900411,-0.4165214035809335,1.919182464401321,0.07831139685903646,0.05261908500890325,0.049622818917671806,-0.36461733153619946,-0.9177139788779518,0.03551780389748832,0.12696071450355592,0.018899841095654044,-0.04837822587621708,-0.02938140115871204,1.9921875
0.04818600247013078,-0.4211971231931186,-0.3062787283504439,1.410816877826324,0.05780427983437166,0.03828878468111343,0.036629198001016106,-0.2686323275182329,-0.67455157595129,0.026191137921775662,0.09356288115975679,0.013905137123961017,-0.035554722872789234,-0.02146780082509486,2.0
0.027543139609052837,-0.24273646158436676,-0.17579161629689657,0.8096429573532868,0.03359131883494306,0.02145663016447553,0.02123150088979129,-0.15491704957546928,-0.38831169410935473,0.015110942763109156,0.054150621855263606,0.007997772049418246,-0.020390466769904476,-0.012146790019328611,2.0078125
0.007095953960143419,-0.0659226638478222,-0.04678011995027067,0.21659926584712696,0.009549372593002129,0.0047847406106450285,0.006009578850892056,-0.04223053942606262,-0.1042348208470493,0.0040923981435363925,0.015122106659527373,0.002146807802062412,-0.0053765908128135444,-0.0029252365108428167,2.015625
-0.013493466821487705,0.11167223353049031,0.08295165890343999,-0.3795758039075677,-0.014735831434685494,-0.01207686088276904,-0.0092812356938219,0.07121872685849148,0.18343630901164484,-0.007010580129488618,-0.024241288600687708,-0.00374552750526588,0.009735588242672148,0.006388752651041469,2.0234375
-0.011886672194829225,0.0976086427976002,0.07257142614285857,-0.332721175873211,-0.012916093316132624,-0.010757076621253353,-0.008036036892018851,0.06245297617411959,0.16247530539182659,-0.006157809898757822,-0.02119889999103956,-0.00328981045643449,0.008546491337715054,0.0056856505215721964,2.03125
0.04042522037078747,-0.3541487682607751,-0.2578877297525809,1.1862697007052427,0.048556852392228345,0.03215216608797402,0.0309635003757339,-0.22543240073616555,-0.565425049275921,0.021995445780031993,0.07882628028004217,0.011668712879636776,-0.02986843770907781,-0.017976062259644765,2.0390625
0.11412243286033825,-0.9910773799850999,-0.7232801822357331,3.3287787847048325,0.13519153546617405,0.09256648977986054,0.08588013947679182,-0.6310387274914094,-1.5921324214014672,0.0616785032185276,0.21979074728973613,0.032747355109579684,-0.08399169287073335,-0.05136134573446703,2.046875
0.11799431908168916,-1.0249740133379655,-0.7475260818840574,3.4440173269095,0.1397827445845931,0.09573684218219274,0.08874711386243335,-0.6523408487710358,-1.6474368663355947,0.06378026167052236,0.22724898791301232,0.03386260374611924,-0.0868567692367203,-0.05317445515133836,2.0546875
0.020245855865132743,-0.17965458820746513,-0.1299030056470043,0.6037851789567993,0.024977061920080725,0.015692430520355415,0.01585325746988357,-0.11436051517294496,-0.2883156210211399,0.01113658797760644,0.040346794325284395,0.0059190616062741,-0.01508269777771917,-0.008967982322091382,2.0625
-0.07707694862562475,0.6630937570219919,0.48486356761557,-2.227103175819147,-0.08931262860927558,-0.06397463300382525,-0.056739380421301444,0.4212167084470871,1.065438978647062,-0.04132488417541491,-0.1458106786898635,-0.021902307628688677,0.05641662653541103,0.03510250870179534,2.0703125
-0.08008364068491881,0.6901622225111996,0.5038810273712706,-2.3160176343030336,-0.09278370120003346,-0.06646744974608272,-0.05901957433795122,0.4376473721635357,1.1071873924105111,-0.04300138112915286,-0.1516545014933878,-0.02275183199072456,0.05866068037913156,0.03650477089635616,2.078125
-0.05567396221163225,0.47940293254669397,0.35017293549571055,-1.60665579485018,-0.06411211626078203,-0.046580893816851626,-0.040856186430083305,0.3032916187106908,0.767427492788516,-0.029873847751374593,-0.10506017851312405,-0.015769758711513437,0.04077600935170779,0.025472446515268532,2.0859375
-0.09918218161980248,0.8558720523078165,0.6257657149412698,-2.873257766481935,-0.11535096311532181,-0.08226180231967767,-0.07332896861698614,0.5429495675943917,1.3728657479485529,-0.053281813165386625,-0.18830674037449122,-0.02822676405447028,0.0728050024167947,0.04516633745902843,2.09375
-0.1289199435928738,1.1128836604836316,0.8137104273697097,-3.7401997466100165,-0.1503967645192492,-0.10659990735995581,-0.09550088891110403,0.7067732236906985,1.787578851237433,-0.06925226997662527,-0.24518170137628262,-0.03674823600798663,0.09468888514819393,0.058647043891696365,2.1015625
-0.021800684181237668,0.1852055906716665,0.13630559598723663,-0.625343786578924,-0.024494703479099673,-0.018924581702710542,-0.01558221892287058,0.11704672366862835,0.29872452705525016,-0.011529574476209606,-0.04030546081041275,-0.006118275443203634,0.015941264576449208,0.01019763042199234,2.109375
0.117516366937508,-1.0207369284073344,-0.7440272241952691,3.4260462344872527,0.13925795346179687,0.0950793892808566,0.08831395061818992,-0.6499008797679583,-1.638856196912609,0.06348320932782815,0.2261548160763515,0.03371771202117221,-0.08645685097541954,-0.05284038605481827,2.1171875
0.08309633758384974,-0.722022504478964,-0.5256343220771716,2.4213400998311103,0.09867592288939961,0.06695362072781648,0.0625720228305283,-0.46011176013554994,-1.1605094383994927,0.0449003857691147,0.1603135460908087,0.023848666877895282,-0.061067788239286845,-0.037266466663106894,2.125
-0.07807369978629758,0.6736365163863848,0.4932708004619025,-2.2692597889065436,-0.09093225411140872,-0.06483276913496676,-0.0576689687687268,0.42759193890611125,1.0810367783146848,-0.04188822528297105,-0.14798845851405973,-0.022260718027754717,0.05748933622394113,0.0356560391843304,2.1328125
-0.11264915074953785,0.9718993543418852,0.7106573763427452,-3.2707700676885345,-0.13156320768147384,-0.0930591123924559,-0.0833526530832318,0.6179591041269819,1.5621477424115338,-0.06042081917928411,-0.21411584995018243,-0.03212355060370137,0.08282776256783977,0.051266381306214484,2.140625
0.04459934119279852,-0.3914396530025726,-0.28483316267184655,1.3115207815529921,0.05349337512035391,0.03560085750644343,0.03410673232444128,-0.2483701854971472,-0.6248090095446895,0.02434436850057818,0.08683533366510479,0.01289020842232046,-0.032986166129048984,-0.019935388480895776,2.1484375
0.17746757610059308,-1.5428775750911214,-1.125299994932809,5.180548911328057,0.20990074707358708,0.14428694360505862,0.1332841059886706,-0.9806446851287398,-2.4729028865938605,0.0958980394908573,0.34124831198180483,0.050901442970943185,-0.1308204305164943,-0.08007483274133724,2.15625
0.11966719756009558,-1.0418689784190298,-0.7595298929316584,3.4977952667214653,0.14200557680753523,0.09697157236675498,0.09010164508750752,-0.6625972426475367,-1.669431719331665,0.06470429313013082,0.23073398575627252,0.034360055998551,-0.08831877038901834,-0.05391126980303414,2.1640625
-0.020375664310595353,0.17195098521825355,0.1263195755069537,-0.577778643094996,-0.022708328486103983,-0.01763089569830598,-0.014449183123841847,0.10894375322946835,0.2775859205709837,-0.010791662981208597,-0.03737830866395923,-0.005690027003141197,0.014714725141180928,0.009455725567461836,2.171875
-0.040555175948205374,0.34726454170988874,0.25410066831047157,-1.1648267091657687,-0.04646286381501518,-0.0341299160715998,-0.029500809838692944,0.22042781107606066,0.5577456940613799,-0.02169001924251041,-0.07611351410992474,-0.011452349465576762,0.02956578832733552,0.018577011540299695,2.1796875
0.06236828193554584,-0.5441740145937247,-0.39661907750102016,1.8293031293661892,0.07465958624029206,0.050118013795231495,0.04733411240091809,-0.34661736389754777,-0.8736241697409116,0.03379449307327331,0.12092596626667265,0.017978530806887025,-0.04613619204784942,-0.027982558317607053,2.1875
0.09875535728315911,-0.8591201192806039,-0.6264903755690978,2.886829986419425,0.11755634027223191,0.07985608157591312,0.07446801127706779,-0.5474624931692444,-1.379458594178387,0.05346698585553568,0.19060842091509564,0.028376594463466184,-0.07285361531927442,-0.04441312519381335,2.1953125
-0.023945748941048547,0.204518545407819,0.14999056588685475,-0.6854580894905502,-0.026808594951357043,-0.020663821432272692,-0.017188443633508303,0.12840103808878345,0.3271683928545908,-0.012652084742253933,-0.0443825950464985,-0.006719187996271052,0.017499732385593342,0.011145065763177038,2.203125
-0.1577993093018639,1.3647001551523537,0.9971495092065377,-4.584255062477357,-0.18444395895718027,-0.1302552540792312,-0.11716558957580908,0.8661442780960973,2.1893005005724464,-0.08487928628191459,-0.30068721697319006,-0.045019460863937204,0.11605811041029344,0.07174928336637103,2.2109375
-0.14664331602220296,1.267994889192921,0.9267440927126871,-4.263155187976506,-0.17146738839285044,-0.12104880481568259,-0.1088358281605185,0.8049522821149736,2.0349333925151067,-0.07893001657992567,-0.2792201505323863,-0.041856906617600186,0.10789786808019806,0.06672470865541155,2.21875
-0.05809406371647817,0.500374867052036,0.3661025057822462,-1.685137139704778,-0.06731043940329606,-0.04848256689007636,-0.04267347034379762,0.31713942265743095,0.8032738858633617,-0.031153087563237793,-0.10961778541537272,-0.01652678389775478,0.042748550926598385,0.026635104701580793,2.2265625
-0.031025520346602817,0.26541836572565464,0.19421574196492133,-0.892693686752454,-0.03544878404334449,-0.026312437088322704,-0.02242160799313812,0.1681452468212245,0.42566017871901257,-0.016492461519216246,-0.05789661847049473,-0.008745893801735589,0.022792961840903802,0.014324924110528079,2.234375
-0.03808170986332843,0.3261162574829545,0.23883829072619728,-1.0958724238573259,-0.04379251153772604,-0.03211184869897037,-0.02771517140868686,0.20735284280103905,0.523203968015148,-0.020315524593174768,-0.071519059864085,-0.010745422752247028,0.027930672252386782,0.01746921770855443,2.2421875
0.012020448577897852,-0.10843346786952038,-0.07764763350371214,0.3607657606615216,0.01512525027253716,0.00888292432313402,0.00963526029691913,-0.06853941876041822,-0.1729526707015096,0.006632429100489744,0.024420060674324118,0.003564241800024824,-0.008978551888388281,-0.005206379291040677,2.25
0.07747868675601473,-0.6757491394942664,-0.49165562125744283,2.265206078852995,0.09219599378863622,0.06243577549533051,0.058505923066215285,-0.42940588134620833,-1.082547383867835,0.04191598726006438,0.14977560839938978,0.022272237269500634,-0.057173746218633435,-0.03480675010015143,2.2578125
0.07555911305399918,-0.6588855621905328,-0.4799252434382964,2.210793204853334,0.09001853364370875,0.06082416346014373,0.05712995732957522,-0.41914899608713696,-1.0556756027465157,0.04092135204751101,0.1460603678972817,0.021736603581254278,-0.055782929448252264,-0.03391817614076398,2.265625
0.04465185744415546,-0.39074835747096287,-0.28457511388420587,1.3122584447180692,0.053717825976005315,0.03551361711197811,0.034093625320459876,-0.24910002631658532,-0.6259095748652541,0.02429200930502019,0.08687843028525925,0.012907019002136151,-0.03305421937315047,-0.019922103993619423,2.2734375
0.054613202384124225,-0.4768153656487955,-0.34724384002397146,1.6030364683857274,0.06553817665667075,0.04369214823560574,0.04152643266630333,-0.3042302660395166,-0.7647825688862837,0.029699377968763745,0.10603574647757523,0.015749869502175298,-0.04039553200280045,-0.02444422625462341,2.28125
0.06840782872619583,-0.5962937134306915,-0.4342643520247171,2.0060589482394073,0.08185703509002894,0.0550232894628138,0.05182138426307252,-0.38039230587140965,-0.9572391243777805,0.03717648267633897,0.1325376688835089,0.019689765601473935,-0.050552332033308583,-0.030717128179920016,2.2890625
0.023251264976189633,-0.205374329296025,-0.14889026041848394,0.6903352651953067,0.028640463138439563,0.018113219750397744,0.018110564975740963,-0.13141501698952857,-0.3290803207594056,0.012817744723447867,0.04613233235272253,0.0067685240727188255,-0.01729522155839677,-0.010276657511224136,2.296875
-0.04126722619777308,0.3531119213119371,0.25886081925412535,-1.1931030553753403,-0.047477537530386145,-0.03466472869223585,-0.030083497016254544,0.2243702591071786,0.5694917367993245,-0.022032307312975452,-0.07735116430276166,-0.011700068684663535,0.030246577397987716,0.01898248096405353,2.3046875
-0.049073240255359446,0.4207301187702294,0.3082590218094241,-1.4230955689349611,-0.05669748094655889,-0.04110920856435214,-0.035942867591256145,0.2673167538910851,0.6788024678686896,-0.026279015125405147,-0.0922984461953185,-0.01393812943670849,0.03602092629355105,0.022565308556152075,2.3125
-0.02994841828335725,0.2556575365938441,0.1875479066688298,-0.8622691943991085,-0.03401937076486659,-0.025566713981833078,-0.02165034025575421,0.161630617689716,0.41186603826590196,-0.015962377511352616,-0.055769954056684716,-0.00845017666865916,0.021898159752107755,0.013888008980171425,2.3203125
-0.07174965268725977,0.61827917935701,0.4521167014023432,-2.0750147683905613,-0.08314105370034812,-0.05981527659655801,-0.05283045302034627,0.39203425614948073,0.991995907376583,-0.03851612371502111,-0.13588133924655685,-0.02039277726969065,0.05261679817195589,0.03275600177863864,2.328125
-0.12598621473684818,1.088090617419989,0.7952636192123854,-3.6560722690496847,-0.14712964755253252,-0.10413707417539332,-0.09334982210247245,0.6914213932678185,1.7462471967372768,-0.06779782240884648,-0.23973051352246844,-0.03591475669157481,0.09258505313082492,0.05729383067071637,2.3359375
-0.03334696386556202,0.28556816039771427,0.20941580333868107,-0.9623764135749665,-0.038235542398927104,-0.028257045762226783,-0.02423882256177275,0.1813683268160944,0.4579622861842928,-0.017843394413129734,-0.06242863044991901,-0.009420216622742667,0.024497225946723183,0.015376635624260665,2.34375
0.17299495173158513,-1.5014836605387119,-1.0956995580873765,5.04664635945758,0.2046642294738143,0.1406248575787134,0.1298135309066241,-0.9556288313634285,-2.412641842907558,0.093457049908202,0.3324604537749552,0.04962127584035626,-0.12734892100871856,-0.0780386013196691,2.3515625
0.21910921177203366,-1.9006349866795258,-1.3874458788420556,6.392102237966059,0.25900333040212253,0.17837537715082669,0.1642770243477464,-1.2099253196816606,-3.054607054745241,0.11833799361150306,0.4206991785282094,0.06282601390935273,-0.1613342173182268,-0.09894203039315318,2.359375
0.014541596418732665,-0.12900562602624963,-0.0935839255049354,0.4353508538996755,0.018229011948371558,0.01096326220867624,0.011565647248331786,-0.08302121221906718,-0.2084780531869891,0.00803661364524717,0.02925546357654434,0.0042959257454577545,-0.010815871188721514,-0.006330350541946929,2.3671875
-0.15703223570298988,1.3561759544466983,0.991434023402328,-4.561018560601303,-0.18364089908260892,-0.12949258049606335,-0.11649717808500092,0.86193745595841,2.179390350848331,-0.08443263826209886,-0.29897976450032926,-0.04480236660446677,0.11540134293479205,0.07137201331048097,2.375
-0.09745247204997466,0.8391897100093489,0.6140846174211259,-2.823726983938656,-0.11338886337314111,-0.0807487527560199,-0.07193932920433338,0.5334481306973639,1.3510720530639921,-0.05225624651058377,-0.18487542551090677,-0.02775817480097664,0.07145804322674416,0.04439651881430284,2.3828125
9.215293740813182e-06,-0.004962027862849168,-0.002639669218022469,0.015628218061648325,0.001288166588901539,-0.0009083752361248869,0.000848062847184851,-0.003196228816517776,-0.005279371568217899,0.0002674169042868053,0.001622044515588365,0.00013211639967739848,-0.0002911130580473122,0.00023778148046209332,2.390625
-0.042603602232058065,0.3651270481353564,0.26738364336866205,-1.228437653903219,-0.04904998006376294,-0.035725178296268194,-0.031065129906266538,0.23205296166157457,0.587040030330534,-0.02279269731840539,-0.08000312001773684,-0.012059854105379561,0.031184852201725535,0.019528974356117442,2.3984375
-0.0755220667723428,0.6509535198797768,0.47626313867039777,-2.1906979098727266,-0.08785965246712166,-0.0627513725405569,-0.055748753355440196,0.41330066028724877,1.0454840058683332,-0.04056836069961978,-0.143038194216702,-0.021488319476667187,0.05551859098483264,0.03448306861990152,2.40625
0.028143500465205463,-0.2473946656843095,-0.17950570175092115,0.8282918657576116,0.034238736616329285,0.02197037478431598,0.021656912386514106,-0.15824869600227634,-0.39589364040856057,0.015380927167891346,0.05534792422867067,0.008163084044879948,-0.02079202072022737,-0.0124160812293914,2.4140625
0.11532665946922824,-1.0031784545458486,-0.7313781038719095,3.368061523080775,0.13683629559988336,0.09332534562890475,0.08680116679193453,-0.638428862767305,-1.6086957149424708,0.062419015414781766,0.22214583572958618,0.0331063579082873,-0.08498784046081212,-0.05190021259001346,2.421875
0.05952478357837298,-0.519461347092297,-0.3781359397057337,1.740592986848037,0.07102927872157089,0.047707440444511175,0.0451113304765552,-0.33051940498149585,-0.8326611784330664,0.032278900027218116,0.11528412073853586,0.01713444289658972,-0.04386683904751011,-0.02663908408649976,2.4296875
-0.043248536232180314,0.3715917611180154,0.27274222688516564,-1.2544336902889408,-0.049851509996613544,-0.03644426898417023,-0.031679039024205456,0.2354752062177447,0.5969424105237486,-0.02318680068952844,-0.08134784899299392,-0.012285727715440493,0.0317860109683965,0.01991683378713913,2.4375
-0.09095280187332418,0.7847772153212346,0.5745997689868404,-2.6397813884807046,-0.10563420326660702,-0.07555442291610609,-0.06725683075959629,0.49741261275930565,1.2598201008721208,-0.04886768998819442,-0.1724561593412828,-0.0259341218201328,0.0667628850199516,0.04150257368372969,2.4453125
-0.06512476219207619,0.5602305781242042,0.4103662185432163,-1.8810811846158495,-0.07502309681064291,-0.054382383755312486,-0.04786193705393155,0.35479650211683966,0.8992696631824002,-0.03485496424024541,-0.12293378242896459,-0.018514767777147736,0.04763055781564365,0.029746470307610955,2.453125
0.05901796379209339,-0.5154467782192135,-0.37569763546029855,1.7350430231580498,0.07081550166590031,0.047321970300037056,0.04487393488008287,-0.3283763338077576,-0.8276622958480148,0.03209955333333469,0.11449925726879885,0.017032240761151174,-0.04365958018408694,-0.026485198100915496,2.4609375
0.2126456730282013,-1.845725677854371,-1.3475803541393692,6.204159635836778,0.25117492082227316,0.17313503896751012,0.15954001123821593,-1.1738406040320228,-2.9632636073459984,0.1148717223478012,0.40833011871411823,0.06098448716945516,-0.15655274243790385,-0.09600236018222454,2.46875
0.2057465956545661,-1.78571431613563,-1.3038621661220418,6.000905356950089,0.2429407830640029,0.1675460264202459,0.1543689079035032,-1.135742755680832,-2.8665955821814046,0.11110224672709913,0.3951895166885249,0.058997369130492444,-0.15144658288015903,-0.09286184009958592,2.4765625
0.01992849109925955,-0.1765687290723648,-0.12864171885565162,0.5925648405947267,0.024479741916091168,0.015503363325732239,0.01565575665967415,-0.11251759509352739,-0.2828062785136282,0.010919876622407768,0.039761926981912075,0.005841649985048811,-0.014809939244192273,-0.008773727375509952,2.484375
-0.1223183052716579,1.0553250881519782,0.7711108462042994,-3.547222195782044,-0.14274810010595768,-0.10095356971843553,-0.09056040163814301,0.670880179239998,1.6949003370883649,-0.06576061988012859,-0.2324758889892351,-0.034835553632524184,0.08981019212548919,0.05559991183528637,2.4921875
-0.121594531017343,1.0495917646130049,0.7670568314940132,-3.527370627026642,-0.14190892120112095,-0.10045700780848875,-0.0900837017922905,0.6670020179984635,1.685030808668521,-0.06537754226611447,-0.23129844086738044,-0.034628872379268386,0.08932168737781737,0.055292689161665645,2.5
-0.11444473494195165,0.9883027203892795,0.7225924388958797,-3.3213427193654623,-0.1335134850266115,-0.0946663345562928,-0.0847852592301947,0.6276932509176081,1.5860777103994552,-0.06152406330123755,-0.2177366284738354,-0.032610776882672804,0.08409094902950982,0.052075036288734645,2.5078125
-0.155026571851908,1.3396803787788734,0.9797214302121393,-4.504189830636716,-0.18123306894452143,-0.12789102312859904,-0.11507699601215617,0.8511651953097342,2.1508282647321386,-0.083393278640987,-0.2953294374254591,-0.04425220143029534,0.11392634309693278,0.07044744727165118,2.515625
-0.1337819554076378,1.1549686006115831,0.845285999561446,-3.8870083683089764,-0.156267392460776,-0.1105331582654941,-0.09921582258326206,0.7340322969691218,1.8559551546822242,-0.07194553370426891,-0.25455978113197103,-0.03818850490972918,0.09829051321468221,0.0608515136373226,2.5234375
-0.029405583833647986,0.25053027675547684,0.18474046015935489,-0.8490746544143026,-0.033526282011182164,-0.02516368235958437,-0.021296312142771823,0.1589332722247799,0.40506574998164885,-0.01567905136403297,-0.054759701452910724,-0.008324486466442977,0.021535409232058374,0.013646486735989222,2.53125
0.06599358550647051,-0.5754478396047435,-0.4189799301911953,1.9295743739688056,0.07875654497908938,0.052892681428370655,0.04995962112782845,-0.36680878345854934,-0.9215875297353615,0.035792197711156916,0.1278183210645705,0.018976625103157486,-0.048627337202721894,-0.029515501464786383,2.5390625
0.12669250735618978,-1.1006176411389215,-0.8029269478998109,3.6984135750342144,0.15027760204614535,0.1026063454028323,0.09531219199297207,-0.7013049085735191,-1.7664445479509787,0.06857067342916763,0.24396771084833324,0.03634674998245007,-0.09328799153949881,-0.05700417073963063,2.546875
0.16354156843694526,-1.4196406455773265,-1.0358751700037427,4.770604858820051,0.19363429091585097,0.132834613860954,0.1227984448115023,-0.9041114793570775,-2.2797319367298208,0.08842714188371387,0.31449086940620335,0.04689144126953898,-0.12039610924342291,-0.0737060764839913,2.5546875
0.12389683494624988,-1.076873161403798,-0.7854194409523747,3.616309536203654,0.1469208744500191,0.10046990893350831,0.09318535620831535,-0.6854793681215406,-1.7288245099662507,0.0669980085897094,0.23870607378216163,0.03556079541225833,-0.09125990031974808,-0.05579160400440909,2.5625
-0.004131989423311485,0.031013762096896984,0.02344321371143656,-0.10587325418961127,-0.0036700158420301613,-0.004254336585336059,-0.002297452390947693,0.019703017350878586,0.05142231538292506,-0.0020226145667149075,-0.006203758481670967,-0.001039854259925386,0.0028075342205026096,0.002100927882941417,2.5703125
-0.10959755733557842,0.9440024328669872,0.6897656624706454,-3.169642127749432,-0.1276298823289853,-0.09057812613728548,-0.08091084530993994,0.6004273350952551,1.5177810985549474,-0.05881302299928901,-0.2080870554376692,-0.03118232936062753,0.08027343276265644,0.04978287634566414,2.578125
-0.08254455590939999,0.7104280026055765,0.5190097550299632,-2.3830621731764254,-0.09579248386715587,-0.06849704659573563,-0.06075645159546069,0.4514496645286076,1.1413768332684848,-0.04421429402593861,-0.15652324960317757,-0.023435955700812187,0.060405739106474114,0.03755321564663766,2.5859375
0.06330190272094349,-0.5513309241731548,-0.4022223722574535,1.8542149953955187,0.07566784324261695,0.050818812580851296,0.0479422997882025,-0.35162275624414846,-0.8865730499684408,0.03431794160085956,0.12244055186638188,0.018259787268132186,-0.046723951293698385,-0.028378992623618333,2.59375
0.1870202559617541,-1.622067276827709,-1.1836239771145598,5.449444976756058,0.22109567110090675,0.15206113841570099,0.14018624136283606,-1.0328468619405418,-2.6065716281803875,0.10090880256177513,0.3592583139528346,0.0536067599711207,-0.13761628436738543,-0.08432153829233201,2.6015625
0.1170370057786761,-1.016413017431512,-0.740608838693769,3.4123720435251936,0.1386743771639852,0.09478597258492523,0.08795676531647847,-0.6471686942846223,-1.6330351671798151,0.06316687970997768,0.22547141047814456,0.03355569139212509,-0.08609966319410543,-0.05266491512015762,2.609375
-0.13092878608094663,1.1302726385751534,0.8274172198673367,-3.804489202702957,-0.15311800174889917,-0.10814657050708662,-0.09711897813416027,0.7188776666081894,1.8155737059845496,-0.0704475805106832,-0.24901498434797115,-0.037374961004221996,0.09633375209082873,0.059538328713936085,2.6171875
-0.2738928879627379,2.3681338768620517,1.7308646635019993,-7.966184391453261,-0.3212566877373216,-0.22511692279505952,-0.20382386902934826,1.5062775111559272,3.8041404884115524,-0.1474558742829287,-0.5226628825331552,-0.07824313355118231,0.20148267164294,0.12426080914000927,2.625
-0.1158900619488801,0.9999011530905962,0.7308306903405984,-3.365031791627846,-0.135162246395624,-0.09576380804057466,-0.0858116574597418,0.6354892921809144,1.607129391499302,-0.06225799582302863,-0.22033183122032207,-0.033023014862482075,0.08512157737743202,0.05276763872578052,2.6328125
0.12030274168764664,-1.0456414402957532,-0.7631201582593305,3.5140242727423114,0.14287023641015625,0.09753328735021505,0.09057724855694146,-0.6659683641563987,-1.6776276362022846,0.0650611862692486,0.23170719846335974,0.03454124701873991,-0.08876503505830903,-0.054150454228833904,2.640625
0.11261998807773982,-0.9791187659222595,-0.7142912280774953,3.292020445561268,0.1337924328326972,0.09118633231039994,0.08484379358864597,-0.6237736623195761,-1.5709211630892432,0.060924332988597445,0.2170296542567416,0.032341570336125204,-0.08310744866965278,-0.0506906192518984,2.6484375
-0.0665856424786719,0.5732010995860773,0.41894613455009105,-1.9243469817180003,-0.07713714104128344,-0.05552593230056086,-0.0489430315504375,0.3633364107929325,0.9211736644481501,-0.03563976289025761,-0.12597463116090618,-0.01890367361168692,0.04880912968959333,0.030423030117418485,2.65625
-0.1295849045334541,1.1188558712389054,0.8169562312412674,-3.756699935070037,-0.15127886829643813,-0.10708318556976289,-0.09591633740000828,0.7103618028211863,1.796914767255878,-0.0695617231132129,-0.2465712124734125,-0.03691089732755337,0.09517560968761371,0.05892719427429053,2.6640625
-0.05283216060354669,0.45330725289741935,0.3317078824652343,-1.5223608786454734,-0.061018420015405854,-0.044255256710810396,-0.03859069987781447,0.287807990442812,0.7290836561685854,-0.02820439492046475,-0.09958094641829658,-0.014977301847821358,0.038702747206613944,0.02416379175632592,2.671875
-0.0011892820063475844,0.005256357057232074,0.005846099167926809,-0.02342690097196611,-0.00034794925122727787,-0.0020006026633270003,-0.00013471655195985714,0.0036893128665533145,0.010943565557953406,-0.00042033740490856063,-0.0006214050762839359,-0.0002412512411480133,0.000768303383205334,0.0008007618652460076,2.6796875
0.02921384502277799,-0.2575805663962274,-0.18609353638221193,0.857653653997251,0.03543837853868118,0.022892999574307817,0.022450815191883387,-0.1636836532443936,-0.4119044465125833,0.015941435257660255,0.05752131396017737,0.008452029408727761,-0.02154555946040024,-0.012927734964840381,2.6875
0.12664298873422417,-1.1002753605714253,-0.8025347268566682,3.6954657008547795,0.15019869974520833,0.10269667622234076,0.09519149452379215,-0.7004394560468269,-1.7677515584263852,0.06845861148334366,0.24383947741345205,0.036346750845659075,-0.09327512417095496,-0.057041285008950074,2.6953125
0.19937334370099738,-1.7297870851833579,-1.2624707190495783,5.815273728857924,0.23579178559687347,0.16226815753381787,0.14952353309024827,-1.1009526023730223,-2.7798104027899893,0.10763149566732484,0.3829961010422047,0.05715736561468066,-0.14684185590578613,-0.0900004708788863,2.703125
0.11555588211339193,-1.0038978224373363,-0.7317798468387956,3.372925491848445,0.13703136437675423,0.09362289405908455,0.08689069058749298,-0.6390609784438858,-1.612840769479011,0.06240083458625808,0.22261883492976786,0.03315947930173855,-0.08511534004275446,-0.05203642420352719,2.7109375
-0.038517514586174854,0.33084382679733904,0.24282280304779694,-1.115125930458781,-0.04430606470869872,-0.03255626722067388,-0.028186442762267342,0.2094716635995949,0.5318765763314078,-0.020642358847276544,-0.07229717588338523,-0.010922747524813455,0.028311059793972075,0.01776995099926335,2.71875
-0.08748637022334953,0.7548743371833049,0.5517297775246557,-2.537199414091996,-0.10175128299285176,-0.07263861371001622,-0.06464973907863426,0.4787305427645837,1.212986809475883,-0.04696628267746072,-0.1660456850321276,-0.02490925377606875,0.06424755363125183,0.03993225191393491,2.7265625
-0.035316285666249406,0.3018930600105336,0.22086879821115252,-1.0128021514643666,-0.04017355441293074,-0.029879863516075005,-0.025562626419645164,0.1910235270784491,0.4858413140439112,-0.018789458879709675,-0.06607267988601438,-0.009962082229838385,0.02570192710053509,0.016249993788223407,2.734375
-0.018308671214176706,0.15383432004533748,0.11320941268323037,-0.5179054045438419,-0.020172668942791024,-0.015924730768451915,-0.012863015974004842,0.09738136722778477,0.2484044637267379,-0.009623137191179073,-0.03340509615735007,-0.00509104024571079,0.01318131715493476,0.008530201353958284,2.7421875
-0.06902518642709285,0.5937150593701692,0.4343446287307355,-1.9983570650712534,-0.0800024021250756,-0.05743615366601258,-0.05080479611276095,0.37702745637294044,0.9540746270788485,-0.03697563223854473,-0.13054812386758058,-0.019598672986659,0.05062520509561033,0.03152245192240581,2.75
-0.0818359399050299,0.7051707245666811,0.5153758829628271,-2.371696361394183,-0.09519372141005264,-0.06791327229841247,-0.06036193582003411,0.4478981751113578,1.1325178343084037,-0.04387965006809477,-0.1551660809429783,-0.023261705200621513,0.06010624713308454,0.03732498055937052,2.7578125
-0.008039965011321768,0.06538282799747892,0.048480235919551105,-0.22122751306366,-0.008406014799786967,-0.007506317155107067,-0.005208396013483271,0.04158592438846101,0.1063003802179453,-0.004116181677022292,-0.013861089421187463,-0.0021645384371548337,0.0057631479760649335,0.003893335816609944,2.765625
0.041946860951596374,-0.3677264729966764,-0.26715298940454774,1.2322226141315733,0.0503810273667612,0.03337378520802798,0.032076497055879415,-0.23371879476372423,-0.5882427321515671,0.022779671330617854,0.08186178294742869,0.012103256438858586,-0.030999599277327487,-0.018715196046383536,2.7734375
-0.023659677900113994,0.20170852470852352,0.14876932790118777,-0.681938179343038,-0.026815870212011438,-0.020367490885594468,-0.01699946362676391,0.12764057726943448,0.32465828088358606,-0.012617287799735677,-0.043835627004217996,-0.006685377739048676,0.017367707279210217,0.01102831710793225,2.78125
-0.09355340478560166,0.8077391594145628,0.5909691574617163,-2.7161025154784078,-0.10897751584916802,-0.07757636620012053,-0.06918476583724563,0.5125297242277125,1.2959367691396637,-0.05025888981840627,-0.17771031628419773,-0.02666410408736802,0.0688001071756663,0.04265545948392975,2.7890625
-0.01937999252177423,0.16426588979580672,0.12083443983205785,-0.5515722991049099,-0.021595905129428525,-0.0168441053072161,-0.013724460579580468,0.10370269663815494,0.2632978802076367,-0.010205515475385629,-0.03563606119394997,-0.005413063382089934,0.01411108385606154,0.009027825529529748,2.796875
0.10510086214058297,-0.9148254322675485,-0.6672098684746814,3.0744081782748607,0.12488800696312156,0.08503763457467887,0.07923866226635468,-0.5821633162883294,-1.4676624874934336,0.0569238396119564,0.20272873474265524,0.0302024155533954,-0.0775360873445259,-0.047325919048513826,2.8046875
0.07800567160366412,-0.6796666952433005,-0.4953479515929447,2.2824797712403937,0.09291434134272453,0.06282710206581385,0.058953596522741125,-0.432742234801391,-1.0896217658016818,0.04227772548121606,0.15079543367204504,0.02242316036611467,-0.057527219540765506,-0.03502153277854518,2.8125
-0.05033600411300892,0.43236152464013655,0.317002770819185,-1.4558939636298984,-0.0581804418168434,-0.042241548188473095,-0.03689274490711532,0.27452160929415026,0.6958173475583098,-0.02695676420930427,-0.09493358583692996,-0.014308592170574296,0.03695992076965812,0.023085511082360632,2.8203125
-0.05015986525818996,0.4302315701958462,0.3154064423723302,-1.4487162460639955,-0.05795361399583882,-0.04207977876216063,-0.03673087744022939,0.27353032661442966,0.69273603516792,-0.026864689816844683,-0.0945347009724159,-0.014231276398578484,0.0367784468327755,0.022981888402987226,2.828125
0.08618631748982002,-0.7508356334054211,-0.5477353433514724,2.5220294307336113,0.10256916495463098,0.06956552937520191,0.06505832656047669,-0.47783468545201435,-1.204456509108342,0.04666524160754025,0.1664854853927882,0.024814207635755665,-0.06359578968260719,-0.038742317541587024,2.8359375
0.1380133707168906,-1.1986388942677373,-0.8752239625182917,4.02861261929437,0.16363892766318844,0.11202141608601468,0.10369008135691067,-0.76349170796601,-1.9258145092952723,0.07461836329957247,0.2656251771657262,0.03964448112022613,-0.10170348468078497,-0.062183912588170874,2.84375
0.03827842492180206,-0.3342180298244347,-0.24345683506780502,1.1233027420100163,0.04633672355020677,0.030385150171862454,0.0292131641440758,-0.2140600136110379,-0.5387871787043695,0.02084490380153796,0.07474251798830314,0.01108240158707972,-0.02829613277596483,-0.017036794640338564,2.8515625
-0.05164000865719733,0.4438841824840905,0.32558770027786205,-1.4929128455938976,-0.059457192326114905,-0.04323982090084399,-0.037858784729455,0.2812462903640476,0.7121542605360649,-0.027641301331033125,-0.09721144527754845,-0.014663159836179622,0.03783254628767612,0.023649092427630043,2.859375
-0.04167822328242508,0.35732986104914155,0.26236028729866323,-1.2016146954819038,-0.04778044173990205,-0.03510717132677567,-0.030389009773743494,0.2263258356092177,0.574158051813187,-0.022292607746064327,-0.07809681937062855,-0.011813043777371461,0.030494748695762058,0.01914400114402008,2.8671875
-0.013279929913418129,0.11223158074729316,0.08275985356367124,-0.3765375693715541,-0.014452386214896572,-0.011872192326987973,-0.009221875390776667,0.07005838208937075,0.17958013515516663,-0.007014737408591997,-0.023919973369025314,-0.003688659277078988,0.009650887416742492,0.006312482989960587,2.875
-0.029222294416484884,0.2504486684126472,0.1835548687847069,-0.8420661761935638,-0.03328147000897642,-0.024911851167572857,-0.021124923126102743,0.158165191698392,0.4014454935959125,-0.015607528975683732,-0.05458154114002664,-0.00825651392127638,0.02139904865008461,0.013530366139384081,2.8828125
-0.058167443713494804,0.4997889900481504,0.36600710401993297,-1.683236966735241,-0.06734226861852693,-0.04856108206156077,-0.04265858610851993,0.31768915147154386,0.8040576191746658,-0.031150563242343124,-0.10989934207346161,-0.016535060199461656,0.042645442701241716,0.026607940851350577,2.890625
-0.07026590226091825,0.6035399639706398,0.4418899594326789,-2.033465246359234,-0.08154532259625055,-0.058410899043263326,-0.051638390394520346,0.3842302106081035,0.9723750648398849,-0.037607375073336974,-0.13292259206997598,-0.01998203003736415,0.05151913237567332,0.03206913967599554,2.8984375
-0.057953606005089066,0.496967545266935,0.3638952402699876,-1.674269996051844,-0.0670774353252234,-0.04832521513823307,-0.04247123054785901,0.3164431254063921,0.8012394368932104,-0.030967624528586524,-0.10938041260587696,-0.01644680943680251,0.04248585575522109,0.026494825649067827,2.90625
-0.005561354711668165,0.04302830141323392,0.03244171649239282,-0.14779988909109842,-0.005512106028610102,-0.005489378606208029,-0.003384802151664709,0.0280043381799522,0.07263709472180405,-0.002766458642630926,-0.009180627829015168,-0.0014502585104753133,0.003935726059430202,0.0027666603369368987,2.9140625
0.062271346312922304,-0.5446788732240169,-0.3966617834694974,1.8277246055337977,0.07425588935405371,0.04997417799815072,0.047251903884217863,-0.3456874534182141,-0.8710280787321141,0.03377273987464015,0.12064879000845137,0.017958852514346542,-0.04599420402235027,-0.027946446293937676,2.921875
0.07287458064460528,-0.6349212826074505,-0.46292604298127077,2.1331016682603745,0.08678754182542671,0.058614844462973735,0.0551160810849608,-0.40437127695204195,-1.0191285450580794,0.03948436358157557,0.1409237411743243,0.020981731818288114,-0.05372389420419877,-0.03270800594798199,2.9296875
0.012774587634841841,-0.11197505154010594,-0.08146231084839854,0.37835919896802894,0.016177373319012932,0.00939621924748801,0.01016574328502316,-0.07354922173050153,-0.1837628126957394,0.0070827583340125405,0.02581045141852096,0.0037680398090969023,-0.00938061807414388,-0.00544456003173381,2.9375
-0.03771955802463831,0.3252895622043714,0.2381170721198935,-1.0915191213985422,-0.04316388884289998,-0.03194983925801472,-0.027533478921530588,0.20450406338426827,0.5186626660523755,-0.02014208301474637,-0.07080859581575087,-0.010682863588124395,0.027752442176169678,0.01741586335811665,2.9453125
-0.02217344110095472,0.18825413157923526,0.13875634143720755,-0.6342468347776804,-0.02485957365191167,-0.019209057467940605,-0.015865009830642585,0.11887007744973711,0.30302496553253333,-0.011770443943278263,-0.04088514777614278,-0.0062228160592377795,0.016150105976130178,0.010327452567857701,2.953125
0.022154248844032706,-0.19662019040228745,-0.14206988584270933,0.6571531906501634,0.027266597416444282,0.017133693331536935,0.017226588126415403,-0.12514020892596037,-0.31323133653984414,0.012103479952736819,0.044025765713633244,0.0064614520592949235,-0.01653443235002343,-0.009764196377765951,2.9609375
0.04460539722663513,-0.3896544345276746,-0.28346811776345676,1.3068889248394846,0.05365406439477953,0.03558249234023913,0.03393230692129571,-0.24854732963040319,-0.6258587286362846,0.02419578342618898,0.08688685028150712,0.012870618580253143,-0.03295453380647496,-0.01990567622889259,2.96875
0.04881122789709395,-0.42544259746460195,-0.3100082199744976,1.429291201565718,0.05863567838444772,0.03905626283015356,0.03710406941391993,-0.27170922591966207,-0.6849436295689981,0.026495700741556612,0.09489277417409919,0.01407283059064348,-0.03600822104797277,-0.02180948093222952,2.9765625
0.047665912655130004,-0.4169394022839092,-0.303742614623274,1.4018098315554566,0.057362206684271284,0.0381011415573712,0.03636362191941596,-0.2656728175932607,-0.6692699507674015,0.025925672079998657,0.09281745006777342,0.013766131228088679,-0.035292312139604966,-0.021339064885416884,2.984375
0.02292169911541649,-0.20361926811735034,-0.14767225887741145,0.6839690137946757,0.02824673134410395,0.017826525225195386,0.017926966060313458,-0.12944236829209874,-0.32478404244829034,0.012597905207808636,0.045507440293349695,0.006696383761809132,-0.01716352709031338,-0.010161273918506207,2.9921875
-0.032388426292867104,0.2761402914533033,0.20295802363550364,-0.9313639944308473,-0.036942951754000225,-0.02745507285530535,-0.02344102993015741,0.1754689257668624,0.4454174491390923,-0.017234297238080332,-0.06045327275985205,-0.009150297949830268,0.023653985639463103,0.014926895619484981,3.0
-0.07603400045712938,0.6547327957896303,0.4796567968949539,-2.2065672986600093,-0.08839600740094165,-0.06321077536145721,-0.056073025602286844,0.415981252259715,1.0535161727988114,-0.04077016956929249,-0.1440281885881381,-0.021663078098222172,0.055900788785465186,0.03474550311524821,3.0078125
-0.060136417868858184,0.516606185327361,0.3787094221834404,-1.7414423456019772,-0.06969147547712891,-0.050238359308778915,-0.04416625891733066,0.3282908582946685,0.8325838586921175,-0.0322084526938113,-0.11355057566628005,-0.017107492906809674,0.0441667039209134,0.027542479146793558,3.015625
0.0029874646251428607,-0.02985544980781648,-0.02104257050230848,0.10043748403229756,0.004622027909781514,0.0014348304247762086,0.0029922431601000312,-0.019360135449515318,-0.04652131614041327,0.0017975592422607902,0.007171742174102419,0.000987271323144002,-0.002364035283885492,-0.0010808334182724525,3.0234375
0.04663058001972894,-0.40633073121152014,-0.2969224146989164,1.3713637882967957,0.05601359263638552,0.03717917049227588,0.03555951150052451,-0.25966907770949876,-0.6548321689335116,0.02531969719348925,0.09048818254554988,0.013501122061694243,-0.034454235559130374,-0.020847170376304538,3.03125
0.021818884667634878,-0.19071175356276737,-0.13978888012968557,0.6478941535794759,0.026891703796999945,0.01683324994801048,0.017032537171576146,-0.12335375534279262,-0.3097459478149372,0.011974676858529522,0.04299980253171464,0.006402011669066216,-0.016156093056326724,-0.00958095126082964,3.0390625
-0.049905068135205406,0.4293243713085548,0.31365544809129325,-1.4400192944324444,-0.05744547881766445,-0.04192669258725533,-0.03650664817715016,0.2712947524613507,0.6886504636270873,-0.026667885852470406,-0.09401995464138804,-0.014135965646702546,0.03657555018570477,0.022900188610332228,3.046875
-0.10106988974788314,0.8710888946600693,0.6372562514885471,-2.930822384405442,-0.11772449238508574,-0.08376880660191914,-0.07475450513414192,0.5534188226244482,1.4004292402155365,-0.05426928550207701,-0.19179691280372108,-0.028789527954200367,0.07419871321557406,0.04603414397045171,3.0546875
-0.08001976449302814,0.6885771847325125,0.5045209867682999,-2.321874608711166,-0.09311688415749883,-0.06644196020375608,-0.05911515997650573,0.43819260395716986,1.1072513733422622,-0.04295334329846624,-0.15160887544773444,-0.022775877714692694,0.0587879929041195,0.03649170979636792,3.0625
0.01422233599042822,-0.12757810954284277,-0.09150328046947155,0.4197450222059262,0.01771411213078308,0.01074195335503241,0.011250547591542485,-0.08074276800381737,-0.20316735558840948,0.00784186111373023,0.0286860935020285,0.004177821898265104,-0.01050705259540288,-0.006145575022142124,3.0703125
0.11876382549300846,-1.0335200506801712,-0.7532384475944722,3.465362214474849,0.14078619747126422,0.09630450567243432,0.08937484702826769,-0.6569131086674688,-1.6562809454694114,0.06420314334546184,0.2288556639118434,0.03407888219786175,-0.08750392148418983,-0.05345663543763867,3.078125
0.1273853507619501,-1.1084260892248325,-0.8078869831575685,3.7184305959748265,0.15093749873100507,0.10337075430483296,0.09583104553816635,-0.7043450638028856,-1.7761382981479104,0.06885156508009443,0.245394957070904,0.03654371716103457,-0.09390669106723219,-0.05738882629227535,3.0859375
0.0005968420598572654,-0.009665504729546769,-0.005299328589061639,0.026488927065311366,0.0016604364308201436,-0.0003975548718305359,0.0011273013007625247,-0.005494501923904402,-0.013442025083776468,0.0005046907872482459,0.002635322721296545,0.00027090061346697164,-0.0005541797435960436,-2.6594052368034235e-05,3.09375
-0.13128301070353288,1.1332284887503352,0.8292349521120057,-3.8127332207134934,-0.15349884572066175,-0.10838067541974591,-0.09732051753588788,0.7208637568143378,1.8205009726835746,-0.07057457064974812,-0.24978943443274274,-0.03746020096585566,0.09652137793486282,0.05967216409265791,3.1015625
-0.08643610125377295,0.7451183084617206,0.545144567623904,-2.502944491303339,-0.10048655082707413,-0.07174096496894418,-0.06375484861480635,0.47292163489739014,1.196734978279987,-0.0463731104296509,-0.1638242963498904,-0.024623032730466166,0.06342167686246644,0.03938226708401878,3.109375
0.1144926907723971,-0.9943706048221694,-0.7260732698769999,3.3509145985465616,0.13621253272590977,0.09265883330919747,0.08627758266924777,-0.6347584494564069,-1.5987323849529584,0.06196995574177702,0.22077275416964406,0.03288452491549456,-0.08451445289019499,-0.05156977881509263,3.1171875
0.2473534697697042,-2.143823294350319,-1.5660432190101081,7.218473163503201,0.29262127709513297,0.20136102279724744,0.18539153158934843,-1.3667653639138206,-3.447844614287419,0.13360024005696797,0.4748782122078175,0.0709211301970774,-0.18221354305694945,-0.11169857684911103,3.125
0.1768246270199823,-1.5326025583705563,-1.1196617871324301,5.161924034415473,0.20955274153981565,0.14362099271757295,0.13268949070971467,-0.9779575327522473,-2.4667510107176676,0.09555191401058259,0.3397330467147844,0.050749377220227876,-0.13023358841161178,-0.07974005615440123,3.1328125
-0.0059521136738676355,0.04920459145677051,0.035993436073594086,-0.16109617727111367,-0.005597792046046447,-0.005958753636577803,-0.003718943047342957,0.02912075103100186,0.07710095859316435,-0.003025418243456927,-0.010015427936828978,-0.0015594577561847385,0.004210728520125492,0.0030206658487497715,3.140625
-0.16980710169531535,1.4665776166103814,1.0719585975917783,-4.932410248574039,-0.19852400639083917,-0.14004011772857247,-0.12601712173567026,0.9320673595729233,2.357695219529113,-0.09138197932126509,-0.32344774878164256,-0.04846024802294222,0.12471831485001293,0.07718848298858476,3.1484375
-0.273390182638392,2.362681152913535,1.7272077759074915,-7.950958353974427,-0.32067410510128597,-0.22476533550936592,-0.20341161676756056,1.5034219499056127,3.798852398895864,-0.14721795647860816,-0.5216643205494791,-0.07810353945871013,0.20102737024536382,0.12406101246700316,3.15625
-0.2669761497898257,2.307046558670891,1.6866555180372282,-7.767445269287223,-0.31340076400255235,-0.21941315517238744,-0.19868275481510247,1.468862003311764,3.709483411306724,-0.14375017128305698,-0.509511079292623,-0.07626207719925764,0.19644866861305962,0.12114793971024555,3.1640625
-0.09687132459425277,0.8340209264809676,0.6103574253200367,-2.8148866081782185,-0.11328594393212298,-0.08010955558962331,-0.07164786553808014,0.5318916192746969,1.3434654119605016,-0.05203846546550918,-0.18404794334909078,-0.027591263878864722,0.07128155408440806,0.04414296807520921,3.171875
