AF3,AF4,F3,F4,F7,F8,FC5,FC6,O1,O2,P7,P8,T7,T8,time
0.009203697970133424,-0.08411864770235161,-0.06051754737261749,0.2827377462885142,0.012193290124813192,0.006600282570896412,0.007626429618364874,-0.05407752350479101,-0.13424016433338615,0.0052657082734807684,0.019270965295822073,0.002771630226501583,-0.00698204217851167,-0.00392304902568597,0.0
0.0547927227762058,-0.47830214164254886,-0.3484976680076456,1.6085840609800384,0.06578326538551674,0.04387599910167359,0.041661843328551176,-0.3052387233370256,-0.7683178631004336,0.029765572288667802,0.10648750891310088,0.01579628969580202,-0.0405072919193631,-0.02454279451902613,0.0078125
0.11369253236226186,-0.9879666418382244,-0.7207277443593925,3.3214632577177583,0.13502357075176016,0.09207111107832039,0.08561919040928669,-0.6296247505321911,-1.5870378050900267,0.06145613384039189,0.21910905560849056,0.032643594558444726,-0.08383203811893424,-0.05117807917465425,0.015625
0.07590653089060574,-0.6612002070562022,-0.4818418447173059,2.22080919989502,0.09052032050968549,0.0611363724879949,0.05742137273545671,-0.42139064236381674,-1.0604898059663108,0.04110292320304955,0.14682982909881692,0.021827259914104457,-0.05602339293021948,-0.03405500600573018,0.0234375
-0.007880344793113933,0.06407398284542735,0.04798542740785684,-0.21938327647540617,-0.008161952697386813,-0.007444137868884809,-0.005127723472538193,0.0403924909981866,0.1053308129657694,-0.004046942801443254,-0.01345963626744494,-0.0021574319138595436,0.005666666768977431,0.003875056837831179,0.03125
0.008917558907439338,-0.08082197181997132,-0.05799126139295396,0.2684165298139359,0.011519321689229365,0.006317929169804664,0.007352997900587002,-0.051868450054480694,-0.1287694653444772,0.004965514000260001,0.01858147186276322,0.0026502722807400726,-0.006652069594518606,-0.00373911704634503,0.0390625
0.05394774308242084,-0.47029888831943695,-0.34260916358045274,1.5799762427226698,0.06454523227990128,0.04318285392896642,0.040914274028386766,-0.2999068653466114,-0.7555788316114779,0.029210830986581702,0.10461652862085258,0.015555901528544977,-0.03979966247411717,-0.02413501321277126,0.046875
-0.07439462437025697,0.6408034399238337,0.4688114055762072,-2.155031760523653,-0.08641288528373353,-0.06187285318882819,-0.054865228006072415,0.40696916050485515,1.0294734160777832,-0.039923584566399536,-0.1409885694500887,-0.021146224900033178,0.054621610367509094,0.033957646235796946,0.0546875
-0.27893018215074866,2.411716287490582,1.7620580555941394,-8.110075214358723,-0.327171976228384,-0.22928809328146754,-0.20749711291073364,1.5337872405074982,3.874314904297884,-0.15012061931942314,-0.5323650010054429,-0.07966583976507026,0.20517628236352048,0.12654596807740168,0.0625
-0.2519757305266497,2.178406152706106,1.591566170801115,-7.326066591191428,-0.29555520148137354,-0.2072237407037726,-0.18738232638730434,1.3854488304544759,3.4992735848625474,-0.13559481369287607,-0.48081502852747143,-0.07195823961442971,0.1853831352590855,0.1143407256017623,0.0703125
-0.01882709333311081,0.15930522900925453,0.11711497663588621,-0.5369505762768032,-0.021098640837198108,-0.016404566181558288,-0.0133629011934558,0.10088475680870507,0.2564403592092132,-0.009938932815500805,-0.03463584346360512,-0.005253429600041055,0.013753019236449993,0.008794794148432672,0.078125
0.08817499678229851,-0.7675231833728193,-0.5595031984751087,2.579454914894323,0.10502339383652685,0.07115730175438936,0.06653719064734297,-0.4889378941519476,-1.2318084300539682,0.047748621855221655,0.17021484222376138,0.02535370842221785,-0.06508316039607287,-0.03963697673848782,0.0859375
0.019869313492409654,-0.17554053224211247,-0.12713279866334443,0.5892842609605152,0.024698807129925584,0.01524235843065538,0.015569584857782892,-0.11274729040827858,-0.281900543063092,0.010929605303160757,0.039514561888734305,0.00579818392097533,-0.014816704978969355,-0.008699841704680317,0.09375
0.05429685940536004,-0.47296070871929163,-0.3444660534729575,1.5903578873026858,0.06516106897040944,0.043418131643018845,0.041237735886950386,-0.302367451601241,-0.7608784551010195,0.02945787813582384,0.10537166848972243,0.01564235761364251,-0.040100799726521016,-0.024275408711305284,0.1015625
0.2234811449345321,-1.9384562944797523,-1.4146713380583908,6.5186717243107966,0.2643179751588505,0.18189708660766346,0.16751990951993215,-1.2345591389907604,-3.1140304255610554,0.12064880524605592,0.42925844720665723,0.06405151059963483,-0.16464264510744944,-0.10087854245369246,0.109375
0.2360534724802035,-2.048612512346501,-1.4949235384506168,6.888927032780493,0.27922575729607824,0.19222204600918513,0.1769719192036631,-1.3039300442857402,-3.2889455605917357,0.12745671470704872,0.45351022937564717,0.06765729792575852,-0.17400396263427892,-0.10660804947651834,0.1171875
0.027399901673197478,-0.24217786678210756,-0.1757164127039918,0.815023539438416,0.03359480023964103,0.021496161932633075,0.021271668928689147,-0.1541058886271958,-0.3868864542572032,0.014987279872950014,0.05418503506257142,0.00797033211840269,-0.020475018601790497,-0.01218419963057267,0.125
-0.12078501008010561,1.0418946393452753,0.7617457636397451,-3.5027151641897945,-0.1410635019109061,-0.09976569260348656,-0.0893914294680001,0.6628290123311735,1.6743998513097738,-0.06492943341661855,-0.2296469307488678,-0.034420572832479755,0.08870348564485607,0.05490686266302692,0.1328125
-0.08314477426996301,0.7166589854311335,0.5240689328162942,-2.4122188487879876,-0.09698720728422515,-0.06896476557055496,-0.06138605901113307,0.4558059616788783,1.1513400687038102,-0.04465260344964017,-0.157796846548333,-0.023658415387481986,0.06117625129791302,0.03791736516353677,0.140625
-0.05065821470462466,0.4350547353893512,0.31861878429699175,-1.4713097093547756,-0.05882424043838173,-0.042370546018081386,-0.03718733338829169,0.2769037604985933,0.6999060416515809,-0.02710805759564829,-0.09560645172510458,-0.014378287610898715,0.03736886690769422,0.02326242607096342,0.1484375
-0.10738579370622896,0.9257573672530632,0.6772709695659683,-3.1251046167836862,-0.12556150159997578,-0.08878388321995244,-0.07954516179305332,0.5893358518177578,1.4890989981979985,-0.057667826090718445,-0.2040872400856042,-0.03061575752450398,0.07910885697028745,0.04895854804336431,0.15625
-0.08319738772988329,0.7162775552210671,0.5242844440227767,-2.4180706719127043,-0.09698882557530314,-0.0690140802205172,-0.06146422115229722,0.45570492881610253,1.1525917918163109,-0.044640140595413054,-0.15778078507929247,-0.023692691459811458,0.06121217839328709,0.03798727648112604,0.1640625
0.06482686262328304,-0.565283854470863,-0.41192993737024697,1.898698345506917,0.07743014567649624,0.052040603234569945,0.04912001573471636,-0.36044470691077557,-0.9066282821637137,0.035160333737305254,0.125494430637948,0.018662896242466875,-0.047860681472860836,-0.029057897236283586,0.171875
0.12347443873809383,-1.0728403452487645,-0.7828304952561541,3.6120590922447082,0.1466825089829239,0.0999326372791589,0.0929801423012133,-0.6840839097407763,-1.722992050456161,0.06680098283592414,0.23777566778714124,0.035447362912712645,-0.09111661908121017,-0.0556302601998833,0.1796875
0.005700356768788265,-0.05237941876756042,-0.03756803689967007,0.18245722991968363,0.008184578695325366,0.0035160965914079467,0.0050248535974968325,-0.03529993135068724,-0.08553078746460165,0.003298615592092444,0.01245772003530505,0.0017567048861875016,-0.004439739083324374,-0.002310568800310846,0.1875
-0.08412234314396244,0.726011017465036,0.5309926703507545,-2.437056271005693,-0.09756288689533016,-0.06991573676064683,-0.06211966718440305,0.4598812200965954,1.163498146590146,-0.04518111394886399,-0.15940421691758866,-0.023941300492203613,0.061702425647559705,0.038362809113923674,0.1953125
-0.0036208034379479038,0.02861950126381419,0.02166280053980258,-0.09326305912242586,-0.0029061836245009125,-0.003930500923775287,-0.001998878197090309,0.016757185746785804,0.04392211981315862,-0.0018152041912651159,-0.0053517659567228785,-0.0009118268634275534,0.002434926534883095,0.0019001552496660755,0.203125
0.10532137417955251,-0.9156372897636087,-0.6680454347733176,3.0832819170812247,0.12523209944477579,0.08525768883949308,0.07943465546045769,-0.5831759217745929,-1.4709902787306566,0.05694997840782148,0.20311247181145348,0.03026098515876455,-0.077771988400216,-0.047455712710897,0.2109375
0.07875250844646456,-0.6858586783937292,-0.5002765697288507,2.309879599037305,0.09385834874493862,0.06350019623787632,0.059586500424965716,-0.4366211940431934,-1.1008803655360107,0.04268505050979242,0.15221575843321067,0.02266977311202328,-0.058130940773474395,-0.03541771044504125,0.21875
-0.03474552117635385,0.2970734672892826,0.21776965028166606,-1.0020229913688847,-0.03986265535536315,-0.029367079749513664,-0.02526450297207212,0.188794583834941,0.47865414846914844,-0.01847535071870906,-0.06506170484327656,-0.009800554742837397,0.025536416912649604,0.016029766331758875,0.2265625
-0.10944986821932173,0.94321848156581,0.6901660783099999,-3.18206861447697,-0.12786613759604612,-0.09048101036929218,-0.08104700298700619,0.6003503822315568,1.5185756371599746,-0.05875708083306265,-0.2080274368252658,-0.031188259716599807,0.08050060219270609,0.049883498291645664,0.234375
-0.11415806216806376,0.9828729703908259,0.7196178530087172,-3.315518506255342,-0.13336080750798315,-0.09436571347579006,-0.08445533035725554,0.6261810524084596,1.584025933464966,-0.061314940531272295,-0.2169417660242948,-0.03255343600658902,0.08382565013916629,0.0519699952207889,0.2421875
-0.08115395629432752,0.6974464728628117,0.5110882192161226,-2.3502652438282863,-0.09443337769418234,-0.06739524522540918,-0.05980327416536687,0.4443230796992329,1.123933447673794,-0.04354104815597963,-0.1537381578842708,-0.023114044827719296,0.05951351236522341,0.03698112902503651,0.25
-0.04656109912303005,0.39955000457217305,0.29296623070216826,-1.3455332879689066,-0.05370179698899999,-0.039077580855536184,-0.034100946449481834,0.2537688141755053,0.6419163917806692,-0.024909066279128388,-0.08763297173955414,-0.013206355932123638,0.03418534305408828,0.021344316688748116,0.2578125
-0.030059810592458613,0.2575898212768555,0.18904779516199582,-0.8697108775014892,-0.03429596432458289,-0.025579434309802057,-0.021875765936443067,0.16276048361114817,0.41260130958291075,-0.016035478855046942,-0.056135443132047005,-0.008482930084796027,0.02212212990005123,0.01392934245836289,0.265625
0.011304071830660862,-0.10065540716872391,-0.0723182553029742,0.33361899905644543,0.014378497205271876,0.008215728392147193,0.008990555675435429,-0.06522335756239693,-0.1621888555490888,0.006229120227739408,0.02305822667987065,0.0033358515619653054,-0.008333299060386963,-0.00477441090962565,0.2734375
0.13172679386595118,-1.1432076436247516,-0.8338671829913888,3.8412737862736783,0.15607728208012625,0.10676265035993789,0.09890802432846775,-0.7285100438000228,-1.8374780277961318,0.07112450662217609,0.2535301418385725,0.037781740207840094,-0.09694735708312836,-0.05930273954781255,0.28125
0.2528050127848046,-2.191525616948186,-1.6004579879329328,7.370463106074872,0.2985880067483281,0.2059477364344859,0.1894134642915649,-1.395436805652912,-3.5226745560212556,0.13643039672469215,0.48519590043622096,0.07245058649393545,-0.18608031184371832,-0.1141519764734329,0.2890625
0.22736975430181067,-1.9724422598638875,-1.4411381274461845,6.637656575201835,0.26882368363808035,0.18519929135222643,0.17065576568358717,-1.2556969560218727,-3.1696558178241774,0.12280379757729382,0.43659301323364325,0.06521379195455422,-0.16755106207081055,-0.10269809365521476,0.296875
0.06875990043591247,-0.6003562872182916,-0.4384549278429193,2.0245409816879683,0.08238080445496042,0.05533018466315747,0.052353781199717654,-0.3825175924254285,-0.9632129523498569,0.03735455667811864,0.13325045176009548,0.01983648935457992,-0.051007528386182416,-0.030928146450170446,0.3046875
-0.07493958039510194,0.6443344695702222,0.47173816281461683,-2.164506584413637,-0.08669339448803441,-0.06237851976030373,-0.055093549243598695,0.4089460530274291,1.0365572805948782,-0.04013548813793486,-0.14168363463919031,-0.021315975508368203,0.054803609699580556,0.03417019190575031,0.3125
-0.1487533662528137,1.2847535717738547,0.9398744880697942,-4.321418680857308,-0.17368492135855249,-0.12281165078168182,-0.11040027956489139,0.8158540218258633,2.0640019835690735,-0.07996972081341197,-0.28304638818881983,-0.04246066480711033,0.10928997964743871,0.0676454344924489,0.3203125
-0.18107076855319235,1.5646674814143138,1.1439764753837927,-5.2615018014515,-0.21182305374568983,-0.1492103116233577,-0.13450546688862153,0.994209883822459,2.5135175444540514,-0.09738328167119017,-0.34497997667584196,-0.05169011157362572,0.13309496791726275,0.08225753473129356,0.328125
-0.14070053735549545,1.21428345408581,0.8878226756744543,-4.081763082743636,-0.16442190121273972,-0.1161200546630182,-0.1042698539737567,0.7721792635680528,1.951972077323364,-0.07559882095511224,-0.2677885326421229,-0.04011477850326248,0.10335337356676293,0.06393654180715756,0.3359375
-0.03611903017541722,0.3086298484433549,0.22646487523288433,-1.0404897018776678,-0.0415526403401029,-0.030517726815671536,-0.026256791295274876,0.19652391633826288,0.49805670497707166,-0.019257239314023206,-0.06779572838186242,-0.01019812632745647,0.026493143666354996,0.01662676254096726,0.34375
-0.0008631054682289573,0.003961226270572888,0.004085024212460088,-0.021469326230443515,-0.00020928183235318807,-0.0016856454315494435,-6.538760174863572e-05,0.0025308730153832545,0.008433383488299423,-0.00031916185869844865,-0.0004031258726320261,-0.00013421278589264342,0.0006746249861156537,0.0007387832358486466,0.3515625
-0.06204093350478659,0.5338213946526269,0.39113348451893004,-1.802284820854537,-0.07212714603885931,-0.051756030629946305,-0.04572758303781999,0.33939865931759006,0.8588059034543548,-0.03331067942695055,-0.11733137110118032,-0.017647571762934022,0.045668643154620964,0.02842129889960295,0.359375
-0.05574332467241374,0.47873829378579785,0.35092721293430573,-1.6129175659818236,-0.06458304822412443,-0.0465402165339485,-0.04091947032482021,0.3046101358665247,0.769796030308016,-0.029859634531087947,-0.10511453475734199,-0.015839220336657456,0.04094593568861663,0.025490743961027438,0.3671875
0.05006407939890394,-0.4379615679838851,-0.31860108770156487,1.4688743194707923,0.05993249513583032,0.04010503552485757,0.03810564773889473,-0.2781897131570353,-0.7022896802522958,0.027226577488058297,0.09733334289836418,0.014438278227755237,-0.03692584870121736,-0.022428113731880202,0.375
0.07474169446496275,-0.6516580514336703,-0.47464502672367875,2.184168426158734,0.08899929377684196,0.06023076589855958,0.05648001462614061,-0.4143979512546078,-1.0446836647212667,0.04051617435162384,0.1444903111209498,0.021495604186057556,-0.0550907848109023,-0.033542922089915835,0.3828125
0.006109864855814934,-0.056922584506336714,-0.04028242285436262,0.18676268628201562,0.008457675070431171,0.003933414218958258,0.005229788416018283,-0.03702616211182507,-0.08989209697823335,0.003476302399172377,0.01323884095933863,0.0018603022605477742,-0.004686035990158715,-0.00244553844620265,0.390625
0.05062831116086174,-0.4418739777257952,-0.32185246154333885,1.488482634396842,0.06108516628080282,0.040356851530887826,0.038539312058698684,-0.2827954772370059,-0.7104788271534257,0.02746478597852604,0.09853577330721851,0.014614170871805438,-0.037560067971098184,-0.022641590222975055,0.3984375
0.193628392535465,-1.6798244814350265,-1.2267740235287512,5.655073829799301,0.229373921267709,0.1574887368550409,0.14537471237631147,-1.070522079948441,-2.700753668054424,0.10457719407545954,0.3721577156009998,0.055548372560888286,-0.14279329099900823,-0.08741501542708183,0.40625
0.18000160510987498,-1.5616229824137293,-1.1407674973290909,5.255646126367721,0.2131665453228688,0.14637095550250015,0.1351801310310231,-0.995114730920169,-2.5107466932827855,0.09724193012795411,0.3460077198217439,0.05164619120115673,-0.132658212856409,-0.08122315340563276,0.4140625
0.004069439070317144,-0.03806965552019024,-0.027482147926575756,0.1290757608532573,0.005956441072521004,0.0023244134813093127,0.0037499363309006434,-0.02552416609979314,-0.062206161273873475,0.002379443729542278,0.009297509081122843,0.0012831657641854213,-0.0030791389082230115,-0.0015402294049467634,0.421875
-0.07371851035959107,0.63502706598813,0.46480679925129065,-2.1367800231736993,-0.08570764321918511,-0.06135722066889456,-0.054341676244919035,0.40343050655256607,1.0205466191828225,-0.03956888127530668,-0.1396341088462747,-0.02098562901685597,0.05418803108863757,0.033669935573723934,0.4296875
-0.014295085649966933,0.1196150650684223,0.08846026470056347,-0.40572456645989696,-0.015849543172226314,-0.012665381762867028,-0.009927871324087931,0.07632170236588609,0.19392188333635133,-0.007519288082412239,-0.026025261834285697,-0.003968009810965491,0.01041410122000931,0.006744630945689181,0.4375
-0.02148105585048817,0.1820082867643824,0.133815016669234,-0.616650335084513,-0.024315986834250857,-0.018512211247917888,-0.015318773547430265,0.11583411747373452,0.2939646840690829,-0.011378789752943699,-0.03981683476229396,-0.0060178219767780105,0.01571265849828071,0.01001067524328799,0.4453125
-0.1195455970910397,1.032313937791175,0.7549056402588638,-3.4751644250940803,-0.1397075584865709,-0.09878392790895592,-0.08862928856367752,0.6559187579156072,1.6585761956302993,-0.06424900161050816,-0.22743105669772665,-0.03409947343378411,0.08796211751477177,0.05443820212011161,0.453125
-0.15472403291156744,1.336916139094519,0.977648890874422,-4.497844194409086,-0.1810781582429778,-0.1275738848198661,-0.11487864096555966,0.8496463393266946,2.1481142804010687,-0.08320510767444873,-0.2946453357119291,-0.044175589164974695,0.11384207796228155,0.07034900164648397,0.4609375
-0.11717001693042825,1.0100608344676834,0.7390716637866048,-3.397623024872903,-0.13674829803838254,-0.0968374392589245,-0.08670512970328721,0.6424802714404505,1.6250102976131222,-0.06292168797958278,-0.22261224511489838,-0.03339857261426494,0.08604024749373908,0.05329066274959287,0.46875
-0.08763168236284118,0.7532884035630323,0.5515051349230481,-2.533364739969579,-0.10175514535002961,-0.07271151334056367,-0.06459998517857647,0.4791876448772101,1.2130963448269265,-0.0469607147120144,-0.16592390845935787,-0.02491425400548571,0.06416677768001658,0.03989562057057617,0.4765625
-0.030456363762918562,0.25879652725770597,0.19026489720849524,-0.8696903586257054,-0.03434763911491054,-0.02596772091465555,-0.02198200731334565,0.16390446200404432,0.4174171500860015,-0.016125438604884225,-0.05648711728683071,-0.008562840016631126,0.022112453754190558,0.014032038860355043,0.484375
0.07797102428948648,-0.6797060875322841,-0.4952362878421261,2.2865670566651395,0.09315392317646526,0.06279009349906127,0.058952777960719786,-0.43308477289647623,-1.0906446972213135,0.042316439900768596,0.15089126202344724,0.022438606595716608,-0.057624433933788036,-0.03505887438429633,0.4921875
0.13867133511872534,-1.2054931350906744,-0.8792741191117063,4.053671358555106,0.1644192696571271,0.11250757868819622,0.10431282507641408,-0.7669057149392169,-1.9350293537692214,0.07499311116538455,0.2669156167663556,0.039800017773403217,-0.10228004838460561,-0.06255686677703186,0.5
0.12387838403630541,-1.07632215940099,-0.7850771039405083,3.616840461733764,0.14690658410708293,0.10038796747478546,0.09320852655982215,-0.6851263304314023,-1.729298124655784,0.06693651048555306,0.23847081152218447,0.03555752289694876,-0.0912980064918462,-0.055803587268192116,0.5078125
0.11470620642213344,-0.9948760287728667,-0.7259949564092003,3.340561534206074,0.13599297943486136,0.09285334148776758,0.08623503023684577,-0.6344961858399316,-1.6009291936832528,0.06192980893933111,0.22074056799529515,0.032911173523151316,-0.08435578714041315,-0.051542883082066,0.515625
0.08650711831594585,-0.7501637478202122,-0.5476771958240907,2.5177028870106453,0.10262661673121441,0.0697985625347301,0.06516418868581685,-0.4788816803854108,-1.2073842699777364,0.04672435111167895,0.16664260217815263,0.024841056417307123,-0.0635106758084291,-0.03874663087427018,0.5234375
-0.030970660192760346,0.2658908834101407,0.19443991628787008,-0.8971891458678315,-0.035685293429969706,-0.026290482028417973,-0.022477151616662413,0.16854015102040618,0.427185213692111,-0.016588638218693576,-0.058111980328299895,-0.00874937269311202,0.022849553017258644,0.014367819716004676,0.53125
-0.12263825431633148,1.0584243001930898,0.7737913235299352,-3.5623015058806096,-0.14337001966598145,-0.10127602467607245,-0.09089363083344705,0.6732808421618955,1.701404119573934,-0.06599397841852234,-0.23328064650162175,-0.034967898469300984,0.09015818800553783,0.05580393992871923,0.5390625
-0.057983749386369854,0.4975574742294898,0.3647221637827534,-1.678355992843613,-0.06702197108929613,-0.0483567742312315,-0.042612620243450854,0.3164960493316427,0.8008176945588602,-0.031100357901068704,-0.10928633524719228,-0.01647403088425904,0.04247149333769297,0.026511086404966598,0.546875
0.027695933843022897,-0.24541317223125578,-0.17774355874208947,0.8205776512178058,0.033889120914280015,0.02174067563138807,0.021419884443506267,-0.15585640248141533,-0.39159507526328596,0.015157998189424173,0.054766364945026486,0.008054207263129798,-0.020642429721278978,-0.012311771632770793,0.5546875
-0.033682972084681434,0.2862253840285927,0.21023238312676487,-0.9627077553094803,-0.038383121898519126,-0.028537819513733964,-0.024364452157077072,0.1822652223652186,0.462199963405682,-0.01789105968513231,-0.06278533887323057,-0.009485599827548633,0.024523937058061697,0.015447403973190088,0.5625
-0.11075806480299474,0.9552015194490303,0.698346669775372,-3.2088894622550552,-0.12903022748749549,-0.09164049629028162,-0.08192900623967518,0.6066897128974954,1.5344420159812213,-0.05944524376178593,-0.21036271182316937,-0.03154613114067411,0.08128252501815122,0.050372952883201316,0.5703125
-0.020804347098232926,0.17708120254049978,0.12983860816038933,-0.5924326125229572,-0.02304242969478356,-0.01800757969459947,-0.014752048052479406,0.11074200703639789,0.2832903227247391,-0.010944154985164779,-0.038167962278814,-0.005831627680561593,0.01508470554256695,0.009695743358481128,0.578125
0.10814225740984809,-0.9402175357154079,-0.6859874391096511,3.164774550649578,0.12869214513456925,0.08750195071697846,0.08158326391243163,-0.5996907723491569,-1.5099789690139669,0.058601547811117136,0.20862416333894535,0.031065059031817107,-0.07983689401282544,-0.04868745223335913,0.5859375
0.07029166166672957,-0.6127072237268473,-0.44647197600334865,2.065027623968969,0.08397902265016809,0.05643047931038235,0.053307363132990976,-0.39075250163381914,-0.982758802254301,0.03819805203758121,0.13603005444256905,0.020249503432709516,-0.05193435127430339,-0.03156696594724229,0.59375
-0.045814365647523086,0.39363449898924757,0.2886287382577732,-1.3199253948782312,-0.05280016967108576,-0.0386424300396694,-0.033481624691327184,0.2493808187939633,0.6328155375118814,-0.024449843737421754,-0.08636291137008287,-0.012981874487833469,0.03362348395665653,0.02102871181078494,0.6015625
-0.0436193417952011,0.37502132393227355,0.2748790771140662,-1.2615302012482612,-0.050272258127548194,-0.0367503754462989,-0.03190145678958059,0.2376621034556946,0.6021940619553648,-0.023346970509613364,-0.08217552171721258,-0.012373796145222842,0.03206244956078497,0.02006555962770336,0.609375
0.03091565889900205,-0.2711445358704523,-0.19729894415277718,0.9081271221131922,0.03739746907047826,0.024384631534133283,0.023761260145917923,-0.1726785140225097,-0.43498912089197167,0.016781523775933244,0.06056838002689913,0.008959784839946121,-0.02281475938392847,-0.013692290381786588,0.6171875
0.01878595417692784,-0.16662934593491874,-0.12097293138791383,0.5551694976206986,0.02309320139533905,0.014475519590540682,0.014698933527272756,-0.10581997881554539,-0.26643512943625514,0.010254741604162865,0.03737860483878011,0.005507270546472344,-0.013897910893850528,-0.008208692980619936,0.625
-0.05167787208564713,0.443677686086089,0.3251514742973374,-1.5002027088574357,-0.05981485220722069,-0.043236362884435074,-0.03795487183587203,0.2821860873868351,0.7137055477685601,-0.02767401951823811,-0.09750578046351781,-0.01466539881330542,0.03799427489171263,0.023719016588491737,0.6328125
-0.052478876132396025,0.45067571339181733,0.3306588275196797,-1.5270848362450662,-0.06077785964999933,-0.0438501705313249,-0.03856811985414998,0.28663197069555035,0.7246309806428229,-0.028085892957653354,-0.09900320208134113,-0.014927080803203697,0.03860765553757501,0.024086359983912505,0.640625
0.003074940340284913,-0.030416467668008627,-0.020735251959455605,0.09219440710908355,0.0045423596202026975,0.0016971519250723447,0.002939097099769427,-0.01913579324282036,-0.04852798921514275,0.0018103424213110372,0.007390985876917517,0.0009567145071296498,-0.0023065277159913084,-0.001108065487803935,0.6484375
0.024882558234518577,-0.2191634187283001,-0.15883746019853504,0.7329876415103593,0.030304608014616877,0.019508468577880005,0.019256515626255407,-0.1394346057944163,-0.35222093341983024,0.013531062628043647,0.0491732455341021,0.007220610387010755,-0.01844495602256722,-0.01102113867331796,0.65625
0.030114744064895053,-0.264677516140256,-0.1922284988242332,0.8914254847918364,0.036751522036378825,0.023651386287041234,0.023191380739249277,-0.16911266278046033,-0.42504953292436815,0.016404588600216784,0.05923561887957915,0.008754972608112515,-0.022410884746837705,-0.013391135202051912,0.6640625
0.08011463780882869,-0.6979394632575748,-0.5090287877876655,2.3510710063421305,0.09577655684336439,0.06447914548418801,0.060553104175966946,-0.44534744703800894,-1.1200057517912403,0.04342164107346683,0.15495698930011995,0.023084216276749663,-0.05926470403596273,-0.036004761412306026,0.671875
0.12314008862227863,-1.070005508610684,-0.7815096259014244,3.604071387544175,0.1463030257964436,0.09967820278968825,0.09270759091055024,-0.6824519981361119,-1.7175338477941071,0.06659653006515269,0.2372129368858169,0.03539258436579797,-0.09088537497527745,-0.0554557011349333,0.6796875
0.05272769583941032,-0.4595896154999982,-0.33590826286815195,1.5518632428376617,0.06325840832853243,0.042047449318341396,0.04016613196120863,-0.2941881776153789,-0.7376577211074484,0.028598993956147692,0.10232569009505334,0.015226883012932218,-0.039003746234066335,-0.02356876358905545,0.6875
-0.11293400788242705,0.9741447089056908,0.7121956429110824,-3.273029615117799,-0.13174275587547635,-0.09351131395848968,-0.08349206248434206,0.6188416765084799,1.5661208961509956,-0.060662705350928756,-0.21467997153866514,-0.032188639769559636,0.08291924721583074,0.051396420745169626,0.6953125
-0.21379556509027894,1.8458686199417447,1.3499837975704008,-6.210994979232745,-0.25046652485911874,-0.17595384417600424,-0.15880125787437047,1.1749542211627257,2.968253557831867,-0.11494849359827221,-0.4075406807849934,-0.06104945554365952,0.1571647691624126,0.09701431288473703,0.703125
-0.130410949348814,1.1239103512342716,0.8226122007450491,-3.7871455310471713,-0.15244644268554416,-0.10759549180290495,-0.09661715724806058,0.716029010963621,1.8079712627794358,-0.06997883279108906,-0.24796105547025293,-0.037190799952545074,0.09590730416835218,0.05927731323256142,0.7109375
0.051575388015743955,-0.44969790143389454,-0.32751568004731496,1.506588126621321,0.061699041059515694,0.04134641931006048,0.039148225687493224,-0.28650007087396395,-0.7236199390358571,0.028064303359246492,0.10011123754197479,0.01486648372852805,-0.037911769485912815,-0.023050636545608332,0.71875
0.1272195281504043,-1.1031269294541957,-0.8049730015887975,3.7085326223116084,0.15087740175255088,0.10316412571211243,0.09557907918183164,-0.7036007946673507,-1.775820230700879,0.06877204419479985,0.24478324173753116,0.0364895263882647,-0.09360738114863772,-0.057267235795483706,0.7265625
0.045899625412500235,-0.39965709924824216,-0.2908614694979973,1.3450613349447564,0.05530491790211417,0.036553036784709385,0.03492222560149994,-0.2559361747962689,-0.6440720356294977,0.02489732828477281,0.08929911603312797,0.013219355291031796,-0.03388960167219806,-0.020474306248205947,0.734375
-0.022941192522072634,0.19541271964924248,0.1435450381863227,-0.6560503119082818,-0.025762347737093162,-0.019773030424982126,-0.016404426395944763,0.12326934820342642,0.3142297476069032,-0.012222746974231164,-0.04236320807060812,-0.006451669609492667,0.016705824773631164,0.010676114402596214,0.7421875
0.028551474144684952,-0.25022790569539927,-0.18256039793839596,0.8428327845787067,0.03474637732440414,0.02239836135789942,0.022034081481078948,-0.1603280808626444,-0.4021561828986745,0.015544129755763048,0.05605683177854108,0.008314296857830335,-0.021159960200227798,-0.012625284891506596,0.75
0.08260889610725165,-0.7185139317700588,-0.5244599396431141,2.4162698214539873,0.09836727471839868,0.0666529356672424,0.062371815232232106,-0.45808911541056485,-1.1546612814189938,0.044705823812168456,0.1594689628488936,0.02379217475168341,-0.06095146153277726,-0.03710690362894343,0.7578125
0.03963633628862394,-0.34838720584136335,-0.25324442728182395,1.1669849816026834,0.04780697570038735,0.031487237273041216,0.030345649200323968,-0.22134370811644796,-0.5566304577307835,0.02156080510219416,0.07743389800408147,0.011484281462182012,-0.029425916714929574,-0.01768709531891089,0.765625
-0.008584921869816006,0.06788573852638123,0.05123477933010703,-0.2355228331239335,-0.00898709549032951,-0.008002868158692191,-0.0055939130129669095,0.04425914091089319,0.11505796898900068,-0.004427781512620047,-0.014708292441024529,-0.0023308892834136173,0.00601910861590569,0.004136190444601835,0.7734375
-0.007201409456983493,0.05759011435923529,0.04343366272924197,-0.19730608571845146,-0.007375674910244368,-0.006934186624987233,-0.004625411845523121,0.03655288620182214,0.09602098081178698,-0.0036939373373662487,-0.012194962701782584,-0.0019518574343055828,0.005119344430100467,0.003546670178377999,0.78125
-0.06008680231888385,0.517840815755609,0.3794888576659381,-1.7409136830934442,-0.06957629589890547,-0.05026001948469168,-0.04423977055636198,0.327931899369799,0.8309160380254283,-0.03221708890442285,-0.11356507050175815,-0.017098136273161993,0.044185191338184056,0.027515505480046307,0.7890625
-0.16424398224867728,1.4196002159785455,1.0382989545267,-4.7747815069382495,-0.1921630424526874,-0.13546585792853513,-0.1220286115649936,0.9019449968838549,2.2789667329483847,-0.08835533216714218,-0.31288482170058607,-0.04689597795505984,0.12084989402578528,0.07464753452654695,0.796875
-0.14046610473183002,1.21225172778834,0.8864988788358742,-4.080532445439435,-0.16426488238136258,-0.1159130261249271,-0.10419388370426981,0.771198063387467,1.9478340726778738,-0.07550333281872589,-0.26737336784220456,-0.040063172265209536,0.10328795078759614,0.06384727770919212,0.8046875
0.032019225856614986,-0.28167025690087794,-0.20527897434505638,0.9431412614308691,0.03866935111941798,0.025324375727656962,0.024640104472404136,-0.17888848096295373,-0.4515248046918774,0.017504481857923738,0.06264651887943529,0.009311400211019524,-0.023661649013763993,-0.014244386765916496,0.8125
0.1433249087958129,-1.2452315046634328,-0.9088874457136603,4.183384443852915,0.1697195585917471,0.11644479427864454,0.10774390841138841,-0.792117477170705,-1.999602451664365,0.07750433173627129,0.2757202099071386,0.04114289878712101,-0.10557545360187055,-0.06461941115960766,0.8203125
0.10707467833129769,-0.9313691558379854,-0.6791058419290954,3.1279175491493825,0.12721346627559033,0.08676941834672634,0.08069873882765835,-0.5927059884693858,-1.4951944924308551,0.0579470041932231,0.20653990216015045,0.030742420785097268,-0.07896500701939821,-0.04820634010728033,0.828125
0.05056199127699287,-0.44132671144869184,-0.3216539616162589,1.4852505487898435,0.0608545989921428,0.04046743295428436,0.03853867957066719,-0.28181619053007456,-0.7092621678721144,0.027469380787677977,0.09840475645474792,0.014578378701068213,-0.03743703444800283,-0.022627215295082343,0.8359375
0.027421838029807223,-0.2397965018602801,-0.17543515951788854,0.8144287219357085,0.03364523777536398,0.021424255885808513,0.02125176625874366,-0.15461331365176587,-0.38733684962985676,0.014988947816572486,0.05393686697400796,0.007989993970506233,-0.02037658830431391,-0.012138058777761843,0.84375
-0.020015235253297004,0.1706066064659811,0.12458175901034098,-0.5675794753465647,-0.022281694628299677,-0.017506231181217136,-0.014210623009453506,0.10671411827733793,0.27331155900373394,-0.01057993204145068,-0.03691368126605435,-0.0055716442985701276,0.014591292017565984,0.009367525794487956,0.8515625
-0.04858911210853923,0.4167624695335228,0.3055995694741611,-1.4035203792617499,-0.05597714109607163,-0.04092171237374115,-0.0355824928842473,0.26414490954992653,0.6715762216704404,-0.025982066204525655,-0.09148891297018227,-0.013772345611700033,0.03562066285281147,0.02232910807737708,0.859375
0.015053740353288728,-0.13402346434894077,-0.09628116969179408,0.4466671570898539,0.01896363438818551,0.011224463336144333,0.011914869810848636,-0.08648879856872871,-0.21384377389610307,0.008301893400303332,0.03036229391864054,0.004407061968427269,-0.011232328794352852,-0.00647707318753112,0.8671875
0.07014728397816035,-0.6100304482748549,-0.444370063838525,2.0512302272388987,0.08380079686662,0.05640485693527332,0.053055515840383406,-0.38969608958180196,-0.9808302474442928,0.03796409484586358,0.13577390198996725,0.020159869616612147,-0.05176007564987004,-0.03144341579011035,0.875
-0.012985879811275832,0.10896287639549597,0.08089608754383938,-0.3676262781597307,-0.014207146784534068,-0.011557016229591122,-0.008975545265373048,0.06901695656897894,0.17532299242873972,-0.006847097896161277,-0.023289862685673606,-0.0036202656563581338,0.009442654477411622,0.006139818192081291,0.8828125
-0.15043563482360797,1.297393064482933,0.9493775985909144,-4.369300407189565,-0.17616493462477203,-0.12398863642478426,-0.1115660683083315,0.8268025630011702,2.0872375901021174,-0.08088600443703037,-0.28632559226630333,-0.04293221647770254,0.11060159179232286,0.06831949111804933,0.890625
-0.17272327592673298,1.4905259089808516,1.0901177661577555,-5.018823990936662,-0.2024043948564747,-0.14219594923951684,-0.12821941402333076,0.9494801559534183,2.3969920859905796,-0.09285814363121633,-0.3290997260478659,-0.049289916344410545,0.12700723053545876,0.07840592398943015,0.8984375
-0.06980555000728236,0.600604319058007,0.4394760416073069,-2.022129968532622,-0.08112280513640778,-0.05799979383602422,-0.051424105173192694,0.3819495924312868,0.9651999954803306,-0.03740011286370126,-0.13221928387395804,-0.01983277809040191,0.05125748647556305,0.03184509286639042,0.90625
0.05469514907971257,-0.47736643414505187,-0.3478256096049057,1.6035042988215813,0.06555870978408329,0.04379108639169804,0.0414891893006843,-0.3044095634516987,-0.7664295213893071,0.02966962993778622,0.10613422083142007,0.015784414872783415,-0.040396974947731444,-0.024481802144722356,0.9140625
0.13337768862854213,-1.1589041464803826,-0.845499856930041,3.894300557501887,0.1582270830076343,0.1080883130583187,0.10021763231800758,-0.7381047098894493,-1.860708071535151,0.0720749800326563,0.2567540032263956,0.038292290981006456,-0.09830920926802801,-0.06007116811630076,0.921875
0.13615501607375552,-1.1819263980827368,-0.8629305988850494,3.9742417907533913,0.16148881699299694,0.11033810777267732,0.10230541340054451,-0.7534321259521204,-1.8993741118206717,0.07357988319713962,0.26191498323391854,0.03909427369524785,-0.10031803889128225,-0.06130376290281419,0.9296875
0.0679432500716214,-0.5904719029665099,-0.4313233860063917,1.9874673760217547,0.0811699763340221,0.054547999490900674,0.05141187304054935,-0.3775207971382778,-0.9504920557167161,0.03679957448017452,0.13128476291378188,0.01957985615114704,-0.05009858657026233,-0.030419310266677674,0.9375
0.014804139382093861,-0.1314492055460436,-0.09532711801515278,0.44039598605010755,0.018606273792810168,0.011101984852136522,0.01177565349668766,-0.08466695644895383,-0.21105855635923987,0.00816054200930177,0.0297928011257906,0.004356422853600438,-0.011025124333580398,-0.006383097774530348,0.9453125
0.042286420112077394,-0.370975979755253,-0.26955268557159434,1.2421385699254468,0.050973334466564255,0.03364721415314281,0.032352644885499014,-0.23615584455019603,-0.5933005162361625,0.02303071349124269,0.08266862633688819,0.012199338103393539,-0.03130165372579733,-0.018855303168591825,0.953125
0.05517736034925852,-0.4825375415193971,-0.3514252469238961,1.6204612415884139,0.0661765846121616,0.04426734851812497,0.04205649381154326,-0.3072590580493443,-0.7730749497334466,0.03002109429027791,0.10737992612701444,0.01589381603351793,-0.04081893946378709,-0.024725565478899442,0.9609375
-0.058943174777458925,0.5066127751936211,0.37051188070837615,-1.6999470684454976,-0.06815189723236585,-0.04910671079402348,-0.043124779016046555,0.3216388224255748,0.8138759075516779,-0.03153309789280716,-0.11117516401151344,-0.0167391854197066,0.043159281982086545,0.026902639731126637,0.96875
-0.19047513947474,1.6454665647075726,1.2028245322958222,-5.529934722318589,-0.2230131284638963,-0.15682176386111737,-0.14140918005434416,1.0465485933572531,2.643713749199628,-0.10248361783281203,-0.3629821419937117,-0.054370205102601474,0.13996730709945418,0.08643365682301923,0.9765625
-0.14500997598641607,1.2505556602454775,0.915177916146646,-4.207956991070512,-0.16955486521408403,-0.11968070603939816,-0.10755586116169362,0.7961133258142377,2.012073618067723,-0.07794822874568817,-0.27591949504294117,-0.041369223465844505,0.10652726114992574,0.06587069684210982,0.984375
0.026167265408982652,-0.2320759939279088,-0.16787139478192944,0.7740786486956401,0.031862326327587426,0.02045197309435943,0.02022595608540805,-0.14692637011045426,-0.3686501519279559,0.014358074156190677,0.05167156167498597,0.007610233836115848,-0.019404653379469325,-0.011588396011043813,0.9921875
0.09684491229857593,-0.8423334230719154,-0.6143775561234899,2.828200871618592,0.11497486939751747,0.07836823126878628,0.07296778018020522,-0.5359979905909775,-1.3522699845306831,0.05239347227540777,0.18672789080096563,0.02783333857177819,-0.07131578954037206,-0.04355082455123526,1.0
0.02592305991576482,-0.2256995079478339,-0.16435611096196123,0.7580514216136278,0.03145976162249656,0.020268754840858935,0.019923015208901478,-0.14505048858793895,-0.36619919872363216,0.014078814632511476,0.050738179995266405,0.007524055521023179,-0.01899300399518589,-0.011401226724995129,1.0078125
-0.03296888689729343,0.28507898777060797,0.2089090320859769,-0.9582489224241089,-0.037773923241426824,-0.028096713807668126,-0.024104724530527033,0.17894791563855686,0.4533043358784683,-0.01764553650119498,-0.06200836906221492,-0.009341198404102026,0.024375085750165677,0.01529904014392026,1.015625
-0.0282672938189638,0.24329987618565402,0.17860744800003087,-0.817431568772106,-0.03206067940095992,-0.024339585594646548,-0.020540939969042254,0.15224527241916608,0.38825098540550956,-0.01504695895217632,-0.05279258348002689,-0.007985872555245513,0.02079732153051221,0.01316929119512463,1.0234375
-0.027021328057825537,0.23129864021950075,0.16987225427114616,-0.776836866286617,-0.030469527589530674,-0.023253202199313566,-0.01952710552782953,0.14508931163653596,0.37051043381811444,-0.014394745875897301,-0.05017394090599541,-0.007609054632503433,0.01973727021036957,0.012564320698415237,1.03125
-0.01398451814240691,0.11740798525179952,0.08670930510625209,-0.395350019445077,-0.015124368207250978,-0.012474385042219118,-0.009732700705610607,0.07351984158368366,0.18882405747693193,-0.007406981088725673,-0.025129525145952156,-0.003867196199032693,0.01005069489750501,0.006623181596436141,1.0390625
0.04872194856912131,-0.4273154442104699,-0.3111224117758539,1.4337283262236247,0.05866561505680385,0.038897544670285035,0.03718333966837502,-0.27183437222731305,-0.6827814317232593,0.02646287255929992,0.09492885165293678,0.014088238009916373,-0.03619995238698973,-0.021790394362098498,1.046875
0.08213067926256884,-0.7182244155208974,-0.523717246936029,2.411503728284859,0.09801620435787102,0.06628005328481866,0.06224591917328065,-0.45600615926863775,-1.1468967399444963,0.0445818685606268,0.1589437997003436,0.023665678701824667,-0.06088514320615949,-0.03694838506217767,1.0546875
0.05027425142980478,-0.44211118770730534,-0.3222252534950094,1.4845531791637874,0.06047383080710953,0.040298885856865876,0.038485624637886684,-0.280248359747745,-0.7046535988166814,0.02742058794663982,0.09797412069823618,0.014547908438583152,-0.03739948121621572,-0.02256446995203563,1.0625
0.06262302372493635,-0.54763704783662,-0.3991972376458905,1.8391204045063798,0.0748277679631494,0.050493697444294876,0.047628319238494116,-0.347623168721565,-0.8779913886872686,0.034021557022208555,0.12148117045678462,0.018049832688129167,-0.04631210638549088,-0.028170527707155692,1.0703125
0.11770066929250082,-1.0237338858744085,-0.746564235793789,3.438482667360545,0.1395020841885155,0.09555917153417956,0.08866560731085647,-0.6506785363789087,-1.6444211334402141,0.06369555835347429,0.22675801045645325,0.03378072875848926,-0.08670186845812107,-0.05308785346693537,1.078125
0.043285501024850105,-0.37838253155279505,-0.2751746692542666,1.2699644557482892,0.051906403946993,0.03454063219777245,0.03302474313067806,-0.24085183279281888,-0.6081746115378927,0.023577637587359205,0.08425214903650535,0.0124840107769045,-0.03185988986028635,-0.01934997115156537,1.0859375
-0.13504588851233634,1.1678043989876679,0.853609706972322,-3.9254837710761206,-0.15796784260889146,-0.11154114748318371,-0.10022137568870455,0.7414232352007272,1.873546175375921,-0.0726127393725566,-0.2571525134319919,-0.038537299899640914,0.09947486926718856,0.0614551449181888,1.09375
-0.15481540715459524,1.3398991098592847,0.9790261946213437,-4.504000897764924,-0.18127198011547166,-0.12779232392377549,-0.11503017885529121,0.8503744692433663,2.1490333601605713,-0.08333381486170427,-0.29507738543435313,-0.04419496991686339,0.11407194819507463,0.07045551253498057,1.1015625
0.0005749237747161317,-0.007202028175792259,-0.004297778358432219,0.02198557688648665,0.001622216338530483,-0.0006193848858343514,0.001028297488642842,-0.005655719664064321,-0.012200035116449657,0.0004244337612761877,0.002355888039738522,0.0002653442012802751,-0.0003886558170519938,9.5465991632122e-05,1.109375
0.02692736558261948,-0.23679709146842248,-0.17135051034944165,0.7918940022827884,0.03272561302913484,0.020987653355097273,0.020731299395975945,-0.15092559092199873,-0.3787638290178556,0.014637716037916663,0.0529259267916264,0.00780582210178275,-0.019909908377333776,-0.011875641399575473,1.1171875
-0.15275030408841986,1.3196929614528459,0.9653154536701852,-4.440892304832371,-0.17864713356912665,-0.1260264195325431,-0.11344911243486878,0.8387039700182268,2.1200879902922902,-0.08222789953155196,-0.2908140865948608,-0.043606693672785225,0.11231563483583967,0.06946062568053775,1.125
-0.2332564592941737,2.0170045995612993,1.4742259288316053,-6.7847244578939065,-0.27325555394701706,-0.1919282023343245,-0.17352231031207718,1.2816352096841186,3.2394547233226914,-0.12558644721739096,-0.44473733461255827,-0.06663449451516322,0.17153211456517187,0.1059189818860326,1.1328125
-0.05584862545315708,0.4788940059151947,0.35090266249334895,-1.6118259107845578,-0.06422037591956684,-0.04679397825354857,-0.0409270633017538,0.3034520834119515,0.7715010081146023,-0.02985298857138129,-0.10507815557861952,-0.015843726773952498,0.040770887083058295,0.02557675683425082,1.140625
0.15415859411423102,-1.3407695389792793,-0.9782537946521462,4.510099287381401,0.18307855299932563,0.1250715341643307,0.1159571440403269,-0.8537756433592537,-2.1503161042383487,0.08340842935365048,0.2967564495694406,0.04428212607817937,-0.11393312211067881,-0.06954848553520329,1.1484375
0.20159254524991566,-1.7501170182527692,-1.277994186590565,5.889054653188213,0.23871871964817104,0.16400123461647814,0.15132492063301392,-1.114374032928904,-2.8112061682459566,0.10893551748773055,0.3872651826609766,0.05786461242522676,-0.1487148244369216,-0.09104004347040509,1.15625
0.17597930850314597,-1.5271990139499367,-1.1154235251807776,5.136296927895807,0.20823581105513578,0.14317084032144878,0.132136400080198,-0.9722840378215296,-2.4550086183213375,0.09508135381229622,0.33812389987522795,0.050506270350461326,-0.1296370019480478,-0.0794242372260977,1.1640625
0.17110743128859568,-1.486068819089189,-1.084351825055819,4.9914051754107085,0.20233815079084905,0.13919828263632214,0.12849330385510568,-0.9450641388740451,-2.385607317841169,0.09247468362140564,0.3289328789536219,0.04906612538601977,-0.1259798815059369,-0.0771944898495882,1.171875
0.09372400399936846,-0.8166126532261123,-0.5944116509859274,2.7375547970864575,0.11126845350025809,0.07577744128392687,0.07068792464243054,-0.5187693081667881,-1.3075449065601523,0.05077511941436307,0.1809041841028965,0.02689609412405072,-0.069034751094752,-0.04213890636697152,1.1796875
-0.09544796227890204,0.8231885213455199,0.6028704114011463,-2.772701120597772,-0.11138436189330987,-0.07911853487066127,-0.07062344000027425,0.5235031683785103,1.3237927310560769,-0.051263971085639744,-0.18128737974383752,-0.027229338004239646,0.07024675161222133,0.04352233836504796,1.1875
-0.21431852273231125,1.8542778628854104,1.3548080575305723,-6.233138527711458,-0.2512636710631335,-0.17642914497716375,-0.15936472132562413,1.178333045273129,2.976173756426213,-0.11541988410685142,-0.4088940385705363,-0.06121942290567858,0.15774005176270456,0.09733096499161649,1.1953125
-0.11978577778575576,1.0353419126994747,0.7560029760131697,-3.4747569786337693,-0.13983882472658699,-0.09907150933087149,-0.08867009333958249,0.6570296217645176,1.6605138204266212,-0.06444845321417814,-0.22788384941092024,-0.034143842385539004,0.0880433956602272,0.05450791110099926,1.203125
0.03538647539248292,-0.30980435963649455,-0.2263626536252363,1.046927382866339,0.04292581600699531,0.027953695769352423,0.027257082536098456,-0.19824497922566392,-0.4981396010698565,0.0192845858022203,0.06922452297234971,0.01027436441898447,-0.026244199358847035,-0.01575326514513383,1.2109375
0.01594396775447193,-0.1427476854033026,-0.10368871859895686,0.477841913362614,0.01996432025252514,0.012143044281927844,0.012709045847505042,-0.09089702087765059,-0.22787604749752707,0.008865190166343087,0.03212370631551571,0.004712534116621074,-0.011893784097852961,-0.0069569578037447415,1.21875
-0.12158056856803454,1.047039049296671,0.7661106547770846,-3.5290657508316414,-0.14202947443434794,-0.10030550794964639,-0.09000288359942409,0.6671221258757188,1.68507490295145,-0.06527020612268532,-0.2309218124796008,-0.03464931502018134,0.08932413966987522,0.055269642071319354,1.2265625
-0.11392390653017305,0.9804928144950442,0.7177562373748271,-3.30439953713488,-0.1329956398732131,-0.09402905442633852,-0.08428269592118044,0.6248230043203686,1.5788401276332753,-0.06117238492812991,-0.21619677018024155,-0.03246841026801802,0.08359769434390059,0.05177349937541708,1.234375
0.07777332702794151,-0.6782944172098653,-0.4941149266085229,2.2768945500304634,0.09269674700257591,0.06277488292947496,0.058791909027474915,-0.4315540425640621,-1.0872824959256628,0.04212676529872694,0.1504941942405709,0.02237518970026844,-0.057494588627913464,-0.034973205518620334,1.2421875
0.2010306323599067,-1.7441980799240278,-1.2726410058807978,5.8604604202429496,0.2377319922532981,0.1635255320623948,0.1507031655452291,-1.1105594691958365,-2.8011616174016423,0.10851884858726758,0.38611173373956714,0.057626908265196494,-0.14808649325573614,-0.09068796954854409,1.25
0.11372007427258667,-0.9875588763455221,-0.7196018253583807,3.3153423191452576,0.13496064561973362,0.09193388799875571,0.08544685462330442,-0.629501655191483,-1.586021353935373,0.06141198735278405,0.2189181323255524,0.03262765913195533,-0.0837554990757476,-0.05111361815724566,1.2578125
-0.03292634123683281,0.28292553274316845,0.20816224854855092,-0.951207736480272,-0.03747967352884648,-0.028193693663147362,-0.024029088558084954,0.17804473324965409,0.4535632272622744,-0.017626823103633713,-0.06170287683301004,-0.009327633736314591,0.024138974352737538,0.015261682173346855,1.265625
-0.08686960916357318,0.7510866921510414,0.5493752905252591,-2.518928707773797,-0.10083225394381261,-0.07236720634186342,-0.06428564768065746,0.4748962082210817,1.2029219480783848,-0.046650265498128486,-0.16494176089843854,-0.0247453663586221,0.06384540691624002,0.03966386145782699,1.2734375
-0.08896949346344588,0.7692595106958584,0.5625936140212867,-2.5822867739119983,-0.10344044144003034,-0.07399725403112237,-0.06584815616537312,0.4868176118462951,1.2320812719752317,-0.047751141376305394,-0.16895350920217292,-0.02535050235014013,0.06548195754777103,0.04061769045363196,1.28125
-0.08594845320251436,0.7416326450337204,0.5429751573677783,-2.4970507364104053,-0.10018631388435206,-0.07135068667766331,-0.0635368108653077,0.47103002830292834,1.1910491522867026,-0.04613981690460955,-0.16308537863709072,-0.024506578075495104,0.06331656596411155,0.03923974225840154,1.2890625
-0.027954155521415974,0.23816935116564159,0.17503548697810803,-0.8064182143983739,-0.032049641660978484,-0.023707098863182105,-0.02011739635856021,0.15198473688895497,0.3842986156008023,-0.014878412929256256,-0.05200124712549827,-0.007904719076381767,0.02058638997752734,0.012942250395475436,1.296875
0.0600106109029065,-0.5241344662586194,-0.3828037960578465,1.7607594185519178,0.07167308993893595,0.04836307568389319,0.045686913036439306,-0.33313598609397277,-0.8407893952534523,0.0326087839465877,0.11643222928808176,0.017313689952914702,-0.04428997729718732,-0.026925697054976605,1.3046875
0.07002232494022143,-0.6119031514638721,-0.4474261154369667,2.058937992518105,0.0837531862183793,0.0564948777192882,0.05325599288068619,-0.3893121753402487,-0.9808411564669121,0.03808853965259959,0.13572414769815652,0.020229765401934177,-0.05185429876241273,-0.031485101139731415,1.3125
0.03630576446575393,-0.321206621381385,-0.2347176433828858,1.0819879505601506,0.04420912885230341,0.028807098028605677,0.028123720957170785,-0.20411035553788928,-0.5113031719658193,0.01991569213298748,0.07127050368160176,0.010601758913173368,-0.02721076516244276,-0.01624453990414215,1.3203125
0.09430862155686347,-0.823363166447417,-0.6010538620132961,2.7706531936759973,0.11239296410270204,0.07627525931953609,0.07139713231486619,-0.523321612897974,-1.3180033344016464,0.05110774931582166,0.182161561250495,0.02718347334968173,-0.06991755400361559,-0.04252360261782673,1.328125
0.1817180293971159,-1.5790027635432538,-1.1525968887751958,5.3094480754315185,0.21506755459127808,0.1478571978630983,0.13654653059012706,-1.0041192865698076,-2.534306819309168,0.09815145981789536,0.3492706784922732,0.05215350563490025,-0.13409944976249624,-0.08208183801913117,1.3359375
0.09106929978864758,-0.7929568426256653,-0.5776559449444711,2.6609028270303545,0.1081611501993,0.07364406247074942,0.06869221085280615,-0.5040585549054319,-1.272634690374688,0.04923358827754846,0.1757328831042037,0.02616088153748114,-0.06717533066786895,-0.040989269661556284,1.34375
-0.14751573424355752,1.2741972733297926,0.9330064720804245,-4.293437373953241,-0.17279975322108493,-0.1216960220816883,-0.10963308791057204,0.8108140979068255,2.047629714054084,-0.07943531146456864,-0.2808789982082716,-0.04215150031399251,0.10860814165128345,0.06708083858970593,1.3515625
-0.26300183002026783,2.2761398071246557,1.6647487835561685,-7.659509312199966,-0.30870480772070197,-0.2162645413249577,-0.19598154539424037,1.447081350401071,3.6541939062354194,-0.14172126189868364,-0.5019687821523499,-0.07521042503276928,0.19373332296722634,0.11940072148274543,1.359375
-0.1584643517742367,1.3723061895951238,1.0038298973675193,-4.614593946661787,-0.1854175920027844,-0.13076668996536098,-0.11791482587798977,0.870412533398344,2.199044830984919,-0.08532187493505027,-0.3019323314894163,-0.04528591616398887,0.1167937659696851,0.07210573551214303,1.3671875
-0.015991084490125464,0.13797510245380082,0.10176521273628367,-0.4619865315715222,-0.017446152009488583,-0.014267239718609718,-0.011428966682839365,0.08446040413029375,0.21718586814964622,-0.008437680164401738,-0.029171933696159162,-0.004497683291458181,0.01180931396172753,0.007636955775114922,1.375
0.03217975073089793,-0.28109229779679096,-0.2043191265122282,0.9444461832174249,0.039246691639518154,0.0251064178939326,0.024639394546783742,-0.18112475365775468,-0.45186671560290137,0.017555859811294615,0.06308100035374271,0.009305885838954886,-0.023753173759445804,-0.014170057214443942,1.3828125
0.03995997225481748,-0.35024921937081827,-0.2547527185047394,1.1731080179350972,0.048126657367935366,0.03156814767024288,0.0305320423188132,-0.2232894919328506,-0.5597796356053081,0.021742082800553477,0.07791648886500054,0.011552653262282553,-0.029504330585282415,-0.017742571318660572,1.390625
0.053861825571780444,-0.4717505847956386,-0.3436396975901733,1.580868420828074,0.06433674273351102,0.04309510327789758,0.041023741744388706,-0.2994640590828397,-0.7538583639056943,0.029284461463606137,0.1045014385190129,0.015553689316766654,-0.0397815691489074,-0.024107358027419312,1.3984375
0.051589481678611195,-0.45240900097287967,-0.32983054808784124,1.5192290537964945,0.061835023024173014,0.04131458975825862,0.03942900963899511,-0.2873262372612759,-0.72296050141753,0.028140567526585416,0.10024938910641644,0.014921468256345263,-0.03822305915740397,-0.023125897366478278,1.40625
0.050262799184994045,-0.44046013551441077,-0.3214323487453431,1.482842772915245,0.060478722495676526,0.04025677985032689,0.038458903308638034,-0.28035499484161647,-0.7050330483769225,0.02742908412216406,0.09778972815056639,0.014544981504253178,-0.03731540145740596,-0.02253927688727164,1.4140625
0.06686591540189467,-0.5836891828649967,-0.42621685230175116,1.9646403689260332,0.07999655479483714,0.053882210126893905,0.05081985832502479,-0.37159638583193644,-0.936685072737819,0.03630313361645697,0.12954813594295217,0.01929242597721376,-0.04950749293734072,-0.030057166748065484,1.421875
0.047559457016593434,-0.416294162237841,-0.3039169389485437,1.400430244742595,0.057193023429477866,0.03809632220009849,0.03635695875444394,-0.26501017384889497,-0.6687076579916684,0.025839281589818706,0.09257616219788317,0.01377376839381761,-0.0352592253271971,-0.021317360025575237,1.4296875
-0.015273260083250181,0.12848959854011513,0.09417452179273826,-0.4301785812790853,-0.016709475554937216,-0.013375114365428577,-0.010651538744478087,0.08102670072803034,0.2054169963398227,-0.008047844988294592,-0.02766585690122098,-0.00420497082514547,0.01101851891782495,0.0071410058875483184,1.4375
-0.036363193726633644,0.3124277838883384,0.22891717722017038,-1.0471524316406804,-0.04152293702136732,-0.0307105539939027,-0.02652813268200104,0.19724892506347294,0.49971876196141524,-0.019453607777980976,-0.06805801938326707,-0.010275304794200161,0.02663090370901083,0.01672546216309246,1.4453125
-0.009784371495289865,0.08259013277218123,0.061661270804736996,-0.27727826634321767,-0.010414773125026635,-0.009012094201074424,-0.00672335843770057,0.0512083034554937,0.13134244936364173,-0.0051710773653093215,-0.017258298375349247,-0.0027228550432407237,0.007156218337836506,0.004729271900277319,1.453125
-0.02548781506308149,0.21716802096825913,0.16039175404320066,-0.7349929801575459,-0.029040010326301293,-0.02188527178806855,-0.018361630188155995,0.13794035392559004,0.350576783887146,-0.013617570032842566,-0.04734236088341265,-0.00722615648304169,0.018680388806764883,0.011840347922832782,1.4609375
-0.0581182110818565,0.49829520967197244,0.3656195657753598,-1.6823989965566257,-0.0673791636926073,-0.0485817383428493,-0.04265551772195796,0.31752076752578035,0.8041921565703013,-0.03114155359689154,-0.10977536082415781,-0.016523981553957054,0.0426058073925713,0.026594327009671466,1.46875
0.00013112325603504215,-0.0061603081902325725,-0.003114955188637011,0.013926039089586947,0.0012737952202324647,-0.0008996257984477628,0.0007911714223296873,-0.003583493556542942,-0.006576894552934302,0.0002881252948743903,0.0017224614328413292,0.0001675603130674981,-0.0002579336273749677,0.00023333853963749664,1.4765625
0.07689600287359478,-0.6702507522393519,-0.4881059218564879,2.246406349247249,0.09157210779297176,0.06190014091016636,0.058039644795479975,-0.42644522901959414,-1.074329876709959,0.041658565224971744,0.1486367334312515,0.022115373350071757,-0.05666733588095193,-0.03448970922137168,1.484375
-0.00033831089957447506,-0.0008778617853411692,0.0008826855284767225,-0.0027438707537773364,0.0006039880679665846,-0.0013346156969513993,0.0003873730936225989,-0.0008312039699967428,-0.00022751174846306118,3.571347177408366e-05,0.0007949317871065594,5.581545696962898e-06,0.00021974708244704673,0.0004647721911763445,1.4921875
-0.15794419764185277,1.3646543463886163,0.997769563086137,-4.5885956967804,-0.18480058032298455,-0.13027586848812267,-0.11722002050325882,0.8673655879422274,2.1909106860778964,-0.08489108240507941,-0.3008529387252415,-0.04506861247945001,0.11619119286354578,0.07176846197720206,1.5
-0.14737365909371036,1.2739192405654576,0.9307162523825918,-4.2788327985334975,-0.17216300862737743,-0.12155050977755713,-0.10927947754300314,0.8086994695399939,2.0432354169529376,-0.07919761855462726,-0.2805303500229448,-0.04203276214262788,0.10836958982346287,0.06698171593271555,1.5078125
0.03783816049659105,-0.32969638262691614,-0.24087632726068334,1.113183667429211,0.045969228739941095,0.030024482057450536,0.029006464483280172,-0.21227999675744305,-0.5321817163361698,0.020592621114771652,0.07410235558235917,0.01094017597348913,-0.02799121229436561,-0.01680954061611321,1.515625
0.1561539301295944,-1.3544347530439462,-0.9891307249855785,4.55790591177443,0.18521599454815507,0.12679668158937726,0.11730160896504416,-0.8642754688672267,-2.1772598100418916,0.08432977543328364,0.30055878403836495,0.0447815015342324,-0.11510400119720338,-0.07035455840210401,1.5234375
0.11678849804591257,-1.0139265979517575,-0.7400752989365035,3.413002043472048,0.13870918168498908,0.09458882730609217,0.08786735736501618,-0.6467499238901034,-1.6303679412500647,0.06311362761959374,0.22501636608621492,0.03353932802085641,-0.08611316718290161,-0.052594673197587365,1.53125
0.057095756515792705,-0.4982577527158791,-0.36298444727155604,1.675016264072234,0.06821402046320575,0.04580254987843557,0.0433177141072576,-0.31702375031521923,-0.8002580662970176,0.030975473657980677,0.1105978182364061,0.01647834419119396,-0.04214507980293207,-0.02561956890495365,1.5390625
0.046605586868325374,-0.4092775473178716,-0.2974475573605633,1.3675249729266814,0.055742473628160795,0.03720972385989685,0.03554542814062357,-0.25901846082482705,-0.6528465347325412,0.025360532375112897,0.0905463615981428,0.013469281465500712,-0.034439288309915515,-0.020837253683369358,1.546875
0.01657479757165957,-0.1498689816164758,-0.10773275442049536,0.4917708808575528,0.020446019810079506,0.0125370056268572,0.013141658456423925,-0.09392810689734374,-0.23398382932078143,0.009187324099972789,0.03313272376250854,0.004869185156686813,-0.012374762476274365,-0.007192631087677134,1.5546875
-0.04682440940033332,0.4001548881236258,0.2937637726301248,-1.3525030732589594,-0.05404559872451594,-0.03939890632278328,-0.03421359450793072,0.2550839692485667,0.6470209427265411,-0.02499105796095295,-0.08823767458864515,-0.01326111912572033,0.03427469479890899,0.021493093764672885,1.5625
-0.09385965252501449,0.8083014637056114,0.5915325188872423,-2.7186871829404953,-0.1092894246065137,-0.07783288919539659,-0.06931059526020669,0.5141666806195445,1.2999853815363747,-0.050350273068453695,-0.1782289045382368,-0.026712128494617862,0.06887423749767296,0.04273401700311882,1.5703125
-0.1277605188439122,1.101953664498757,0.8057810108467678,-3.704767570164241,-0.1491232634635811,-0.1054845968929972,-0.09458392789782383,0.7008889731009874,1.7714107712984046,-0.06864664697637211,-0.24294929759256298,-0.03642175673852305,0.0937998730091975,0.05806545432297701,1.578125
-0.13645276010129734,1.1780942231244194,0.8610836376636191,-3.96093600337103,-0.15936377229289633,-0.11254952463690744,-0.10111851065324452,0.7487708630100373,1.8924218686123107,-0.07338746947649562,-0.2594908842888267,-0.03892421819268539,0.10024972072997466,0.06202989935583631,1.5859375
-0.04727773410769645,0.4074051016953084,0.2979573257625145,-1.3679547330055752,-0.05445061539321252,-0.03957425119571299,-0.034634728210281115,0.2575174798609786,0.6514720738727096,-0.025364494330197357,-0.08886850829518665,-0.013420593929142658,0.03472386035852969,0.02168893217179781,1.59375
0.09694706968936054,-0.8415515016941951,-0.6139884367351731,2.832244668710355,0.11531629848690753,0.07840578569540678,0.07303129931998055,-0.5372170485478297,-1.3550357597405085,0.05239065607285869,0.18715532285530084,0.027840375493796365,-0.07141973181139415,-0.04360429838899426,1.6015625
0.12771813062029141,-1.1095051182245343,-0.8092354412792722,3.731701242981256,0.15157231976595595,0.10351565914798459,0.09606306617004536,-0.7069545223496226,-1.7827738157934432,0.0690154621739091,0.24609212518539322,0.036651293367915866,-0.09416079101864386,-0.057555637260912944,1.609375
0.04059644373317204,-0.355294246904052,-0.2585119765350925,1.1950157662282517,0.04896349827157417,0.032188194069616836,0.031010663416281527,-0.22678913681495524,-0.5706179530790113,0.022061759969943372,0.07921389373485992,0.011739557072676684,-0.030038513562294034,-0.018117430575413655,1.6171875
0.02074052672836085,-0.18200438419919124,-0.1325630015368899,0.6130005590889344,0.025490102972778105,0.01597011689870945,0.016114366713043643,-0.11704269845512688,-0.2941672533857983,0.011365680284318511,0.04094543115860375,0.006068423918824024,-0.015306120485004703,-0.009091894689111441,1.625
0.09129188662516051,-0.7928496798664751,-0.5787577682759721,2.66562867524915,0.10858763917590579,0.07371929268941597,0.06879137594250478,-0.505886385833459,-1.27488739880208,0.049449002626344454,0.17595381135321866,0.026251261904329692,-0.06721154126466035,-0.040990178800080795,1.6328125
0.07640690054231637,-0.6658670608242948,-0.48514538495450477,2.2347097005516874,0.09121143413817744,0.061486744873098846,0.057768046656815494,-0.42433607222033154,-1.0671855660546612,0.04147158555276401,0.1477469377919501,0.021979587884519213,-0.056389297046116275,-0.03425538844219259,1.640625
-0.030368285933606513,0.25753378402905414,0.19006114946178065,-0.8733571592191899,-0.034517463617240084,-0.025921914934348252,-0.021919319539566263,0.16403621070542398,0.4181761695948186,-0.016122052095344733,-0.056441880821342834,-0.00858790391691016,0.022132936659784948,0.014049973186783006,1.6484375
-0.0533124510257488,0.457151153987465,0.33566580166923493,-1.544817981143315,-0.061753148786152026,-0.04463203300091114,-0.03911503268760651,0.29107721442905976,0.7371983353943772,-0.028561680872696126,-0.10050296619450806,-0.015164620198228729,0.03912901267072588,0.024431345037918453,1.65625
-0.011229694555016172,0.09390210702072112,0.06967900277175046,-0.3217723765936855,-0.012307897171243429,-0.01011117559634283,-0.007726659740297786,0.05947575869829914,0.15157639414727891,-0.005877830405622597,-0.020114312164103813,-0.003116640715308854,0.008253236204824923,0.00539509930167098,1.6640625
-0.08443196604285287,0.7274458398678044,0.5321441282737058,-2.449640355570199,-0.09833325523891213,-0.07001593144550178,-0.06230861855107111,0.4624539591239462,1.1690776323118375,-0.045278217297324175,-0.16013053685865336,-0.02403365635591014,0.06206853146698767,0.038508557955116526,1.671875
-0.2084758058450704,1.8005686903543303,1.315987210711005,-6.0547846753561485,-0.24421492036287157,-0.1715715988188641,-0.154832509870167,1.145604098021945,2.8937847351290884,-0.11211968970382724,-0.3974171763385248,-0.0594947562118495,0.1532324556765823,0.09459856558476276,1.6796875
-0.13577338776359507,1.170697713183282,0.8556917613533026,-3.9335682755310657,-0.158618577915587,-0.11208703648925025,-0.10051663297430381,0.7449785653795926,1.8827853646430366,-0.07295479971129555,-0.2583265145248774,-0.038678872079471675,0.09963761597413293,0.0616573032577392,1.6875
0.10492077472989543,-0.9130836820685673,-0.6666328683417292,3.074500198676345,0.12474304437806553,0.08489605096253604,0.07918250037768247,-0.5813696134834162,-1.4644938553189562,0.05677284128028153,0.20225542597919285,0.030179078247121297,-0.07753250927946265,-0.047267641444762455,1.6953125
0.21686171218430048,-1.8815742409284009,-1.3738431705431646,6.329559786400137,0.256557790293644,0.17650235252545518,0.16270069390439046,-1.1982815939670421,-3.0219426722100433,0.11710131748916944,0.41654828562138047,0.06218142535803935,-0.15985127852381723,-0.09789729942565009,1.703125
0.09267815912871441,-0.8052355564313567,-0.5872285929274775,2.7077657994123623,0.11029702692602301,0.07487506320495009,0.06986032324352613,-0.5137237172195334,-1.2957767896786045,0.05011642005265261,0.1789198380090472,0.02662967170549239,-0.06830079772335299,-0.04166845541512947,1.7109375
-0.07357532208420338,0.6350363691492771,0.4647794638036192,-2.1363627547157473,-0.08552307833632626,-0.061185270732786325,-0.05436242677412711,0.4027258732372182,1.0166885364517477,-0.03954051250620289,-0.1393552060505026,-0.02093789143423017,0.05415737637838333,0.033597379688552635,1.71875
-0.10067958024437113,0.8695153336769045,0.6357665516846239,-2.9246893823155005,-0.11739793135641384,-0.08339401866269729,-0.07457090776641345,0.5519901224080803,1.3950375005218627,-0.054133513459737694,-0.1913108708723639,-0.02868800580585959,0.07405187312527234,0.04588835837776573,1.7265625
0.001575598652420293,-0.016621713873434703,-0.011391508956168575,0.05389937650833759,0.003039657016117644,0.0002831240342434496,0.0018538643787140972,-0.011611473643031448,-0.026443975280626072,0.0010157010678514455,0.004428239938746607,0.0005549639896810302,-0.001279601737605757,-0.00038518938525891193,1.734375
0.10933459545446962,-0.9502151485526549,-0.6928300136981341,3.1900607052219607,0.12980952004095683,0.08852099315542201,0.082310546567673,-0.605119898413692,-1.525779938970192,0.05909143320052668,0.2107303346372514,0.03136676962850992,-0.08054712727020932,-0.049172499964877624,1.7421875
0.0936822317051563,-0.8151816587408625,-0.5937886142665797,2.73377123312536,0.11132393011600596,0.07573233193061286,0.0705795362137453,-0.5187690470402065,-1.3084543111399625,0.050661859360766906,0.1808316140029788,0.026891611016695197,-0.06899008193015148,-0.04210398196482972,1.75
-0.04587629779434021,0.3924107049566656,0.2884621078661817,-1.3251313765528228,-0.05278631216854236,-0.038558455452935306,-0.03359062963373315,0.24960848663613844,0.6330948580603792,-0.024481982781479103,-0.08614680622158749,-0.013013733653305212,0.033612963636992024,0.021046180253383936,1.7578125
-0.12049540649719141,1.0380226025323265,0.7599010024031099,-3.491496723792893,-0.14044289536548604,-0.09969739840945892,-0.08921042826107303,0.6602365925653092,1.6709986230735505,-0.06462569590910286,-0.2288846086192302,-0.03434019882450781,0.08840015957995466,0.05478793608584235,1.765625
-0.0006819747166733553,0.001115958759648627,0.0018559884191904233,-0.0018287339902327087,0.000477733262635789,-0.0015897838502203076,0.00030001917867743483,0.00043191849932487116,0.0037992712321756115,-6.402658773636634e-05,0.0002689839271912212,-4.9133631182210975e-05,0.00025040638041541445,0.0005345694208601206,1.7734375
0.1314864899073545,-1.14229851345144,-0.8340455563978921,3.8420535393044197,0.1558163780387846,0.10667790500501478,0.09896884320576514,-0.7272247845375619,-1.834543246442775,0.07110707653937746,0.25299599907633763,0.03776098207668589,-0.09690237093017223,-0.059262022320407795,1.78125
0.05278634394711302,-0.4603373612873195,-0.33594461127625125,1.5466257942389863,0.06315902431770624,0.04229474046875511,0.040183198368908296,-0.29373526542289885,-0.7390017924830774,0.028660422882950468,0.10240248623201081,0.015225037477824402,-0.03894364618689474,-0.023592465528232128,1.7890625
-0.09464122694731063,0.8162769623258364,0.5968524517542925,-2.7460028820082885,-0.11024805851712532,-0.07837617408287219,-0.06990205153123147,0.5181288902659423,1.3116218541933375,-0.050796182659211646,-0.1795537788076306,-0.0269650639476948,0.06952567069882777,0.043142937124138234,1.796875
-0.04636053715778228,0.3982957305860888,0.29131639892392786,-1.3386676453906563,-0.05342481587390974,-0.03884456452979478,-0.03386109748533704,0.25223524232682126,0.6389937331370589,-0.024781042847639122,-0.08715661482063142,-0.013131906207127416,0.033992225430406836,0.021258686863804006,1.8046875
0.07703384540976152,-0.6702486765605069,-0.4895507504310542,2.254375867029812,0.09170586800844568,0.06214011552282118,0.05825758500667879,-0.42714423795520723,-1.077565913897184,0.041704685338880616,0.1487873387847115,0.022194041835678482,-0.05680335952140034,-0.0346013375881925,1.8125
-0.018242133124926677,0.1543491440244985,0.11329151267508969,-0.5207598739916273,-0.02044140358338378,-0.015914941071320826,-0.01290210343677946,0.09801027255159991,0.2487081037645719,-0.009681684049386111,-0.03362502961847816,-0.0050795949170373686,0.013296724551378935,0.008545946390252843,1.8203125
-0.22002634604556562,1.9014413203839897,1.3903610767310024,-6.39693605471354,-0.25786063095690487,-0.18113826767855068,-0.1635994514456034,1.2097149699779894,3.0558077927259397,-0.11848888752538665,-0.41966782994012725,-0.06284408537729878,0.16178496248707797,0.09988995818164281,1.828125
-0.1811763644355676,1.5653529970801823,1.1449110875112418,-5.26611882912971,-0.2121179833805021,-0.14934993442627842,-0.13462516680581268,0.9956207647220026,2.5146054901419683,-0.0975600025334359,-0.34525657588221487,-0.05173359085195637,0.13323119747658013,0.08229756495613835,1.8359375
0.053381528197519096,-0.4656557225908838,-0.3391715575956753,1.5636291090317846,0.06391899473234856,0.0426319424919134,0.04050511692872698,-0.29683959372996077,-0.7483150622202736,0.02893917090265081,0.1035675777828294,0.015393134039932796,-0.039353005418383886,-0.02386827287605653,1.84375
0.1389328927971858,-1.2071403332376351,-0.8806203030848362,4.0556132691072095,0.16465836747829593,0.11263929594361496,0.10441046815048081,-0.7685459228229546,-1.9375777994960472,0.07514264019319415,0.2673402115677103,0.039870428208701965,-0.1023516887047937,-0.06258556690584818,1.8515625
0.037479389962586034,-0.32923470473294597,-0.2386153340796397,1.1029224861233478,0.04539426264494063,0.029622785687468352,0.028681463197994136,-0.2099032846313984,-0.5261772920135979,0.02046728243546778,0.07338505096643483,0.010825808284472438,-0.02777249440703165,-0.016680230809463903,1.859375
0.012169235789329746,-0.109609964339763,-0.0782021303790567,0.366382814896457,0.015735820358782984,0.00898182739868071,0.009770563195631042,-0.07054766357636527,-0.17502836928057824,0.006780781610198187,0.025039279446829703,0.003581867668122743,-0.009180983169094083,-0.005245709212625941,1.8671875
0.121646279395579,-1.0564934433008168,-0.7708137942229898,3.5535639590770765,0.1446085428907236,0.09865603420276904,0.09149814780070137,-0.6736946477421141,-1.6984472134933633,0.06579075979199582,0.23442389506359718,0.03492128914769052,-0.08970931575970006,-0.054795959391196,1.875
0.17124955512892645,-1.485591515374111,-1.084956189432116,4.99786589590084,0.20287799433671005,0.13927820733153015,0.12857508033588289,-0.9469233083325955,-2.387835371878587,0.09255490639262888,0.3292250941350091,0.04912215068338851,-0.1261747434640369,-0.07723482421120323,1.8828125
0.0744156599984162,-0.6477736874448572,-0.4727483733552756,2.178948674465326,0.08871949600992676,0.060015173160427676,0.05634443174469689,-0.41320394648319864,-1.040098318257831,0.040332203600212065,0.14393713665693386,0.02141149415824483,-0.054925030537294285,-0.03341120730546592,1.890625
-0.06405696063787118,0.5504438759055729,0.4029765491173145,-1.852920691360279,-0.07438935786676593,-0.05333515986984328,-0.047029461373938444,0.35003208423016113,0.8858270387039591,-0.03435263846379944,-0.12102012040540894,-0.01820340472158443,0.04696597421503695,0.029246543959647115,1.8984375
-0.12919971217751572,1.1144697360185396,0.8149054630554845,-3.7499778621703,-0.15104497037048634,-0.10666490404805899,-0.09570633081058307,0.7091467716358955,1.791031159691136,-0.06943340331773977,-0.24577095541737226,-0.03681972098625932,0.09494182274079484,0.0587249496473484,1.90625
-0.0885260151149218,0.7626796512750227,0.5575196901141167,-2.5654893297558585,-0.10309903448051574,-0.07338281323098919,-0.06534968528348178,0.4851119164577041,1.22497337162719,-0.047442595754224444,-0.16804833006043637,-0.025166890665612552,0.06505230607918307,0.040326408564991416,1.9140625
-0.0073044844174708695,0.05941128265192005,0.0438526779082336,-0.20151126356193436,-0.007533591142259745,-0.006933928273513387,-0.004698159706822863,0.037668164175914266,0.09628132643242834,-0.0036901512334977194,-0.012610973302616277,-0.0019441830590966847,0.005286478133526766,0.0035938019892852576,1.921875
0.004104115757114902,-0.039644806572310724,-0.02782168936446154,0.12729374015943837,0.005765548041151133,0.002331177739467713,0.003764316113983293,-0.025141769171551802,-0.06077384126397292,0.0023499626085817875,0.009291704007177454,0.001282100189721159,-0.003098113606175821,-0.0015267503372358888,1.9296875
-0.050049499808281356,0.42938944361835085,0.31530821048068,-1.4513451740026266,-0.05801483314204204,-0.04206517293601539,-0.03674810063388076,0.27313741476532233,0.693058640420243,-0.026887442889446417,-0.0943453654893078,-0.014235252157286627,0.03678478540133497,0.023001862959943015,1.9375
-0.05737466683185188,0.49332904354504564,0.3617190974908204,-1.6606564371892767,-0.06649123327561542,-0.04806907051900543,-0.04218715997486968,0.3132861452496849,0.7939266040136733,-0.03077560105093829,-0.10842468655857228,-0.01631829199266405,0.04214711318017767,0.02627718208745631,1.9453125
-0.015906731927327077,0.1345290583251609,0.09900455704985231,-0.4476108248764351,-0.017468914516631063,-0.014090882348853914,-0.011118088165097545,0.08458114305769292,0.21572691536484515,-0.008358418995716247,-0.029050306588683322,-0.004425103259874222,0.011528565782435012,0.007456462330136385,1.953125
-0.018405861075491615,0.1560312941007312,0.1145701084944571,-0.520892020959892,-0.020301291000644775,-0.01610943972309546,-0.012967112425391468,0.09814004914469261,0.2500170580813454,-0.00970572371544597,-0.03371346998579337,-0.005130220561418228,0.013313556899566282,0.00859594868060104,1.9609375
-0.02770735910484506,0.23650039938420786,0.17355534093187863,-0.797041706579437,-0.031287583587453226,-0.02368343052942414,-0.01999244086512854,0.14929665518614776,0.3795343474452786,-0.014739094222716409,-0.05142471330494897,-0.0078028086817357005,0.020216663023475915,0.012847945149419102,1.96875
0.03453536018150704,-0.3021937772079362,-0.22003922635512427,1.0134265473017987,0.041872842463172445,0.027356036023143914,0.02645450360447815,-0.19347607682971982,-0.486544364216761,0.01881860442836954,0.06766277687063081,0.009999491649984567,-0.02551634313672794,-0.015333794819703707,1.9765625
0.07041711588538556,-0.6127013093774515,-0.4471107364067101,2.0610598467321513,0.08404971138325612,0.05681096049682298,0.05329984388471281,-0.39091132711191523,-0.9862695167788156,0.038172595978289335,0.13627804412370917,0.020273027926140864,-0.051926487264609765,-0.03162779871506244,1.984375
0.0023543646279051296,-0.02384731816784722,-0.016691660814913023,0.0805217034591733,0.003975925398681763,0.0010865996246053283,0.002504035544014496,-0.01593327478965204,-0.039487182775574385,0.0014866822294883177,0.006076072827240064,0.0007999265747852812,-0.0018866455310827925,-0.0008322423276194034,1.9921875
-0.018613378728999118,0.1566246942862919,0.115861069760249,-0.5315824325605678,-0.020604750769733896,-0.016159831398433425,-0.013176991919818143,0.09925656312704628,0.25285395505747915,-0.009801639257868158,-0.03393380346558981,-0.005211049412368138,0.01350008878868157,0.008694486953542255,2.0
0.07755135214654096,-0.6767153161555491,-0.49255751489677074,2.26935461390425,0.0926516453518779,0.06249281058582542,0.058625508100976685,-0.43080807355563955,-1.0845185996883526,0.04205957945364842,0.15011860472694818,0.022303033340655906,-0.05730786896789263,-0.0348275760208032,2.0078125
0.08505325875486427,-0.7412095278441756,-0.5399875046485957,2.4913900537145732,0.10144492524611033,0.06860385374161135,0.06424126245042021,-0.47204431522249407,-1.189078499671192,0.04610225485495698,0.16434121684153308,0.02446903435312343,-0.06284150141704398,-0.038257506355789714,2.015625
-0.060517362752625294,0.5201831689882092,0.3812021704027152,-1.7475356578703043,-0.07004391273036278,-0.05059630281299175,-0.04448985640547745,0.3302400232300284,0.8364875536383514,-0.03240441134580582,-0.11441163941964651,-0.01717507254412968,0.04434473340942874,0.02764303486299621,2.0234375
-0.09512822798636215,0.8202930375095869,0.6006006638643746,-2.7613982978388454,-0.11100312696007701,-0.07896880684328429,-0.07039912336361737,0.5212409584344962,1.3198974980012717,-0.0511071536584529,-0.1807534519621003,-0.02710665895857409,0.0699352407434017,0.04338701166975228,2.03125
0.06725476628228988,-0.5856500706430402,-0.4265638605788622,1.961900869855439,0.07990680244325195,0.0539690075080183,0.05083669019261196,-0.37294827642233186,-0.9374499098187364,0.036396648976803565,0.12993758100724717,0.019327814678568034,-0.04945392153310699,-0.030056882828840666,2.0390625
0.13173128686987043,-1.1437703531249674,-0.8351351902205473,3.841451521741415,0.15570990518709643,0.10681998267443003,0.09904373056224028,-0.72776377142455,-1.8350909544965492,0.07115150091123584,0.25330544887015893,0.037796470293487455,-0.09687557566539472,-0.05927073557936144,2.046875
-0.028197672605819006,0.24068268704473525,0.175532176100608,-0.8089725388077018,-0.0323844406325523,-0.024025390301538992,-0.02027933797606287,0.1532799834908845,0.38763488432240356,-0.015033448855571337,-0.05263420606421106,-0.007918482044121293,0.02072357322296843,0.013047854068340614,2.0546875
-0.1345193047032013,1.1603297097808642,0.8477597568319655,-3.900668518029463,-0.15722536909098123,-0.11102586454105776,-0.09960442667846531,0.7385038159475718,1.8653978766387789,-0.07231882470277393,-0.2558589466350059,-0.03833039655586358,0.09879964507912127,0.06112584640040692,2.0625
-0.02939543697430121,0.24991789547760832,0.18348637561335593,-0.8396290633615605,-0.033246030954490205,-0.024961109858755565,-0.021117940249904942,0.15888664992596593,0.40241877106668883,-0.015647853715224324,-0.054524624114310215,-0.008279276108648832,0.021338649004407205,0.013523338067033043,2.0703125
0.07345220067156293,-0.6392828326236959,-0.46609186312998896,2.1533169154457967,0.08789750141567748,0.059239440600675826,0.055606985905868656,-0.40783235026277753,-1.0295484784668845,0.03978830043149212,0.14226500004873416,0.02113193550107647,-0.05429839253234505,-0.03304035650761831,2.078125
0.03195816858672577,-0.27892209296173487,-0.20320758219186397,0.9429920821504437,0.03906494150228906,0.02528090262986798,0.024559213813845057,-0.1792841737471217,-0.45352459703719816,0.017444650859801354,0.06280782402088544,0.009263729806618375,-0.023661468040999736,-0.014251546060396258,2.0859375
-0.014543925715674928,0.12298690183925014,0.09078236194674624,-0.4136437896831571,-0.015704632973117954,-0.01279127816219357,-0.010175707063472693,0.07675244129415208,0.19417344702044756,-0.007583608740303035,-0.02614977434942641,-0.004048479214447437,0.010583579318517776,0.006832855828990459,2.09375
-0.009123699951860088,0.07479667308687525,0.056305479007763594,-0.25803451810879313,-0.009444039743143076,-0.00838910039095003,-0.006118626414146844,0.046889971527626355,0.1212039389360084,-0.004654746393006395,-0.01582777791931722,-0.0025112090565860756,0.006568204409276197,0.004425791566767649,2.1015625
-0.09087627890498952,0.7828531755679682,0.5734174148057205,-2.6388701520415094,-0.10579808668653597,-0.0753862157780256,-0.06717410638713489,0.497397798824779,1.2600335761281718,-0.048750406460862664,-0.1724946454139611,-0.02588986037061609,0.06674452598830603,0.041466918079266675,2.109375
-0.23295111620074374,2.0140734050724594,1.4720940804007767,-6.7748578729465745,-0.27301840346876205,-0.19178767777718786,-0.1732784782417886,1.2799703111279541,3.236350023161348,-0.12535769833424684,-0.4445393535105385,-0.06651414970150489,0.1713297836409634,0.1058027402780908,2.1171875
-0.19782510340628634,1.7099020028737504,1.2497291082760447,-5.751499797702949,-0.23160815983737135,-0.16310986692641447,-0.1470423365439646,1.0861838364484206,2.747666804622485,-0.10643327027134544,-0.3772569595545117,-0.0564659403753884,0.14545920918370467,0.08991801908460526,2.125
0.03891778432250514,-0.3411476599363487,-0.24808560034033114,1.1425353021154174,0.046954418277207415,0.0306776065632038,0.029755553591336446,-0.21787094081004568,-0.5447389454684358,0.021155799172612833,0.07590511365943187,0.011246686522402523,-0.028805781095769027,-0.017258129824034903,2.1328125
0.21282972481301118,-1.8477466756759777,-1.3483870560341469,6.208760594591441,0.25144642335291395,0.17309587485870262,0.15963087212564833,-1.1753381263170923,-2.9634862305791523,0.11486276548619674,0.40871106181841643,0.061002013231814006,-0.15679432282690162,-0.09603106926044283,2.140625
0.19925752798229346,-1.7299258867828966,-1.2625496003321832,5.816696763884782,0.23540405309528886,0.1620710903626431,0.1495171792102596,-1.100186645111943,-2.7757472615924135,0.1075373057095702,0.382713877277778,0.05713762456694267,-0.14679138332683522,-0.08994894105730054,2.1484375
0.14366321384526098,-1.2480315575060426,-0.9108907937847094,4.1987901833339,0.17006759642742575,0.11666224732424069,0.10803809025975133,-0.7939608602842924,-2.004227613544207,0.07761099339242541,0.27639014462861317,0.04124200319337059,-0.10587120795767804,-0.06482054618597112,2.15625
0.1185141974787918,-1.0302117621597704,-0.7519602592110766,3.4643191669695943,0.1405232076788002,0.09618334975585748,0.08926400949915707,-0.65537107612049,-1.655475611015255,0.0641118746783935,0.22835003183167366,0.03404252066023705,-0.08733413560537877,-0.05344264873453289,2.1640625
0.041038506694972936,-0.35946386680225584,-0.2618167602693568,1.2060397645546515,0.04932827035730863,0.03282532384875747,0.031360672659742045,-0.22835342125704766,-0.5776053382585781,0.02237045973883826,0.08013782473712706,0.011870405738086268,-0.030278256032620576,-0.018362313049537924,2.171875
-0.042355365517734105,0.36290477642911756,0.26628007754190836,-1.2223648636358002,-0.048708356240518995,-0.0354865382384852,-0.030966736292840594,0.23085554115772564,0.5831749205354904,-0.022604390181900854,-0.07940746955075917,-0.011996800242782395,0.03107336522459544,0.019409358502728357,2.1796875
0.0003013992735060234,-0.0058336937043572895,-0.002966449958922844,0.0201962228915397,0.0017130658782323583,-0.000686575017535176,0.0008859483522228188,-0.004783456868485048,-0.009773636902767925,0.00037079803322507177,0.0022211198166775825,0.00019663061274372609,-0.000380108562283437,0.00013709675378525399,2.1875
0.06545473589122558,-0.5696495893318635,-0.4151658801549715,1.9159171302920375,0.0784527877228154,0.05258452708594409,0.04957196933871728,-0.36401043771423375,-0.9163320401206071,0.03551175167140966,0.12681026021204722,0.018833923726608748,-0.0483283139344133,-0.029324450712157685,2.1953125
-0.04260442168884372,0.36558996291021173,0.2678777807830742,-1.2325924644623971,-0.048887669718217404,-0.035833401063942685,-0.03109564839029762,0.23162787965522844,0.5863739377275426,-0.022710046280121816,-0.0800543974288011,-0.012077834387364542,0.03124805551618954,0.01958668597021101,2.203125
-0.20929452807873813,1.8082414775794622,1.3219368494241635,-6.085604110026651,-0.24520768171133053,-0.17224924236935707,-0.15554139463617891,1.1502043171639866,2.9051821625828715,-0.1125855515773903,-0.3990099539510993,-0.059766512468844624,0.15390843796317827,0.09501589941447461,2.2109375
-0.19337431428145577,1.6705137910223569,1.221062984349159,-5.619199939708941,-0.22643128339553145,-0.1592738358029671,-0.14360858218358719,1.0622244051151772,2.6842976354803696,-0.10406541261226056,-0.36852874927259266,-0.05520604675586281,0.1421171413357116,0.08781096126158659,2.21875
-0.0878325519391733,0.7576444085911987,0.5533855875593936,-2.5452001332612286,-0.10214110508279359,-0.07296954742366533,-0.06478865872862381,0.4804384565498549,1.2166669207247756,-0.04721752593766269,-0.16667969002164637,-0.024993139194771617,0.06443858176514586,0.0400792407545018,2.2265625
-0.12272695471108694,1.0603660901340282,0.7743802005813473,-3.563250092294243,-0.1432613533468164,-0.10156404153532458,-0.09090211464624429,0.6728000987980817,1.7024195654904335,-0.06603482068152831,-0.23357548167977418,-0.034969271566509384,0.0902020404678428,0.055908960324733,2.234375
-0.18312255341936626,1.5826937949964222,1.15692241326776,-5.32272265581231,-0.2144674003732566,-0.15097779851988766,-0.1360532857554965,1.0058812300519115,2.5430407796430594,-0.09857770501252702,-0.3491038942397069,-0.0522686772676402,0.13469835688257076,0.08322802356341338,2.2421875
-0.026345529463891005,0.22426579750057982,0.16538894562159634,-0.7559826442489843,-0.029988722566989406,-0.022616884475916206,-0.01897961555515565,0.14220893276467525,0.36251778648768274,-0.014022969777930808,-0.048964988455281286,-0.0074332726486812176,0.01928465384304506,0.012217057299423587,2.25
0.21815149756793026,-1.8929932756900119,-1.3814914014454884,6.363919320419177,0.25786547414932887,0.17754257534435994,0.16359854912309252,-1.2050716737805858,-3.0389494880113164,0.1178517501850776,0.41895260603633877,0.06253049306553711,-0.16068916106356362,-0.09846698196633835,2.2578125
0.2639425807933706,-2.28947263651609,-1.671425543726496,7.695400130674449,0.31188136895692253,0.21505419739257453,0.19776518004574764,-1.4575394857234636,-3.6767775285532514,0.14258763636224886,0.5065858547006871,0.07565069481826188,-0.19439362862153414,-0.11917869338058838,2.265625
0.17235864035554016,-1.4971291543465433,-1.09218230047736,5.028466707486579,0.20411992181087,0.14011601089134604,0.129379011010946,-0.9528047177750099,-2.403414178811563,0.09319403821927871,0.33142959610397316,0.04943921236762693,-0.12701838645426533,-0.07774197130661636,2.2734375
0.17559860713462438,-1.5260473091433786,-1.1128477970035036,5.126266001498602,0.20787302652068104,0.14279570101178732,0.13184535620977433,-0.970307624285027,-2.4486746117455733,0.09488527264165712,0.3377587700293371,0.05034970656313168,-0.12945198008907136,-0.07926735564644717,2.28125
0.2117135056511017,-1.8385766099102865,-1.3415373519152123,6.180002909789679,0.2503102078579766,0.1723918704623701,0.15882011100906182,-1.1690614838304307,-2.950875616627499,0.11432905379606635,0.4068437706653171,0.060693845811575234,-0.15602293631815173,-0.09563609045852416,2.2890625
0.07113294209504814,-0.6199995103592282,-0.45218014474173734,2.0835745126472878,0.08478629203172877,0.05734029205301372,0.053791682404819206,-0.39445482719222885,-0.994792570887512,0.03852812266244569,0.1376367783117363,0.020492093196928733,-0.05247126040217808,-0.03194913098655304,2.296875
-0.17892616022707442,1.546400490817232,1.1300603245284313,-5.201250677698001,-0.20959640118668493,-0.14737209861532297,-0.13294822060110517,0.9833546553023511,2.4839630240430033,-0.09631452521847622,-0.3410429171280674,-0.05106207212142994,0.1316425614992695,0.08129109486520598,2.3046875
-0.28489686486499466,2.464060771766494,1.800725208928883,-8.285087513264802,-0.3343000993196765,-0.23417894236588033,-0.2120225736278642,1.5672292211269965,3.9573444218824902,-0.1534514101408514,-0.5438347038847616,-0.0814011399234039,0.20960748029084084,0.12923109808745734,2.3125
-0.1853415379103073,1.6013735421013773,1.1709445668236529,-5.38168581621829,-0.21696351883153311,-0.15273447125326522,-0.1376546368178471,1.0184748565379775,2.5712814202724363,-0.09972355752574061,-0.353253705458397,-0.05290672599484953,0.13624144703305696,0.08410746348651764,2.3203125
-0.042864242538945205,0.3672730855603963,0.26962912922333765,-1.2334608603844222,-0.0491583195681036,-0.03609488617635389,-0.031306257492310426,0.23320492366753795,0.5892646428211661,-0.022863954703595857,-0.08058561882000716,-0.01212329148742044,0.03134756421462468,0.01961960363429314,2.328125
-0.0003339670971702566,-0.0007828675101128849,0.0007492058596337812,-0.0009887703579239452,0.0007885787281827673,-0.0012219185905228182,0.00044422156245848697,-0.0011032402258521613,-0.001042473760676099,4.37796887294979e-05,0.00080745508147384,2.466821862257002e-05,0.00012133516037441555,0.00043870723162395275,2.3359375
-0.05057470676493909,0.4348214640313656,0.3185305221240877,-1.467676111033483,-0.05849266827835603,-0.04230237089267701,-0.036978871243791414,0.2757217519225693,0.6991227248331493,-0.02707360033330064,-0.09526364508109643,-0.01438804800870652,0.037166333169991655,0.0232401952291284,2.34375
-0.08348467427376213,0.7205122715475707,0.5261851176970413,-2.423811651872831,-0.09714064340236031,-0.0692564423334971,-0.06146816651915839,0.4566021015423911,1.1572121681797147,-0.04480420984124853,-0.15817545581835277,-0.023796980693080966,0.06134813130089424,0.038157508160736826,2.3515625
-0.02673774549383921,0.22971451137535867,0.1667338869227087,-0.7686118230900711,-0.03012493141007217,-0.02286661343451311,-0.019146447892911783,0.14335249577351344,0.3675391636886167,-0.014205306509569469,-0.04960869681100439,-0.007515644511866895,0.019508097097172796,0.012481399649974146,2.359375
0.05004811751481397,-0.43552985984156256,-0.31875307024512295,1.466602052330994,0.06032492330308888,0.03992742822398349,0.038046769225385864,-0.2797867513996664,-0.7008924551721188,0.027161189510924874,0.09730842655751948,0.014469065130615228,-0.037009387379178325,-0.022277653270473267,2.3671875
0.056112109757893096,-0.48962423847620906,-0.35655432977205687,1.642892664694822,0.06735481183486537,0.04485675392483491,0.04249980517276389,-0.31273756145464976,-0.785527716440808,0.03042815660582484,0.10897370838507965,0.01617684767883448,-0.041446192503026065,-0.02507040404306698,2.375
0.060163652458224304,-0.5263183017970327,-0.38225299225759907,1.7645133517128861,0.07199890982305195,0.04816505750598178,0.0455717518467362,-0.3345269775102155,-0.8422556413885125,0.03265934633934845,0.11672290841362816,0.01732583629182611,-0.044445557738378015,-0.026981556493795085,2.3828125
0.14732203956284604,-1.2812620776301762,-0.9341134462533467,4.305666095002723,0.1744866762915706,0.11953400930229718,0.11071194403290413,-0.8143275486694788,-2.0551154759673644,0.07966851265312383,0.28334528628584976,0.042290640463483166,-0.10860352549351585,-0.06647899215469867,2.390625
0.19091645222911588,-1.6580238213693168,-1.2098004690154016,5.5732307544718225,0.2256959097094302,0.15527093299498246,0.14324567852259557,-1.054228773996281,-2.6618502969068385,0.10313567162717859,0.36664458666741545,0.05477566755982206,-0.14063762709504685,-0.0862075134994768,2.3984375
0.06645745927111454,-0.5800435985499481,-0.4218084444970663,1.9454983922737974,0.07913398220056884,0.053438981975443486,0.05027656791253853,-0.3684134866270567,-0.9303076522570825,0.03601089985993255,0.1285463077901182,0.019134010372215984,-0.04899329380429352,-0.029855697001153366,2.40625
-0.05952846494736813,0.5106492210345907,0.37534930590450477,-1.7235290710623832,-0.0691812694573831,-0.04966736945468412,-0.04376454738011046,0.3256901315300147,0.8230178470327998,-0.03189686163513844,-0.1124631404377036,-0.016941333780028087,0.043715600965212514,0.027176032431366674,2.4140625
-0.017278010678766945,0.14506307027266394,0.10748700381305577,-0.49163597430835837,-0.019424315813140854,-0.015060521291211961,-0.012151001272268029,0.09285233748754154,0.23562176835137993,-0.009105135218992564,-0.03164291119010482,-0.004837221205730354,0.012596400808194403,0.008060344951783862,2.421875
0.013127942626207473,-0.11739562852469292,-0.08531378172778334,0.3947345521449339,0.01654411309631442,0.009856647301356814,0.010576061910453545,-0.0749723553444573,-0.18817303533200258,0.007281218149669723,0.02659012922756088,0.0038943552337227893,-0.009803473220318307,-0.0056840532345948025,2.4296875
-0.14966962203860412,1.2928686213754854,0.9446806607922571,-4.344425283514751,-0.17477133016438165,-0.1234187822634411,-0.11099019918749549,0.8213697872896185,2.0754075374528984,-0.08049371055164826,-0.2847660004243862,-0.04267724849471679,0.10994335775781246,0.06801629654349732,2.4375
-0.27599578452638895,2.3868775239054982,1.7440709985410359,-8.021096727921586,-0.3233311814041484,-0.2268976282142022,-0.20531500249749648,1.5170214287484294,3.8328097866529167,-0.14859996332320746,-0.5264737373049377,-0.07883152228041024,0.20285676957004162,0.1251976795501037,2.4453125
-0.1106180279530176,0.9549711564926505,0.6979936332677701,-3.2068143097985393,-0.12884592044746435,-0.09158093364596363,-0.08184903939064007,0.6060715603336394,1.5332394267620082,-0.059433053869048666,-0.21016959499989435,-0.031520158959825184,0.08120436522236515,0.050354802617247,2.453125
0.14251461666047832,-1.2366348775447318,-0.9030989785029878,4.158554556710742,0.16893235162669343,0.11564495447833043,0.10710091877945534,-0.7883875368761862,-1.987580464230437,0.0770553058729279,0.27416950054628403,0.040898127641759624,-0.1049605492660967,-0.06418194457790806,2.4609375
0.15303635850764077,-1.3273617562647926,-0.9693749951152917,4.46007562661516,0.1813646550675889,0.12430139382136614,0.1149222727833423,-0.8465916989627217,-2.134067109368717,0.08272790847850928,0.29441404711206737,0.04389070388956661,-0.11264898061958611,-0.06889717670994279,2.46875
-0.019112323362610328,0.1633817648887075,0.11956047635616365,-0.5523115385291014,-0.02122938754022907,-0.016623427772504543,-0.013576839639077964,0.1017520069171819,0.26099860543362385,-0.010115797409073354,-0.03500543866718714,-0.005378937412676215,0.014005564447888162,0.009035741334054445,2.4765625
-0.09759092771756325,0.8421009141567318,0.615645695149988,-2.8335205631023004,-0.11376742672444996,-0.08090229932353862,-0.07211902570303369,0.5345343018779029,1.3534101349603702,-0.05244462494172861,-0.1852997374293784,-0.0278316971544539,0.07171712794888983,0.044514585458227486,2.484375
-0.006929857972341625,0.055471001433334784,0.041964699392451316,-0.19088233668698934,-0.007211700147784714,-0.00668504726972056,-0.004439506920335855,0.035485789251019154,0.09218718608944065,-0.0035437035048706393,-0.011805064730836704,-0.0018815813544371123,0.004977736614143446,0.0034110846870094584,2.4921875
0.12342128325739392,-1.0741936561578134,-0.7824676995298329,3.603942033715635,0.1462116576405727,0.10005618536767386,0.09281396072939653,-0.682535164096751,-1.721829743376949,0.06673660220574223,0.23771488214628891,0.035422275035337174,-0.0909514593937545,-0.055623470137043336,2.5
0.14983636593560304,-1.3025108660669529,-0.9494118730177811,4.371245106536856,0.17729254979778875,0.12168695759359768,0.11248786605364995,-0.8279393554959541,-2.0894249547447887,0.08093824192625185,0.2881826244684867,0.042984952732583105,-0.11036359253893901,-0.06756597423409207,2.5078125
0.033051784526588204,-0.29061713738873585,-0.21071994167260194,0.9718642960214038,0.03979887062871298,0.026069775772275004,0.025328338528210727,-0.18439030248969665,-0.46451640540891254,0.017973974603673892,0.06457397113472649,0.009578921634486547,-0.024406027962200365,-0.01469417809583368,2.515625
-0.08122478582059212,0.6988879972967477,0.5118463466151516,-2.3509465392208395,-0.09455287023923513,-0.06745925183097838,-0.059899755443143514,0.4449295315315053,1.1244786498392807,-0.04356863581847892,-0.1540379585171703,-0.023096218239817792,0.05962566387313716,0.03700414126809134,2.5234375
-0.019879340707580847,0.16778122009653537,0.12323912142082785,-0.5605696804958328,-0.022036594360079823,-0.017190919427095674,-0.014027773249258626,0.10635450680994354,0.26942974965469935,-0.010449166990839347,-0.03650360088801062,-0.005509779165412715,0.014377382046856823,0.00920643743861033,2.53125
0.09279599134224896,-0.8071074480250344,-0.5899578827587976,2.720633312200029,0.11074450481048724,0.07506358190028183,0.07010315164472412,-0.5147794091347131,-1.2986960119553597,0.05027756057579249,0.1791052742026165,0.02674891571264257,-0.06857916040735926,-0.04178386998710643,2.5390625
-0.013123214881585214,0.11058139722181445,0.08024803278526564,-0.36547115151770676,-0.013999281143726372,-0.011682100428339283,-0.00899580719254111,0.06873831780592704,0.1757170568729161,-0.00684359707374668,-0.023626988453942985,-0.003579513947576887,0.009393239629658497,0.006193130484243701,2.546875
-0.22940378528067268,1.9830697661351595,1.4491604974838517,-6.665035379029257,-0.2686823478842212,-0.18879660359076658,-0.17048131406332762,1.2603132147121376,3.1855622928172966,-0.12343656147942005,-0.4374233851647439,-0.06551320900348022,0.16858063348568844,0.10410899250680461,2.5546875
-0.18321913961104122,1.5828993985000854,1.1576933474975097,-5.3228556000632805,-0.21440526935341978,-0.15104958791818965,-0.13603735777910975,1.005954427236733,2.5434914774941677,-0.09856050295739414,-0.34897872841804367,-0.05233517536535634,0.13463795915848883,0.08321631627547435,2.5625
0.09552324513291476,-0.8303707460447112,-0.6053394394621533,2.7894079020626665,0.1135582551468893,0.07710860131548557,0.07198014440761955,-0.5293667322079354,-1.3337768091656546,0.051664261756072395,0.18434397564701188,0.027412361685198026,-0.07038084680366345,-0.0429245224509672,2.5703125
0.202650837856318,-1.7576483058041725,-1.2828906450991087,5.904965089786143,0.23950823518230915,0.16484374848744932,0.15187561314139283,-1.1190917608374211,-2.823402627446507,0.10940766783681122,0.38924681432822383,0.058064479722038695,-0.14909508068070768,-0.09138469033505348,2.578125
0.06241941159387056,-0.5436689922732487,-0.3955551950636559,1.820089336610172,0.07435212976607437,0.050107132797558226,0.04715593512753434,-0.3461825446803159,-0.8722248227570486,0.03382462701486949,0.12089288608047706,0.017934311340193576,-0.0458448504702661,-0.02790546583220113,2.5859375
-0.016123129625697123,0.1357734116498171,0.10133729827967859,-0.46650854581772316,-0.018163122070307867,-0.014185470405988651,-0.011463164894236839,0.08667850387096102,0.2205174101335728,-0.008532193124726918,-0.029399469240067234,-0.00454234840278375,0.011927601784543742,0.007630723364988216,2.59375
0.04004552740363128,-0.3510266971387693,-0.2544659385047598,1.1714966177755173,0.047962981521081034,0.03177415012338835,0.0305209879581827,-0.22286668708033489,-0.5608016663040739,0.02172964039803536,0.07806088660819559,0.01154012669282501,-0.029496302934691142,-0.01781598346477803,2.6015625
0.007496946351268272,-0.06903802553347238,-0.04931059442815475,0.22845763794147383,0.009849264540011346,0.005186417721783309,0.006320984110083475,-0.043953520611526006,-0.10868812105475556,0.004221010601311516,0.015771999028788692,0.0022551990197373487,-0.005669116727841693,-0.0031153978698114683,2.609375
-0.11592363010953337,1.0000916989731812,0.7308450860316873,-3.3605107997780888,-0.13512800878837045,-0.09573769850760733,-0.08570373442812833,0.6354949346537102,1.6066139238984485,-0.062245279113481246,-0.2203757716870416,-0.03302113754824259,0.08505222180136411,0.05271610799061287,2.6171875
-0.10219965189811286,0.8811672547685886,0.6436131136365258,-2.9586426995235726,-0.11879619204978614,-0.0844884367608652,-0.07540356097626492,0.5595004519017496,1.414627665101881,-0.05481341417368558,-0.19405196041517092,-0.029065664402718492,0.07490476571420138,0.04649682940823872,2.625
0.04006360384846326,-0.35118488218171756,-0.25657575583474723,1.1838608723549,0.04867905147043105,0.0318572320597243,0.030780409256115356,-0.22457393293142214,-0.5638890793034519,0.02186918761678549,0.07827668526099116,0.011644553750935543,-0.029803553015322917,-0.017872837429387594,2.6328125
0.06813498217070486,-0.5939232341573175,-0.4339187475538374,2.00080237676724,0.08167258826431562,0.05474065363373156,0.05168058446174163,-0.37935777414497157,-0.9537206721490912,0.03696655046647758,0.13202575368586403,0.019666097809902965,-0.050443031528613465,-0.030559949072929124,2.640625
-0.06354813727035591,0.5474859218722857,0.3998789635067085,-1.8347990280353073,-0.07346637535154125,-0.05303826749780296,-0.04670251445509989,0.3465061801748295,0.8773968325153608,-0.03408238699483907,-0.12005884692261153,-0.018022245511159028,0.046556087107793444,0.02902695551814995,2.6484375
-0.14261589205961858,1.2323665523343994,0.9008226154072075,-4.1398130689246075,-0.16674759687116925,-0.11771061759573101,-0.10581606311053562,0.7827985757573488,1.9764167266881052,-0.07675731833674604,-0.2714410826611677,-0.040662376876760525,0.10485759409851425,0.06478499030725875,2.65625
-0.04276726301919017,0.3666904465954674,0.2694256947833518,-1.2354273147060275,-0.049326138075102874,-0.035991135591301585,-0.03131475601125503,0.23293760129555516,0.5884791874211786,-0.022914140201955445,-0.08031952473349575,-0.01212689071116131,0.03140692654797437,0.019600400610780333,2.6640625
0.12826066453816365,-1.1148298366626972,-0.8126254395918439,3.7423884749058636,0.15201314965470722,0.1039542204594301,0.09639301147637169,-0.7095377986895562,-1.7883026556913524,0.06934383603620271,0.24697488969488954,0.03677654605318139,-0.0944825470375082,-0.057756305743617536,2.671875
0.2106331521721419,-1.8277444716974445,-1.3338377449627319,6.139253040471336,0.24890287971652555,0.1713783436207817,0.15791597638946625,-1.1632097706533657,-2.9329702032660623,0.11376905374676101,0.4044720933542096,0.06034050908123795,-0.15506599280612204,-0.09500277293805802,2.6796875
0.1602112534295597,-1.3914994419792694,-1.0148994861725373,4.670147344882038,0.1893558097430364,0.13015364498130744,0.12026028073838352,-0.8847625199838847,-2.2322460462123073,0.08656984224974225,0.307905840005066,0.045926731251111484,-0.11787924691520374,-0.07220264731253574,2.6875
0.0362403527018817,-0.31900411678767565,-0.23064419535601097,1.0612986905699608,0.04341106241556412,0.028700590392123127,0.02770576911761334,-0.20147297781987497,-0.5088302379239154,0.019761152217311943,0.07074967102193162,0.010463612687402778,-0.026643011164944472,-0.016128497150466006,2.6953125
-0.08421890655487038,0.724466034642147,0.5313835295429991,-2.4435477501036518,-0.0981256809815153,-0.06992298131307371,-0.062183989968831385,0.46178237679685147,1.1662693647504256,-0.04512987263198323,-0.15974514059313896,-0.023994320517432142,0.06192630589237548,0.038391788509914954,2.703125
-0.15122511030381894,1.3061254678988012,0.9550201655641238,-4.391392897977072,-0.17675712604722854,-0.12478311038488472,-0.11216034654079453,0.8304811891135049,2.0979091457625114,-0.08127639533267073,-0.28806194913401756,-0.04314041600533581,0.11115120344574744,0.06872965922847235,2.7109375
-0.13841818425380306,1.1954191843792927,0.8734365184354683,-4.015579624833999,-0.16161015699362744,-0.11428935407261746,-0.10256495348129405,0.7596082802183465,1.9191791763633146,-0.074456395673818,-0.2634928286267976,-0.03944618435375052,0.10163949654560332,0.06291811261718336,2.71875
-0.04910400941545408,0.42127994112625156,0.30805928525270626,-1.4137129559529797,-0.05642007592577048,-0.04118673479035436,-0.03586037680663208,0.2669951336339536,0.6765973262008896,-0.026334308769577444,-0.09232421369637037,-0.013887698108847034,0.035835268384723916,0.02248382080558795,2.7265625
0.056091262592353516,-0.4891297527079246,-0.35713648703503104,1.647755693245779,0.06748686319167711,0.04491890024174551,0.04267006334124102,-0.31314169371969713,-0.7862905090071877,0.030425686511766407,0.10912494532129824,0.016187849880854827,-0.04156713512448558,-0.025103141719075867,2.734375
0.08957350977910004,-0.7777952977407185,-0.5684763366017926,2.6202594129831325,0.10685331758047777,0.07237471281957493,0.06763043421029029,-0.4976218767701865,-1.2513400920030457,0.0485011358493163,0.1731347183609256,0.025745448797031684,-0.06612335174975745,-0.0402336930952204,2.7421875
0.032235797353611366,-0.2814027307323818,-0.20574573428254267,0.9503917232125111,0.03923002889621279,0.02547805980702711,0.024807973296938568,-0.18137622542138948,-0.45294946499211186,0.017564507257984533,0.06333611384908897,0.00933485839748081,-0.02389847444513285,-0.014284232732943294,2.75
-0.045229866612331124,0.38829888553325503,0.28413519497295153,-1.3050390279871438,-0.052000121254947095,-0.03799419893178524,-0.033025358088745974,0.24560400067402297,0.6252182128220495,-0.024198716037695318,-0.08496150747752386,-0.012824756482770308,0.0330918075437871,0.020786510131280436,2.7578125
-0.09020979787284622,0.7773726824188933,0.568966588651023,-2.617071353734541,-0.10496247765913694,-0.07489279540783526,-0.0666622451557165,0.49370362367512316,1.2505398575588775,-0.048412839468239495,-0.17118137478524795,-0.025690816684192763,0.06625186815241071,0.041163553987104654,2.765625
-0.12622666166171143,1.0890699506011763,0.7972960847140474,-3.6677508343725242,-0.14747645697256598,-0.10433504809117822,-0.09363597613175216,0.692831009908383,1.7502027461327625,-0.06782331962778103,-0.24022586815904454,-0.03599537761274039,0.09284891724757306,0.057427573940558974,2.7734375
-0.14965498320789575,1.2911510075265868,0.9454917342794464,-4.3473059787252195,-0.17517125048666277,-0.12341643793076836,-0.11111676565091942,0.8224399114062636,2.0750420374932528,-0.08047355963272741,-0.28501545882303725,-0.04269808082084476,0.11007053103702187,0.06794606650262368,2.78125
-0.06918464039477797,0.594029887648024,0.4360146429784138,-2.000963702268395,-0.0804643597521008,-0.05754739333656098,-0.050942834700401486,0.3790259349947224,0.9557381934234926,-0.0370846894356487,-0.13095994090681534,-0.019672359363909868,0.0507879835157104,0.03149545070080235,2.7890625
0.13834719424483552,-1.2021991769138916,-0.87707227464817,4.039380134016588,0.16377618874934202,0.11226913619628417,0.10403947982729672,-0.7644820267939988,-1.9306023358295452,0.07481148740838377,0.26612991003552366,0.03970590016667585,-0.10188095068586829,-0.06238017845668077,2.796875
0.3041027686442728,-2.63691542280097,-1.925662035297293,8.860739166209932,0.3587678061952228,0.24796389102216368,0.22776000228041354,-1.6775488203589266,-4.236056751306461,0.1641496438427688,0.5833088855650453,0.08712577840713127,-0.22376386326683886,-0.13735298633780707,2.8046875
0.2706156456961082,-2.347234243908823,-1.7139845778912208,7.885592676238282,0.3193701979930424,0.2206079285277638,0.20276650658372514,-1.4931953338009267,-3.7698268873894865,0.14607746255446638,0.5193307221753447,0.07754024636867374,-0.19915790038389636,-0.12219463116724306,2.8125
0.13877446688723255,-1.2055982067643665,-0.8802241822386649,4.0509168631626915,0.16440971502466684,0.1126591514807088,0.10438197638965281,-0.7674716913966363,-1.9352156696223222,0.07502313770758316,0.26707683877360233,0.03983006948459569,-0.10225848889985495,-0.06251802790275575,2.8203125
0.0856741870892338,-0.7452088133265937,-0.5442925192077931,2.5076096165109933,0.10212660445201142,0.06909431465279448,0.0647198503666414,-0.47542346984019174,-1.1963710464324022,0.04639751420980397,0.165381522151978,0.024661028978540205,-0.0632500063501486,-0.038464494152018545,2.828125
0.032947039819215124,-0.28850612064264597,-0.2103000116332785,0.9729865066071846,0.04016236610238529,0.02587588017947464,0.025280864962300302,-0.1850483426348945,-0.4631433277828056,0.017909654739091636,0.0644951625584473,0.009578863411470625,-0.02448783569346338,-0.014602609388789083,2.8359375
-0.18098883169716043,1.563605524017552,1.143578875197304,-5.255939448569856,-0.21158618143931518,-0.14922287334681014,-0.1344663883267684,0.9934533801094618,2.5129029142672006,-0.09746113691234935,-0.3447171950538064,-0.05166324577594632,0.13289025892137094,0.08221061886130056,2.84375
-0.38862032483673503,3.361303767652796,2.4571625994484183,-11.302196062521038,-0.4559633606058982,-0.3191244317957648,-0.2894465263256024,2.137246596424914,5.401376247380696,-0.20933102210153867,-0.7419253344061075,-0.11110219425685877,0.28569711259321917,0.17618773711481267,2.8515625
-0.2849204595234784,2.463168282685425,1.8008051545770802,-8.283997478259094,-0.3340404026011662,-0.2341958657037297,-0.21199098463112612,1.5662732867579356,3.9583586951560727,-0.15333708690441314,-0.5435630184036025,-0.08142719633173096,0.20948432794716773,0.12924391762413706,2.859375
0.014293623576976264,-0.1279145824538717,-0.09224386937613407,0.42809622781253087,0.01795326805553491,0.010735156261688823,0.01141860367742447,-0.08163215271580439,-0.2046877930533223,0.00797669974642024,0.028860203154855765,0.004206377187498555,-0.010632234342511543,-0.006215121754385018,2.8671875
0.10177652407740295,-0.8847292832756221,-0.6453914714498797,2.9749146664179302,0.12084765055942225,0.0823397411636732,0.07673839488279277,-0.563411547142662,-1.4217005238858698,0.05509224926207963,0.1961582930043693,0.0292419259307664,-0.07498327971789523,-0.04581011492879542,2.875
-0.05339596783231969,0.45998627449795787,0.33638927699912835,-1.5453512364079585,-0.061774762571816355,-0.04466169878325974,-0.0391393894506638,0.29134810297449104,0.737310253544355,-0.028574527420351038,-0.1008263821125199,-0.015159265677576136,0.03925530906759085,0.024469382009557172,2.8828125
-0.10166928056467411,0.8776378073562187,0.6412887202912362,-2.951251371055467,-0.11855845889072575,-0.08417784973026611,-0.07520897282291575,0.5571279161185918,1.4089623951855272,-0.05458020826477535,-0.1931472128036404,-0.028959634119134513,0.07478913972659192,0.04633742290039946,2.890625
0.0430801710408511,-0.3771035004733043,-0.2747919185298998,1.266264887339064,0.05189784509411368,0.03425082902876453,0.03288092321638199,-0.24060771253586136,-0.6047577656337769,0.02344752878854384,0.08400160809773467,0.012462753224649192,-0.03182962905711217,-0.019207585459189675,2.8984375
0.12257345765398145,-1.0654955445271452,-0.7772119492756738,3.5813069737047027,0.14554985301223777,0.09929669099296273,0.0922550247735232,-0.6787322179259607,-1.7107055660047632,0.06626914341306962,0.2362142866370984,0.035188767691195326,-0.09039746829553896,-0.05519949889521684,2.90625
0.07878797909240053,-0.6853480955454615,-0.499727329580783,2.3024635170743033,0.09393050186345894,0.06354656583971759,0.05952580842313767,-0.43707460564210365,-1.1019784697120332,0.04264778740833782,0.15231672816396197,0.022651206832822426,-0.05809714531459745,-0.03536978955830741,2.9140625
0.10564168368162823,-0.9182832776023409,-0.6701604203609165,3.083036223583037,0.1253131202188636,0.08562038667556104,0.07953429107652041,-0.5842614395488697,-1.4758820485293753,0.057134161813765835,0.20351668990288233,0.030363150672221565,-0.07778861026351351,-0.047549116426173085,2.921875
0.18966176473061053,-1.6475032584659661,-1.20257599695114,5.533760549783952,0.22411352813419738,0.15434927337132076,0.14230925970053696,-1.047014704405183,-2.6441405561802527,0.1024375311377613,0.36426764478966633,0.0544287847866528,-0.1397077940375504,-0.08562113251946098,2.9296875
0.14049938562782724,-1.2220833818186485,-0.8914250431672539,4.1052211803574234,0.16637444214166305,0.11400931727293843,0.105668985241158,-0.776692949932102,-1.9591361820165891,0.07592634524780704,0.2703167462452878,0.04034183066667203,-0.10363372960591265,-0.06335844830601939,2.9375
0.004121754219092828,-0.03969851735481637,-0.027758855184361376,0.1316481393812498,0.005978300131742595,0.00239492329974496,0.00382109924875198,-0.025617051546431548,-0.06171719435601281,0.0023930046181498783,0.009424442423869799,0.0012851403707599385,-0.003230132968315269,-0.0015882041229430307,2.9453125
-0.038604205733615,0.33125315673117,0.24302020050200565,-1.1158728183625846,-0.04431884983473718,-0.03248792026612891,-0.028163157820577277,0.21000630980651316,0.5319282218981481,-0.020644059241366343,-0.07237402445213546,-0.010946958110119937,0.028308527998782806,0.01775833843623585,2.953125
-0.03539132589912045,0.30323830679467495,0.2226555757804666,-1.0229473160918652,-0.04055214133281037,-0.029864722210711143,-0.025803264997902604,0.19233842154393424,0.486825855997035,-0.01890357536006428,-0.06626108691139135,-0.010021805260013585,0.025968761641041976,0.01629935521944792,2.9609375
-0.09602983045533005,0.8281451171248585,0.6062865657960503,-2.787656393570147,-0.11187392810155072,-0.07962502674559396,-0.07105147949825111,0.5260217104385406,1.3307053088339935,-0.05157198669151698,-0.1822688194152211,-0.02737822262509297,0.07059109746915655,0.04377200710014981,2.96875
-0.10803989334899103,0.9320200884093709,0.6821215434211825,-3.1348189537452265,-0.12597185611346548,-0.08956776276653924,-0.07995442218605352,0.5918945742820685,1.4980338255099663,-0.05801162530917781,-0.20522901299619953,-0.030812905514458918,0.07942775393705942,0.04922101707457917,2.9765625
-0.00539225616898873,0.04240217921871406,0.03208816635029111,-0.14152971315511909,-0.00512602909446709,-0.0055595317845571895,-0.0032263301345201523,0.026338335605919527,0.0699829527240434,-0.0026408018200266615,-0.008815028136399127,-0.0014183644302789935,0.0038135282509787127,0.0027247668192293918,2.984375
0.007045593353783391,-0.06574326706105312,-0.047084520718266167,0.2227584497040723,0.009613682879573603,0.004679018479419109,0.006112375205875357,-0.0423132066237632,-0.10309636610641883,0.004070444183734104,0.014999961736359306,0.002159014589497073,-0.005448488288123104,-0.0029253798255976142,2.9921875
-0.15544969424976757,1.3424609750645435,0.9813088555116154,-4.511854872067209,-0.18154221710904922,-0.12826665205103738,-0.1152744948176695,0.8527342675214125,2.157264697096098,-0.08356019116781636,-0.295916004067294,-0.04433988863049924,0.11414094484844821,0.0706589370883319,3.0
-0.23158426045636252,2.0032441007742805,1.4636687965780195,-6.732827396067733,-0.271201303589747,-0.19055060733013351,-0.17224445950339023,1.272295607730163,3.215837830728152,-0.12464449789920289,-0.4416231777602339,-0.06612943858803733,0.17028292159606798,0.10514435812833864,3.0078125
-0.07240227668227754,0.624730403898073,0.4566237598377967,-2.0980972607790043,-0.08400301773291625,-0.06023072723922523,-0.053423119735763205,0.3956708009948334,1.0010162220504737,-0.0388510422544964,-0.1370538872995233,-0.02057816638307005,0.05318432981739222,0.033062889434733664,3.015625
0.10237827460353109,-0.8902638865294171,-0.6497993072549547,2.9930314301916785,0.12162599255701621,0.08287798317940381,0.07718026032262147,-0.5670312002414627,-1.4300515879404854,0.05537299178476494,0.1974418207327093,0.029427833199042148,-0.07551520179708414,-0.046085855961592426,3.0234375
0.1288751333398144,-1.1207078592365847,-0.8179115510875141,3.7648506050920862,0.15283803939999677,0.10462085220420204,0.09705188817465722,-0.7129812619116106,-1.7981673248038896,0.06966199474727262,0.2482382456526165,0.03699531501558879,-0.0950751805547108,-0.058080526232794284,3.03125
0.12329543239779038,-1.0719473028531605,-0.7822664550878842,3.6003750536731927,0.14628648611639292,0.1000660133809684,0.09281995634980549,-0.6821376199554273,-1.7208539273392178,0.06665076091388887,0.23756114979943505,0.03539591196403059,-0.09090695594505477,-0.05554139455075035,3.0390625
0.13442199732017918,-1.1672047559862748,-0.8517961192151916,3.9215367756912936,0.1593160763662349,0.10912611287955086,0.1009807081458215,-0.7431872329646775,-1.8763793888016769,0.07263628034735267,0.2587055822731059,0.03858704205630713,-0.09896800283494257,-0.06056802700536556,3.046875
0.04927722918993615,-0.4293576814669716,-0.31262084980118154,1.4406337196350012,0.05899800021343035,0.03936966751894301,0.037360986153616285,-0.2738652796460207,-0.6918542903541313,0.026719299017814325,0.09559896062507688,0.014219482132351564,-0.036241117399875525,-0.02201508161851323,3.0546875
-0.07325899500268805,0.6313581628700585,0.46236902820478964,-2.126441865071546,-0.08531022662554875,-0.060959759838718534,-0.05404536319821109,0.40134261303751284,1.0139037490323461,-0.03934262910077561,-0.1389483074390809,-0.020860344895288326,0.05390385084500475,0.03345728295900333,3.0625
-0.0424709826511708,0.36394343040800603,0.26717671520524666,-1.2276285742918236,-0.04911588746189859,-0.03575395923691461,-0.030989135199931333,0.23174334553005302,0.5867262628625778,-0.02272236594405323,-0.07996290127760633,-0.012061547615906349,0.031189140822532782,0.01950792550652953,3.0703125
0.07970464848335021,-0.6948299419281987,-0.5058432531243197,2.331202692116474,0.09470745426815946,0.064260389497238,0.06021150757964565,-0.441464341858327,-1.1126644843788702,0.04318461772516968,0.15397430648162003,0.022900277011337674,-0.05874674718192154,-0.03581390354510452,3.078125
0.07671582503491779,-0.6697740735465664,-0.4871074702223115,2.244850021366188,0.09129773277454169,0.06181037359949581,0.05798057232145892,-0.4253099051075116,-1.0713927863477144,0.04161575361400294,0.148398731531911,0.02205409245495656,-0.056585833214148375,-0.03446414788766403,3.0859375
-0.011246919221929956,0.09144392624154939,0.06873324427916543,-0.3148457451750606,-0.01207824259033032,-0.010201561550825498,-0.007615404246726652,0.05882539242663547,0.15211531932382602,-0.00578129317764709,-0.019855725131601856,-0.0030988306659574896,0.008061395205670204,0.005365798222095896,3.09375
-0.004287641861040101,0.03191324024435096,0.024273903109961723,-0.11073761347442503,-0.003754114264418501,-0.004517574836424547,-0.002387182257551902,0.020055700638656353,0.05500911165178457,-0.002035398289361549,-0.006574045658242951,-0.0010816218778009795,0.0028918581518511304,0.002232276421787056,3.1015625
0.03356716932624228,-0.2941574849669927,-0.2147978225891732,0.991762999319121,0.04088185071628493,0.026452255285462488,0.025800395710129192,-0.1886914823405045,-0.4725522251104738,0.01833937563743108,0.06578785111101232,0.009768537792333552,-0.024925393046605317,-0.014900809313163692,3.109375
-0.04361585227688987,0.3753598913786161,0.27410009708899524,-1.254959925473005,-0.04991679577581256,-0.03673570146521494,-0.03186399288112752,0.23655324264589556,0.6000735222236047,-0.02331374207473916,-0.08194951546278934,-0.012321182946645318,0.031902645706141694,0.020015117106638013,3.1171875
-0.11430502239386983,0.9875644839206145,0.7214205779733076,-3.312279166394058,-0.13310414007246515,-0.09458217270514384,-0.08457924935113925,0.6261218427835559,1.5830913419132369,-0.06145963441797171,-0.21725195162150748,-0.03256284925373294,0.08388706999240236,0.051992556017893946,3.125
-0.033008027240836055,0.283729697748822,0.2072234978887485,-0.9472362822145795,-0.037449737462414895,-0.028001402093818607,-0.02388220343818983,0.17842272809312515,0.4523063472268333,-0.017652850024846168,-0.06174784778125379,-0.009305745181750959,0.024078786198380542,0.015208517795848291,3.1328125
0.01480937111784649,-0.1300026168753937,-0.0948003689829808,0.4401662934075942,0.018762990632607942,0.011154356736073219,0.011700371765413161,-0.084764291009314,-0.2127261784966094,0.00812818984187382,0.029739938447347482,0.0043715765654123336,-0.010995166255425412,-0.006397526509051715,3.140625
-0.15089563613467571,1.3040203077597443,0.9535632255418431,-4.38688340878654,-0.1763685236643072,-0.12450360943262494,-0.11205266295490296,0.8284063898763389,2.0930926141008492,-0.08118000564941213,-0.2872511869425944,-0.04306587133503108,0.11100100810207633,0.0686238588790276,3.1484375
-0.28199342207837513,2.4373297713275117,1.782191632286445,-8.201643639670214,-0.33081607763393134,-0.23183055465926325,-0.20980600939200347,1.5508795566744207,3.918204258161357,-0.15182686459899994,-0.5380323003308951,-0.08060189224479199,0.20740579719964572,0.12794363179542326,3.15625
-0.09462827887582281,0.8141152517424067,0.5963822049852946,-2.7439009679426096,-0.11044581129214577,-0.07844545344815913,-0.06983986989034315,0.5187968382731076,1.3125771551105052,-0.05080068813610229,-0.17954975425277964,-0.026986488270744215,0.0694898701847865,0.04310714215487067,3.1640625
0.19424437637969572,-1.6863192039588446,-1.2306280249315265,5.665758800544876,0.22950261886746975,0.15803998554915297,0.14575119705677742,-1.072670964591106,-2.7064866519308675,0.10493747201623739,0.37315035406693786,0.055686433401355935,-0.14301523146680967,-0.08765284187531974,3.171875
0.21992972321201243,-1.9078118567278877,-1.3924857573065927,6.410673559233198,0.2598065796934296,0.1790772702077027,0.16484586750012703,-1.2143405630653321,-3.064425749430317,0.11878137211262378,0.422349405997302,0.06302899449711831,-0.1618632630877666,-0.09925915397108707,3.1796875
