AF3,AF4,F3,F4,F7,F8,FC5,FC6,O1,O2,P7,P8,T7,T8,time
-0.07553888655914305,0.6510399121854837,0.4769068931729177,-2.194085369883064,-0.08798665596473923,-0.06288141111511746,-0.05575158708666833,0.4135464786569072,1.0464518381628853,-0.040540509351489,-0.14321449782928822,-0.021517675252961988,0.05561392113453855,0.034533086157748,0.0
-0.015680587330684535,0.1312795529042533,0.09789236371313687,-0.4525807708005995,-0.017583118443856252,-0.01385815822743183,-0.011029093950472421,0.08390877281734734,0.21476487487159676,-0.00827493138896283,-0.028490376530924677,-0.004419709388702192,0.011537340955280128,0.00744833067781924,0.0078125
0.05383110117167989,-0.47078047377702925,-0.34229813465197184,1.5721110561961413,0.06429862582812156,0.0430927025791165,0.04086750333389519,-0.29912722225757504,-0.7525542284832998,0.029195177828045232,0.10461131365483696,0.015484246109798728,-0.039658899277517486,-0.024025688572498077,0.015625
0.07160229546862826,-0.623657321152255,-0.45449796547633425,2.0908738079870655,0.08525929870480096,0.0576778154768525,0.05406244703153197,-0.3968792939617966,-1.0012598904743517,0.03873166667520831,0.13851301567581495,0.020605693547149053,-0.05273939071315601,-0.03210672537338285,0.0234375
0.04973273841315946,-0.4342117304977151,-0.3159770192739829,1.457992028084669,0.059570117236519095,0.03979684990803543,0.037723211619497585,-0.27625014937213055,-0.6986417784131281,0.026915250498313087,0.0965918413451371,0.014375867545637572,-0.03670551220782217,-0.022280270424201463,0.03125
0.02801554401247634,-0.2470994859909931,-0.1789288091739554,0.829764644341717,0.034127053255472495,0.022024653381489297,0.02158550880253761,-0.1569175566222169,-0.3969290804774031,0.015241453485357322,0.05513616172517661,0.008162190125936976,-0.020842144792136027,-0.012497255595424339,0.0390625
0.016430670426846945,-0.14684050818548344,-0.10577255731772903,0.49123784020959343,0.02060623779302743,0.012522187673813528,0.012958828599768477,-0.09363953516328036,-0.23462857450550553,0.00904404439433222,0.03306763541639431,0.00482605600703459,-0.012347201808742403,-0.007208556216397268,0.046875
-0.007553442697126159,0.06188836282778717,0.04610508172732361,-0.21052182555609006,-0.0075600006290445715,-0.007139187781221276,-0.004973353201377959,0.038144228379919744,0.10027536087996013,-0.0038556155064757205,-0.012866590274669869,-0.002047455619261017,0.0053645805710083065,0.0037286174765711008,0.0546875
-0.03283358374177933,0.2813907345220559,0.205646329341683,-0.9440386172414673,-0.03726449080028953,-0.02784581783313504,-0.02376754646788203,0.17724928813160643,0.4518249774914445,-0.017445159618760458,-0.06131139407102748,-0.009261908777933914,0.02397646244950432,0.015178704063122803,0.0625
-0.019615592147009572,0.1667451416676688,0.12141948857556445,-0.5533407429749795,-0.02169408161587769,-0.017023372576643502,-0.013771694277518363,0.10441474907187555,0.26677327029111936,-0.010282342123094229,-0.03603973314935866,-0.005457155403067938,0.014209501711334307,0.009137004204426653,0.0703125
-0.009070105881362324,0.07520588590806784,0.05498134111602154,-0.24680633989172174,-0.009348631414076545,-0.008387716901987393,-0.005930021079420337,0.04660546033538205,0.11939756851860416,-0.004612367264313969,-0.01588279377500191,-0.0024475974441845252,0.006475308941862588,0.0043364664528563555,0.078125
-0.08647789268743279,0.7450691855751012,0.5454312375271598,-2.505837172913531,-0.10051841465819672,-0.07176475777770124,-0.06385069704973899,0.47339928152877686,1.196873422966129,-0.04639453335071851,-0.16400763710580693,-0.024624198517205573,0.06347572073704695,0.039402177115109106,0.0859375
-0.186408953646058,1.6096271142134166,1.1776324786202004,-5.415982294201458,-0.2181461925954864,-0.1536036490450842,-0.13845317749718639,1.023960085777922,2.5882558817294035,-0.10029359277232198,-0.355186532096055,-0.05323038385637444,0.13696456639263566,0.08465623570014162,0.09375
-0.14126857030746112,1.218786601501422,0.8917283859926308,-4.09899526410946,-0.16511523762934208,-0.11667828773054537,-0.10466146308014601,0.7753117140964044,1.9606857538277056,-0.0759601189377019,-0.2688459779581458,-0.04030744684123371,0.10373743417850564,0.06421364567153157,0.1015625
0.027148288371463797,-0.2384275484499405,-0.17333727365350526,0.8017524868266409,0.03287537520111954,0.021218996592686123,0.021033407686782416,-0.1520575292306372,-0.38287799739532435,0.0148142263700627,0.05328579243621958,0.007883555660649185,-0.020045904266720413,-0.012020056530738852,0.109375
0.1257960937214625,-1.0920938682167098,-0.7968573622002655,3.6673767769682803,0.14884344397545635,0.1020213119896846,0.09455412288598475,-0.6951811617870307,-1.7554165306046061,0.06796833482635779,0.24204515616567193,0.036096549914940754,-0.09249859070268097,-0.05663819386781333,0.1171875
0.12448584957694726,-1.081536200426924,-0.7888799942002674,3.6280335847210874,0.14739773394084796,0.10092222994487497,0.09356560638387033,-0.6883904698537924,-1.7360192420679175,0.06726302931973356,0.23974256985879683,0.035711457195390296,-0.09158336004711301,-0.05600144584840697,0.125
0.15366866336745028,-1.3347025403926194,-0.9740939707530835,4.481783353971097,0.1818814166492594,0.12473215790301445,0.11542810647707635,-0.8498055077174379,-2.1409637703030526,0.08301509569404109,0.29570543061418303,0.04406930844188522,-0.11315984074052873,-0.06919742617244644,0.1328125
0.17888163891107145,-1.5522345111834677,-1.1335181045908032,5.218177944960485,0.21157064167010384,0.14536237977368524,0.1342545407586947,-0.9887280692325449,-2.492542199592817,0.0966205977830831,0.3438140566864672,0.051301685890631006,-0.13169661522507592,-0.08063682876360553,0.140625
0.054104675316201445,-0.4711067048872692,-0.343878556472938,1.5852528629075067,0.06475255175302164,0.043295611255078664,0.04106233807246995,-0.30102007511931056,-0.7584090537932661,0.029366820364850693,0.10489678562683645,0.015614255446096457,-0.039849434624575464,-0.024196507869717474,0.1484375
-0.12584330677371627,1.0865981109887746,0.7942508075654549,-3.6524881501169597,-0.14685458629967268,-0.10395508547103786,-0.09325415852581749,0.6902647012487845,1.7443858948180018,-0.0676238009610101,-0.23939607057082482,-0.03586540508685426,0.09247015262143621,0.05723689350685653,0.15625
-0.12709182920149095,1.096513115573401,0.8018363372563221,-3.687126698744929,-0.14817240398153045,-0.10497393527374943,-0.09414783985565707,0.6969292661013349,1.7621810602904486,-0.06828860189867572,-0.24167078182841364,-0.036220898351291074,0.09326854964199705,0.05779769669220364,0.1640625
0.006355985433934788,-0.05974274058369329,-0.042209644017457505,0.19768227762610238,0.008855791512792236,0.004281447321232951,0.005454481007447524,-0.03812031796762378,-0.09438582092904059,0.0036528823538295235,0.013735132916245542,0.0019538402983604493,-0.004951205153763462,-0.002630131039200149,0.171875
0.02982233522419624,-0.2636723734365393,-0.19043467642427148,0.880932552978212,0.03639404355524571,0.023512705117621314,0.02294554433977497,-0.1671868221830768,-0.42157986163106376,0.0163159249159569,0.058675663959870304,0.00865746259808837,-0.02220978953740129,-0.013298376966222146,0.1796875
-0.0699501297703653,0.6000833868827653,0.4407561087845269,-2.021679258550393,-0.0810211378176789,-0.05819746746609911,-0.05152816429705426,0.38237018375268406,0.9661095897230604,-0.03746260925889696,-0.13221361465398765,-0.019889360488992886,0.05119062216864055,0.031840381978746,0.1875
-0.10058714201914358,0.8665930385779796,0.6347862096260114,-2.9139186291879207,-0.11708549515910871,-0.08334426393570667,-0.07441072352316563,0.550969806752233,1.3928877568789169,-0.05400743531488911,-0.19090683247140383,-0.02864934154262309,0.07378495779599467,0.045750608966063165,0.1953125
-0.04160762096191204,0.357631371046493,0.2619480773156245,-1.201641375859463,-0.04779810051627957,-0.03507423251035249,-0.030404698641789223,0.2260709091153055,0.5734634911431404,-0.022252295201175356,-0.07815726142502073,-0.011780382388111698,0.030525882405669072,0.019139740127832833,0.203125
-0.031880139606436084,0.27384936420283473,0.19994467854538253,-0.9216108648722587,-0.03648684423185513,-0.027077207945001628,-0.023073179020039938,0.17256921632372516,0.439267781439088,-0.0170062577398171,-0.05955711443301828,-0.009010410856609022,0.023449588377302592,0.014797715150212934,0.2109375
-0.05892311792540117,0.5071137159693423,0.37004231516011726,-1.7058690219109096,-0.06836235647461027,-0.049217398244293255,-0.04311803012102495,0.3216226502346645,0.8160924409466415,-0.03155504482326418,-0.1112664917651213,-0.01674722847643993,0.043300926646956485,0.027031603673206974,0.21875
0.0038234034034566305,-0.03682040460268315,-0.02702863609811121,0.1251673500470907,0.005468795530441986,0.0021188618598449557,0.003762169308567067,-0.023826852337003046,-0.057305426316218426,0.0022678798689470345,0.00876280525485558,0.0012157987459119192,-0.0029235862860973348,-0.0014271384927421068,0.2265625
0.11300452553023821,-0.9818123626898181,-0.7166508981834004,3.303594158373704,0.133980520548507,0.0915244249842732,0.08514274798020713,-0.6250593398280893,-1.577633888225296,0.061092576043067615,0.2176215017705274,0.032452503154336836,-0.08324496698567557,-0.050906530452697,0.234375
0.10842328314395265,-0.9416878712997486,-0.6867816389206071,3.1680892458366583,0.12873323730061173,0.08784480622286144,0.08159845728386485,-0.5999276827729614,-1.5151578222230766,0.058613681432597785,0.20889446079070656,0.031132494847104814,-0.07988149278938973,-0.048859512540087545,0.2421875
0.00335539952893085,-0.03225560189841825,-0.022422536496709028,0.10924416144450826,0.0052730938769566405,0.0018366319452802846,0.0031684655845921517,-0.021518397083776817,-0.05342216885153437,0.001990026325426715,0.007937384840928501,0.0010750990618259891,-0.0026542353407152694,-0.0012824540606984523,0.25
-0.035983228911539634,0.3076447176802752,0.2257038982560067,-1.036143958378789,-0.0410157401257634,-0.030450776349311523,-0.026150507877772837,0.19496789939640582,0.4952077377041502,-0.019218132439991792,-0.067322699823623,-0.010169294304451503,0.026245906951501318,0.01657756225054337,0.2578125
0.03045001445421682,-0.26791957603559985,-0.19456170026161115,0.8946792317037593,0.036977633431355655,0.023869506808764988,0.023412062341270422,-0.1708757826441799,-0.42751034515103997,0.016578559977140635,0.05973847667338679,0.008833309706977908,-0.02256480640515105,-0.013440854021102329,0.265625
0.07751060895048052,-0.6751977477521248,-0.49171297879665665,2.2615698704708342,0.09221222563217428,0.06239885271511462,0.05847193720605811,-0.42993148769059003,-1.0817141399846648,0.041956415875176005,0.14973521299780274,0.022283761534893684,-0.05709602053264566,-0.03472782896177921,0.2734375
0.04180846356639665,-0.36573657998766346,-0.2656684366932785,1.223262713228323,0.050203165577828036,0.03317883836012499,0.031812523840123,-0.23324035800291315,-0.585662889265145,0.022740508161060793,0.08139649026247703,0.0120723229625996,-0.03081194822087321,-0.018591474948847247,0.28125
-0.003289271812343049,0.02471453773768948,0.019214836997505324,-0.08602768293739599,-0.0028067008113372765,-0.003743954957508984,-0.0017911656334624558,0.015098429048163418,0.0405596298680535,-0.0015460198804126799,-0.004867807978048146,-0.0008104301341607869,0.0023262573977157683,0.0017836076531073828,0.2890625
-0.008784285617617054,0.07183773782601574,0.05351721338285444,-0.2437350727133804,-0.009202519301741529,-0.008189046553184993,-0.00582969490778682,0.04529640015841205,0.11599590219409488,-0.004485210661811159,-0.015265144904890518,-0.0023737339075503767,0.006331045364765815,0.004238069325743407,0.296875
-0.020098272237359965,0.16952027664629324,0.12497963162626669,-0.5720604333256725,-0.02239190541590143,-0.017365048062137196,-0.014247888449040243,0.10756488352607008,0.2730573323188239,-0.01055528180219989,-0.036784226815032094,-0.005620796532368723,0.014631825785616394,0.009340967066952881,0.3046875
-0.059031606543860665,0.5070100824686792,0.37138533505078536,-1.70381710784172,-0.06809892833857312,-0.049234425072247956,-0.04331344607356132,0.32199200076171863,0.8149920705314047,-0.03153129443949347,-0.11128204167064423,-0.01676574246446297,0.04326159352824051,0.026962107498951733,0.3125
-0.07638183952100584,0.6576052741828736,0.48114059734438314,-2.207894143958367,-0.08856640378788225,-0.06350149946866201,-0.0562712485449877,0.41766278576206584,1.0567459599791582,-0.04090160756636605,-0.14459552615807358,-0.02172151031416212,0.05602626210720504,0.03481931367914193,0.3203125
-0.0571028753934959,0.4901251430734943,0.358902043061516,-1.6483467984676021,-0.0660486350787335,-0.0477064546570884,-0.04185839978086281,0.31173042938920426,0.7887036913306511,-0.030538548966096396,-0.1077699240682521,-0.01620226178888268,0.04184203898950542,0.026093108495236224,0.328125
-0.04958587677311895,0.424484440378677,0.3110578237460269,-1.4322753856996528,-0.05728015634047047,-0.04146200067501193,-0.036211625240916055,0.2704919406324427,0.684229832244265,-0.026526263034231397,-0.09335581322251382,-0.014060079007916244,0.03629862354831622,0.022699437783022747,0.3359375
-0.05420604924659289,0.4656430511645011,0.3405352292131292,-1.5675426253242548,-0.06262748663815665,-0.045232139763732436,-0.03967646381412304,0.29577035879199237,0.7484708219973372,-0.029075296745695072,-0.10220137497894377,-0.015384299913001451,0.03970258525116323,0.02481557349073442,0.34375
-0.0058145677898055,0.04867884721995125,0.035305430500397264,-0.15817524646814105,-0.005611310466314861,-0.0057245378839059025,-0.003630753158796109,0.028961094014497226,0.07505266199998353,-0.003040416089941758,-0.009709170950137024,-0.0015353788329492885,0.0041435030038725834,0.002929494966534378,0.3515625
0.08852635568573812,-0.767968398783503,-0.5607240538254813,2.5874492015349535,0.10528609597143494,0.07141360851111324,0.06674038996089189,-0.4905856304100104,-1.2371191897046887,0.04780416632093831,0.17071314809394547,0.025442789141895187,-0.06522740459106846,-0.039778795922169395,0.359375
0.12354358909253604,-1.072903769971521,-0.7823200707571873,3.6049406569919142,0.14631581029954474,0.10008024113404454,0.09289746623274193,-0.6831466752241675,-1.7233315516140792,0.06670062181492827,0.23773720233453022,0.03543705347671215,-0.09100001404621397,-0.05563664079459667,0.3671875
0.069701751470208,-0.6076805409446402,-0.44223598760859195,2.0372777200292624,0.0829986557055506,0.05603542729474659,0.05272362800248591,-0.38663382361606546,-0.9739795140127674,0.03770862516108986,0.13483656171776534,0.020032132698621644,-0.051416380684597134,-0.031257468213681625,0.375
0.0360086691075637,-0.31534973002137234,-0.22919650894342208,1.0583108548147184,0.04360074418516917,0.028458684415012127,0.027549205239876137,-0.20154092072916477,-0.5061964947778459,0.019595802507130007,0.07049602223196011,0.010415264959015052,-0.02663982355292606,-0.016002198851603037,0.3828125
0.06555150631567785,-0.5709786025419501,-0.41593824759226994,1.920037004482705,0.07850299627139393,0.05263245894377942,0.049597671360534244,-0.36458124260731284,-0.917842264508574,0.035578624637296705,0.12704568462031784,0.01887974802014222,-0.048376311066446256,-0.029384749211506394,0.390625
0.026991488010594773,-0.23789689524722057,-0.17244054830358158,0.7975207481443333,0.03299387226687997,0.021063639210656515,0.020851643064199673,-0.15198659176615775,-0.38066603991812326,0.014818627247245543,0.05314474964447429,0.00784688531617155,-0.019992352504440463,-0.011930001514220044,0.3984375
-0.14129113877706792,1.219043325899282,0.8912559296561058,-4.102535743155167,-0.1652075767294668,-0.11666750521339693,-0.1047494247829131,0.7753030490087284,1.9611351495077263,-0.07590558151458107,-0.2689778485455633,-0.040289621103419805,0.10386118874272576,0.06426289898926031,0.40625
-0.24942619798243604,2.155833561687412,1.5750521570179898,-7.25171175790994,-0.2924417013502276,-0.2051227970709505,-0.18548198412851422,1.3710791883220983,3.4649636389885945,-0.13420001039070925,-0.4758633429001276,-0.07121782599829737,0.18344264444734698,0.11321740590340629,0.4140625
-0.12708880390313573,1.096092761111631,0.8016452464988371,-3.6906221625085784,-0.1483764408121412,-0.10492804472767725,-0.09414105855322982,0.6971947250158411,1.7626287727565901,-0.06823171877313479,-0.24166500816169723,-0.03623092686014091,0.0933803109519288,0.05782077750050188,0.421875
0.08928743075957206,-0.7784658083846966,-0.5667430622905197,2.6094763182268017,0.1062517603620117,0.07217069573429029,0.06741495336438807,-0.49471542498312826,-1.2467907682422514,0.04841952923081705,0.1723848784320494,0.02565727362341282,-0.06588862869171234,-0.04014097005791767,0.4296875
0.17780909726604693,-1.5447218242172418,-1.1267872880006358,5.188037550541243,0.21035722619435934,0.1445773648847229,0.13347676917130671,-0.9823897475754859,-2.4778097655648677,0.09611239728759408,0.34171444307733695,0.050993470097157254,-0.13100603590281826,-0.08021003453778541,0.4375
0.1541976059222801,-1.3390590360049746,-0.9774934122188222,4.501637964548732,0.1825698098991496,0.12525362461484424,0.11581361595663586,-0.8523822394837153,-2.1504263540860555,0.08333816364840554,0.2965599542233087,0.04425865816736568,-0.11357348791978478,-0.06952808425776884,0.4453125
0.12000712666658493,-1.0424701041820785,-0.7610966841824359,3.5071823879772106,0.14239499800989464,0.09731246074528818,0.09032171945411752,-0.6640281586839811,-1.6762665506978884,0.06487230080661223,0.2312419132099505,0.03447483972274621,-0.0884241704701813,-0.05408045720600153,0.453125
0.023396502769921876,-0.2060358267991147,-0.14981850837407126,0.6956677202805162,0.02873051203762513,0.01822083955567155,0.018259557068842146,-0.13180190334934666,-0.3325700804572505,0.012776249340113462,0.04641193138493636,0.006814164476347805,-0.0173977812088731,-0.010372332068670935,0.4609375
-0.14628848854034177,1.2636396099409481,0.9238891594483256,-4.2450455316663005,-0.17099759614498902,-0.12075107151531381,-0.10844015503672458,0.8029208953231076,2.0285746653180015,-0.078712642533355,-0.2783488515762277,-0.04174995771486139,0.10746478362122373,0.06645078705640176,0.46875
-0.19268211699701265,1.6661217469290295,1.2178961553344572,-5.5989164862640095,-0.22563601316085585,-0.15877893844939142,-0.14316890972437446,1.0584107025915854,2.67434915158301,-0.10375021107140844,-0.3671820680960222,-0.05502863067879883,0.1416805879392042,0.08749277132426138,0.4765625
-0.03346426919202838,0.2877103479894165,0.2108709248416019,-0.9659063456371808,-0.03821952457292242,-0.028448907051223563,-0.02435144808514025,0.18115470758988328,0.4595956705894836,-0.01793417237341155,-0.06253787898101118,-0.009466054212246916,0.024551268402088464,0.01545910958552295,0.484375
0.0921634246845151,-0.8004672592499313,-0.5843494264019974,2.6927831315443838,0.10972544207208873,0.0743832756035818,0.06946671444446918,-0.5110488226313589,-1.2873652606402268,0.0498143616124902,0.17777695765724455,0.026498863571398936,-0.06795322763820005,-0.04138927934836469,0.4921875
0.004530010342912965,-0.04232708460804594,-0.030533738140790027,0.1435488048580941,0.006607361543195691,0.0026339689710520304,0.0040735677248220125,-0.028141166122248863,-0.0673201637700543,0.002613548783288736,0.009960731646775117,0.0014381553458649925,-0.0035197938339077556,-0.0017242673625677046,0.5
-0.12221012318644074,1.0542010663637207,0.77117828108516,-3.5469520492079214,-0.1426725294031144,-0.10107576835802431,-0.09054665440463125,0.6705042303806517,1.695906119967906,-0.06569102976533749,-0.2325746692901101,-0.03483887867570198,0.08976861532528287,0.055620873766240524,0.5078125
-0.08151245835046345,0.7009385977633813,0.5137659156570953,-2.364027775819195,-0.09488764783271038,-0.06765253564089406,-0.06014958705772292,0.44658773600773066,1.128831101323878,-0.04373210307747239,-0.1545217351426869,-0.02321711301745967,0.05986486117306883,0.03716423685655973,0.515625
0.04378250970703275,-0.384224532057547,-0.27913487351867006,1.2836219801106927,0.05259425568361882,0.03501771061119074,0.03343007161162203,-0.2438102984595722,-0.6148892387945666,0.023867328126483834,0.0854174763619801,0.012632365534712415,-0.03233232912676718,-0.01956814371364501,0.5234375
0.08504965423015477,-0.7411434154010924,-0.5403971373084272,2.4862649703501085,0.10123560392192299,0.06882683608598965,0.06425587722572677,-0.47139201051499546,-1.188679725383318,0.04615986229847815,0.16436718113605336,0.024458220489445334,-0.06271723626085893,-0.03823926661608646,0.53125
0.054605460762945014,-0.4771761581350566,-0.34765636235590797,1.6008366667064808,0.06542286069059706,0.04386286153395234,0.04151470938439431,-0.3036913060292226,-0.7646271471016161,0.029723231270582618,0.10598893170979792,0.015757757737321788,-0.040337606493362155,-0.024450126978080224,0.5390625
0.045792638132485596,-0.40102930972011736,-0.2918140625561039,1.3452178195340363,0.055048622846327375,0.03657347752679568,0.0349349924708953,-0.2551829965222418,-0.6419338254003534,0.024913719599950108,0.08912000615570592,0.013232378452437988,-0.03389794569279949,-0.020465263246036248,0.546875
0.06271840455227153,-0.5476887198321633,-0.39892345230448,1.8387675298473074,0.0749854737327139,0.050331871511650375,0.04757884171196012,-0.3487262071574353,-0.8772723287505123,0.03401970872391694,0.12157508830948875,0.01807066351585635,-0.04637963116961929,-0.028116773161664294,0.5546875
0.06083779231161859,-0.5305822244553552,-0.38659321706902905,1.782738080976057,0.07276448833144776,0.04869473835431936,0.04613524940705923,-0.33864267385851243,-0.8507994021527487,0.03301001195029575,0.11792648372381712,0.01753009666995417,-0.044933539437144523,-0.027226859863873083,0.5625
0.027927875568783088,-0.24424223424224834,-0.1775401066984047,0.8217926522184512,0.03402081392186664,0.021715827589142037,0.021486323165462794,-0.15733175504607985,-0.3932514095505823,0.015237766607201497,0.054865726273129536,0.008104930737280788,-0.020607996498806763,-0.01229821642802611,0.5703125
-0.0247345690406865,0.21227759226373008,0.15590466248840504,-0.7122893729299861,-0.02791155479165078,-0.021354996187955198,-0.017858265749786842,0.13291692601546953,0.3385258896590811,-0.013190934921415166,-0.045835104930506715,-0.006974623359943884,0.018178815908319847,0.01153275665105755,0.578125
-0.07016318067804929,0.6049006915685412,0.4426280634086946,-2.032732221422352,-0.08135586346113839,-0.05849686724179013,-0.05170632979189131,0.383300013048295,0.9702340293840944,-0.0376664519630973,-0.13267965339168622,-0.0199704114431591,0.05155742231400104,0.03206878488530622,0.5859375
-0.06558649621496332,0.5643701090754977,0.41287020814620473,-1.8968307282792536,-0.07609119812969069,-0.054748527847884636,-0.04819439726114301,0.3583636435141207,0.9068913199056938,-0.035152931250332996,-0.12406096644318762,-0.018640762727025677,0.04815040995380789,0.029971185080468546,0.59375
-0.008972351840340181,0.07372738687785936,0.05442586872645676,-0.24683186120549724,-0.009607080390148464,-0.00838794670126379,-0.005889133300726497,0.04691200858019864,0.1189480838201101,-0.004617565950324672,-0.01588664964156093,-0.0024226544055400818,0.006489677663522948,0.004305312102806605,0.6015625
0.019213745195614768,-0.1707054091004726,-0.12395207046181247,0.5752114879512198,0.02361419101621861,0.01478234838095054,0.01513153065011473,-0.10815722268263518,-0.2743366302809361,0.010562625365727664,0.038203942213503095,0.005645419909681527,-0.01427093090476953,-0.008504667378954169,0.609375
-0.05430135635012603,0.4656458555311113,0.3409737815329222,-1.5650562163587247,-0.06270252626153273,-0.04527144971975611,-0.039792080202273344,0.29661704658471594,0.7478186855385538,-0.029072709192555904,-0.10219176173315507,-0.015394890058345323,0.039784433118989306,0.02475938749357265,0.6171875
-0.1562252656176474,1.3486217923491282,0.9857399806464653,-4.535444955437677,-0.18254240672644306,-0.12865553393066095,-0.11591014689564606,0.8577972933086263,2.166521732888992,-0.08400627418562359,-0.2972410654831013,-0.044560873802139134,0.11477202121384769,0.07094534669985056,0.625
-0.11880291665147631,1.0249187081642464,0.7492309164249341,-3.4498212702052973,-0.13855802432441686,-0.09806377190973509,-0.08797752430576396,0.6515667513725147,1.6472368938339945,-0.06382332185328007,-0.22584349130481374,-0.033857946068909045,0.08723998127033206,0.054064481397207674,0.6328125
0.07108535445258832,-0.6197229043208171,-0.45157440153872463,2.0771054997014193,0.08483994025569204,0.05729416185936871,0.05377487596644297,-0.3945042809020878,-0.993378691375235,0.038532358851792035,0.13747940593396998,0.02045761346019975,-0.052497607667711714,-0.03186874143232677,0.640625
0.196096241515438,-1.7020893757181712,-1.2416441586317328,5.716717115033327,0.2319742803961042,0.15953161913814667,0.14705818070879295,-1.0833837113051992,-2.731844960484692,0.10588424948852666,0.37677603935883824,0.05620303606797303,-0.14447796213320435,-0.08844393617674058,0.6484375
0.10573298056163194,-0.9182566395162554,-0.6692277255537604,3.085116886717397,0.12564871912838463,0.08547252287661572,0.07954972653755307,-0.5858390625663321,-1.47444035664448,0.057121805155436335,0.20376103418879438,0.030333396812342248,-0.07793684378612098,-0.04751105253683182,0.65625
-0.04452540050119547,0.38354138736086996,0.2812933770665422,-1.289569046789836,-0.051267258890995905,-0.03756279867036146,-0.03260852105938131,0.24200773715720744,0.6158567646022067,-0.023888895300645425,-0.08395923020620162,-0.012655891901285014,0.032658169817690146,0.02050922954018676,0.6640625
-0.03361819722513448,0.2878203266959168,0.21144794172335307,-0.9694859563664194,-0.038542103488530946,-0.0285985368688353,-0.024399391887460424,0.18225198092206768,0.46363202812555654,-0.017967253158651133,-0.063043914225183,-0.009519400980730104,0.024608272765265535,0.01552537212499712,0.671875
0.08187405678888375,-0.7134144679030344,-0.5197540376162516,2.3955137980909122,0.0974172532969474,0.06599647425749161,0.061845001835544235,-0.4539660446286767,-1.144098098158297,0.0443391873403954,0.15822027695315824,0.023541289652987792,-0.060389817887463504,-0.036795011270836404,0.6796875
0.08924112501091934,-0.7766902816276074,-0.5663000479886355,2.6102651851941467,0.10627472657630599,0.07205086909781212,0.06732463887098382,-0.4949441420740315,-1.2477794778781508,0.048346028775265254,0.17249783373018834,0.025658355259991095,-0.06578519108956832,-0.04012414315576483,0.6875
-0.029897082291002314,0.2552558256797898,0.18713222656429218,-0.8576393305651071,-0.03383535630848085,-0.025464975192603427,-0.021583493658340686,0.16116830231601287,0.40912306406627724,-0.01582488952022643,-0.05549951077867646,-0.008420382130803147,0.02188003324054715,0.013809534634668979,0.6953125
-0.10815852854287256,0.9317286524595636,0.6813269438397456,-3.1332282405990917,-0.12604576843352117,-0.08950677575818082,-0.07992163875870595,0.5926178246516963,1.4981368747997332,-0.05796146621202911,-0.20536360426968162,-0.030794805415268175,0.0794185848933688,0.049199520896662956,0.703125
-0.075734863299635,0.6504523131649117,0.4758101152511639,-2.1882473816693833,-0.0880397508996292,-0.06294605613482132,-0.05570140730390384,0.41441235385396086,1.0473826164698434,-0.04050142007996456,-0.1434362745165589,-0.021500504238104855,0.055554245086228284,0.03450226275719348,0.7109375
-0.020425639458537946,0.1731370460575128,0.1266280979432927,-0.5818707784898821,-0.023016394247224112,-0.017674408154708374,-0.014493893955907049,0.10984633869059174,0.27823080469927036,-0.010770039839287369,-0.03772684335379234,-0.005678985394679998,0.01493859199867406,0.00951046712577134,0.71875
-0.0031132276606890704,0.02461231755586441,0.017889604873874216,-0.08215277436838674,-0.0027074612304499044,-0.0035129222763583498,-0.0016193563331813796,0.014528231135416625,0.038217503526105596,-0.001500234763051785,-0.004688405888965456,-0.0007505086364427521,0.0022717225842030174,0.0017263737490911721,0.7265625
0.015901326726450477,-0.14090647281567084,-0.10241599033863515,0.47147599743109087,0.01960059932583765,0.012058763194248222,0.01260828283230552,-0.09006369306643992,-0.2254155203646189,0.0087405400926392,0.031724259617448035,0.004667527030705029,-0.011756597495721137,-0.006889366811960116,0.734375
0.06608135236674259,-0.5768594246814333,-0.42001343906766464,1.9342790958334775,0.07874301239874823,0.05315332362303484,0.050071023194858726,-0.36651812342133383,-0.9236637774979334,0.03578132273066875,0.12788405654552862,0.019018437913019486,-0.04877612498617788,-0.02964208835426051,0.7421875
0.09450967016666266,-0.8227684426579827,-0.5993214334731937,2.7614360296662355,0.11242662763507506,0.07642831419738019,0.0712137498679268,-0.5234446540294471,-1.320043934241973,0.05106991242843881,0.18242015881209045,0.027146328836726425,-0.06973310947702539,-0.042513796581131906,0.75
0.03941278004522268,-0.34426306359065106,-0.24999983671821077,1.1561464723567962,0.04772167393884921,0.03130330583035829,0.03002855663022818,-0.2202231228666506,-0.5539942301250141,0.021346338355204744,0.07703284045720371,0.011365482665682707,-0.029160358658878498,-0.01755376344249679,0.7578125
-0.07325371142998383,0.6321038709086846,0.46282108429176283,-2.122560759379306,-0.08486470321952855,-0.060955049940742974,-0.054040439198108074,0.40032812671609425,1.0132494260668379,-0.0393697432798521,-0.1385734927908351,-0.02087852112646653,0.05375603566322422,0.03344189565675931,0.765625
-0.1515380704901995,1.3095875853455383,0.9573461329988321,-4.399228848958176,-0.1769620276802125,-0.12504240780463,-0.11242116002386292,0.8315125967060027,2.1017144980145677,-0.08153181752927231,-0.2883619990442983,-0.04325838228014562,0.11132003182370721,0.06885812140846709,0.7734375
-0.1452059319993822,1.253805065317272,0.9164603729133323,-4.214670548882649,-0.1695061829509447,-0.11984513508839877,-0.10766939769793508,0.7966415578204944,2.0133304952815823,-0.07808983239580485,-0.27624043085855665,-0.04142038143343606,0.10663574485458287,0.06599359007532535,0.78125
-0.08482087920354965,0.7300059247430498,0.5341054391083074,-2.4578562012349874,-0.0986303914483163,-0.0704289800689827,-0.06257092967151517,0.4642332182711683,1.1744120099577076,-0.04552362470498589,-0.16076482289423416,-0.024139260342616327,0.06223762722853678,0.038678851104874255,0.7890625
-0.008132894614376584,0.06544408061874665,0.04918801302546006,-0.22516481029392338,-0.008586386883523143,-0.0076938535489727185,-0.005308059053241698,0.04195583252676941,0.10906321308741512,-0.004163014115243384,-0.01408781397297643,-0.002208722356248849,0.005846485472530688,0.003970040669555359,0.796875
0.08584573371588639,-0.7480766467812974,-0.5447825945307259,2.5114829951002253,0.10208660450062126,0.0692374080923096,0.06480421797894542,-0.47600287420268494,-1.198412768699298,0.046540906145602086,0.16578809171137426,0.02468416258134662,-0.06330688705168593,-0.03858011538102636,0.8046875
0.17726581810291844,-1.5385906681571557,-1.122570584499037,5.171784175340328,0.20988103918259907,0.14413543589095756,0.13297314948222153,-0.9799769542807187,-2.47161370700495,0.09586478560830529,0.34075663547950563,0.050861618136704874,-0.13055845312591435,-0.07996097304334687,0.8125
0.19384280860354536,-1.6810343509665986,-1.2272722377776724,5.651867708238933,0.22935009460443087,0.15774578351964627,0.1453368302718193,-1.0711650752794817,-2.7028931263842644,0.10479867514889538,0.37233508548065214,0.055613395257399695,-0.14269211507560375,-0.08744856840695375,0.8203125
0.10299318646057823,-0.8946943450419125,-0.6530371124979156,3.0060950178091126,0.12219815385191242,0.08333761931525221,0.07759038542532191,-0.570203958467988,-1.438131724540682,0.05578151958666482,0.19831887010219362,0.02960656532192751,-0.07583057382576217,-0.04631395811267428,0.828125
-0.01069273206715304,0.08809072644398655,0.0653244592617338,-0.30217823839069075,-0.011658512512454871,-0.009781545129758054,-0.007212306827619274,0.056266412819126255,0.14467121909942052,-0.005543651274232553,-0.019184726332007792,-0.0029353859087259087,0.00773177346196986,0.0051464935567068415,0.8359375
-0.04371101942618747,0.3733981815452503,0.27392436354986854,-1.2622988781236888,-0.05035741676888479,-0.03679767848423311,-0.03186970524094102,0.23794114083218224,0.6041738207225169,-0.02337521584140732,-0.08220647785874795,-0.012385379662593907,0.03195817488384054,0.020094355921730415,0.84375
-0.02893501961559595,0.24699794524460406,0.1809902653621629,-0.8327777249131688,-0.032843543703414795,-0.024634312555135027,-0.02087345654528729,0.15635975053246434,0.39763796166155885,-0.015449933673813563,-0.053888805527858595,-0.00816122837270408,0.021130087954306615,0.01340911321849894,0.8515625
-0.07879175993661869,0.6800558590793667,0.4967768689371851,-2.2841397082224004,-0.09152306653022456,-0.06540691576540233,-0.05807517659496582,0.4310648451657291,1.0903384330665942,-0.04234016027029827,-0.1493283889858858,-0.022435684156873727,0.057866929661534075,0.03596296260846443,0.859375
-0.16635544558080925,1.437358252560592,1.0502682427880468,-4.830132399602491,-0.1946145165740405,-0.1371160745212854,-0.1233872522232811,0.9135604466857472,2.308700341029548,-0.08950552462486457,-0.3168373242450092,-0.047489360938088115,0.12225974683014268,0.07556709531925647,0.8671875
-0.12709378504502786,1.0959610396134445,0.8014817117686452,-3.683278563593356,-0.14847013438087267,-0.1050327005176656,-0.09406172719042218,0.6974049064806208,1.7631628506943011,-0.06831659122799164,-0.24162070854683929,-0.03624355726860632,0.09333501287142282,0.057766466236663795,0.875
0.05365859174344345,-0.46899437658892246,-0.34152736347633583,1.5793772093224923,0.06417764844646617,0.04292422671024756,0.04083116652920505,-0.2981917352914593,-0.7517644424212184,0.029085325584011657,0.1042974974152833,0.015477204736587945,-0.0396230320993621,-0.02406933400831536,0.8828125
0.1513146745546959,-1.3140608080763316,-0.9588152670205691,4.419828909980863,0.17913846092324187,0.12292312253588528,0.11368920604793198,-0.8361955575474758,-2.111659169989599,0.08171320677750925,0.2912316974262351,0.04341052605823586,-0.11144911285744467,-0.06828331699580543,0.890625
0.02996674526567007,-0.2638173901295366,-0.1914516084340531,0.8840715172186748,0.03646683885738402,0.023632234690423082,0.023066531881802122,-0.16793693021959424,-0.42418973542624355,0.016363988964495663,0.05908520892783899,0.008694347387863894,-0.022177464337908234,-0.01333744181707739,0.8984375
-0.14375396175777547,1.2404894114197398,0.9073099739715927,-4.176353040556111,-0.16792397424013175,-0.11861785000350707,-0.10668390359066812,0.7889328034505522,1.9931668702398206,-0.07723388210492198,-0.27347992851520053,-0.04099232587944248,0.1056822308010794,0.0653544830931206,0.90625
-0.16305508736337962,1.4091120346624841,1.030083144312924,-4.740486562881756,-0.19069255618127753,-0.13450843113952202,-0.12114938363304321,0.8952444469365153,2.262418589677693,-0.08768065347600795,-0.3106718050129509,-0.046511939478614976,0.119945743376957,0.07413989200367854,0.9140625
-0.04684532175672738,0.40333178514866314,0.29551432303376973,-1.3561184117398406,-0.05387961965204147,-0.039422426222390006,-0.03436021159438421,0.2547641199704702,0.6458746945886962,-0.02506419468258293,-0.08830492533941031,-0.013280932259595157,0.03436496278026482,0.02152459797966798,0.921875
0.08479542928571035,-0.7381017000605455,-0.5375158455100851,2.4797715556304265,0.10121927533539686,0.06835897389272234,0.06398967026767251,-0.47097082993631484,-1.1851898482224414,0.045962568853462796,0.16384971547681368,0.024371812312382585,-0.0626601274296641,-0.0381004631913593,0.9296875
0.17426168452546997,-1.5135150429099102,-1.1035850846149025,5.08436688080086,0.20654862133257088,0.14162132490963558,0.1307654509325963,-0.9639546109348354,-2.4289050058514348,0.09422092781034727,0.3351343135425003,0.049969940416992445,-0.12851137056236125,-0.07858584553861493,0.9375
0.17223238475907907,-1.4945366497459776,-1.0901926510555793,5.021330767763482,0.20397418129756228,0.13996984907934815,0.12918630018799016,-0.952243698313188,-2.399945194143315,0.09302872165619473,0.33103711302111044,0.04938045381157997,-0.12689345706765007,-0.07762414568702679,0.9453125
0.06151578823140966,-0.5351886324899755,-0.3899126092618612,1.7969190053519146,0.0734724057464813,0.049357011816357675,0.046571920840177305,-0.34170901622880606,-0.8597111539386846,0.033258956904857286,0.11899962108110682,0.017692761266142172,-0.04537448479928312,-0.027509667530065274,0.953125
-0.02927765282728939,0.2494842246474101,0.1831744873590561,-0.8428960425581214,-0.03349721914534726,-0.024942133232715217,-0.021083816921687117,0.15873894461295202,0.40329279019742,-0.015625651558254433,-0.05472215864439848,-0.008268244283884943,0.021396800160839675,0.013550435786126929,0.9609375
0.013888532666301391,-0.12515395920879416,-0.0907355953431295,0.4154851978040145,0.01717032771760417,0.010402933592418699,0.011198032714023962,-0.07889140334172172,-0.1968206434475545,0.007735238589141485,0.02787382558150188,0.004109325543182066,-0.010310468099055295,-0.005989453331306848,0.96875
0.06968306337644886,-0.6069810316869856,-0.443324844184507,2.0381519263309555,0.08272821412439148,0.0560988952301492,0.05283012348157615,-0.38609153014120867,-0.9728972255711568,0.03779287132899944,0.13458149981049175,0.020074891801865304,-0.05125067344540621,-0.031218985053812442,0.9765625
-0.011662465053156537,0.0982648837140792,0.07148135392591452,-0.3286216542627177,-0.01288895075339408,-0.010430999549898071,-0.007885898634163961,0.061907584192579086,0.15762322514975427,-0.006109494877135177,-0.02096679599615604,-0.0032087171808094284,0.008568919106010977,0.0055712821603260045,0.984375
-0.12277020728829363,1.059144599890027,0.7736382267566951,-3.5571426890749116,-0.14334812503650005,-0.10134290720908037,-0.09079036404880432,0.6735286679915884,1.7013650273502692,-0.06595890746035678,-0.23333051760657306,-0.03498337347457572,0.09014926301469613,0.0557772535019735,0.9921875
-0.10941990209410454,0.9423700292887192,0.688677504122507,-3.164640252426567,-0.12741502306542757,-0.09045153898397532,-0.08082935925951636,0.5995418989873672,1.5143134872809798,-0.058683197247738315,-0.20767191365768972,-0.031139869533150434,0.08022508465351139,0.049688101219806824,1.0
-0.05778237291665766,0.4957418354031049,0.3625472593515158,-1.6635719463996301,-0.0666127662593176,-0.0482570644286353,-0.04232609371706056,0.31490465108712223,0.795985468171633,-0.030868648297391242,-0.10889145466568174,-0.016374280180644938,0.04226044666517906,0.026348222305312575,1.0078125
-0.08177286188769974,0.7042047989198652,0.5152994631584167,-2.3663662406177375,-0.09489736247047516,-0.06793844647127577,-0.06029638101664522,0.44719624794697777,1.1305062871335287,-0.04390663462444101,-0.1547668693370389,-0.023274794761287795,0.05996239007206568,0.03725544255730808,1.015625
-0.08263396287756296,0.7114246566752312,0.5216075125944388,-2.3948183487716204,-0.09596626223801005,-0.06865897546087885,-0.06104818775772579,0.4522949519489543,1.143086532235068,-0.04444585627296075,-0.15635646674404782,-0.023546683558405078,0.060629714453097186,0.03766081646794095,1.0234375
0.013518147654352225,-0.12114462642264423,-0.08599310483501604,0.40104516745083885,0.01712857804574233,0.010020314903482135,0.010602384139551986,-0.07715845066667146,-0.19417129600262056,0.007386801222026436,0.027531860185323723,0.003963995892585871,-0.010051630856423655,-0.0058418766138940625,1.03125
0.07072599406438732,-0.6154710644336417,-0.4476821077678663,2.063546593533067,0.08441459943373374,0.05681553456415473,0.0532759524717908,-0.3925573629183066,-0.9893117985237704,0.038272378936209,0.13681010361225965,0.02034145798177329,-0.05206983473217455,-0.03168109324767004,1.0390625
0.01622594811733579,-0.14290537362963332,-0.10323378591750812,0.47653335943166203,0.020284602133975777,0.012194631579497286,0.012674325922610594,-0.09280880088911168,-0.22993708735093263,0.008957058358606522,0.032459053018968655,0.0047485455297815865,-0.011956719515379561,-0.0069612831410116914,1.046875
-0.008774174221593491,0.07297770027723083,0.05462991221875769,-0.24978405253177538,-0.009140009989785041,-0.008256035735158037,-0.005904714856688006,0.04481725939355143,0.11887716914776825,-0.004469067160997191,-0.015354657023157931,-0.002415789496096016,0.006402523781161695,0.00435630902191243,1.0546875
0.06244071922464203,-0.5441049774603823,-0.3958762886970974,1.8245032595313686,0.0746089181966941,0.05006581566966704,0.047278508971829676,-0.3471604038136179,-0.8717960602746868,0.03392483701255472,0.12083983008496803,0.017954257762452002,-0.04601436705395666,-0.027910494560853812,1.0625
0.09434948402705891,-0.8197926445490106,-0.5980248286975963,2.7548134096091426,0.11211303944209693,0.07623797186686389,0.07112089590141228,-0.5227023924862757,-1.3168642670136348,0.05109298720648626,0.18177284870176355,0.02710376910462271,-0.06950080313198141,-0.04239102530915385,1.0703125
0.028902952876549613,-0.25300192102384117,-0.18489382710260968,0.8532939958835662,0.03513636730951446,0.022734492856475916,0.022341227069901635,-0.16219488569188747,-0.4080776469963203,0.015786107649565475,0.05659222298917102,0.008412718442244265,-0.021414944522946282,-0.012818112106437976,1.078125
-0.0026241452859285964,0.018425278690439244,0.013683220435773717,-0.06003027915288384,-0.0018909900648344407,-0.003026003731916385,-0.0011093821114887912,0.011509924288109086,0.029635370568212326,-0.0012177361219941495,-0.003516974672332869,-0.0005922943817060021,0.0016584059242248721,0.001392653037735827,1.0859375
0.06436716576914829,-0.5631337022911371,-0.4103732227441126,1.8914525405108211,0.07691969514478969,0.05182176082099478,0.0489295858750409,-0.35733669948215563,-0.9016098947476866,0.03488506762548262,0.12479566920785182,0.01856427434713029,-0.047698342157510974,-0.02894947270815984,1.09375
0.10502074337232303,-0.9146519242444016,-0.667309973454022,3.07240280321999,0.12463145682526887,0.08509808708926217,0.07925347856964132,-0.5811316618198258,-1.4657579330003003,0.05679363611480839,0.20250904310949536,0.03018212663915436,-0.07754411621181825,-0.0473110764032848,1.1015625
0.0167412764304345,-0.14869440394662162,-0.10836005371912422,0.49936962477842795,0.020667255888619115,0.012826901646204668,0.013307258910606884,-0.09479486695125464,-0.23733964672431804,0.009224012588164356,0.033475189898159244,0.004918879088209236,-0.012461098574161004,-0.007307382827934067,1.109375
-0.10753068967686014,0.9281050161216,0.6783641534100979,-3.119753175470088,-0.12550813874444197,-0.08894163989755263,-0.07951585700087005,0.5897059034515766,1.4904514551840062,-0.05774008861188129,-0.2043279846778941,-0.030641218843646116,0.07905614462516136,0.04895330525508969,1.1171875
-0.10080449837820254,0.8696590827906732,0.6361011932514851,-2.9238863640613038,-0.11749990146816325,-0.08352164662618272,-0.07454325212991608,0.5524179608020465,1.39630898140059,-0.05412062010044013,-0.19141221677009576,-0.02872101853433123,0.07411416846207501,0.04591186185109666,1.125
0.03180345022154751,-0.279126342549122,-0.20306542216437226,0.9375489511900892,0.03854652917653651,0.024945684618857242,0.02443959288573464,-0.17838230282128795,-0.4475947203673658,0.017328118941063113,0.06239427844102247,0.009219130412523292,-0.023494529244935867,-0.014096336641750277,1.1328125
0.08277226775370262,-0.721161575583818,-0.5258869399598516,2.422318833674835,0.09851441875066154,0.06665219084891479,0.06250829741154193,-0.45925539079499644,-1.1558515868316508,0.044784539471388586,0.16002141796946887,0.023800043000556846,-0.06104972341642906,-0.03716342167067815,1.140625
-0.06756747583834705,0.580567003075017,0.4254692679253178,-1.9556510139220709,-0.07828740031938074,-0.05635519289549513,-0.0497495741250482,0.3690506103693456,0.93482134206886,-0.03624215682819428,-0.1276126381331073,-0.019217564577697396,0.04955731118232673,0.030878738526775192,1.1484375
-0.23807494637201343,2.0582739866748927,1.5049974884720339,-6.922695485672503,-0.27878627156002916,-0.1958727875647891,-0.17713293520786993,1.3084112421459746,3.30551089298488,-0.1281319091616211,-0.4540069047074174,-0.0679981802989057,0.17507610120949763,0.10806675866549847,1.15625
-0.20484674527582533,1.7716768497516795,1.2952263424546067,-5.956047462558688,-0.23967795891868848,-0.16868266146290978,-0.15238281335674334,1.1253162398560945,2.843015688223503,-0.11021057945213644,-0.3905836924008828,-0.05848299050018837,0.1506745799671923,0.09303191464783848,1.1640625
-0.04180003605270012,0.35904599965469053,0.26329187143304067,-1.206222068481062,-0.047921750915482626,-0.03524508313444167,-0.03059451210897795,0.22714407098447661,0.5752014289242197,-0.022320322015754873,-0.078565182277838,-0.011833599325725997,0.03065528884266729,0.01919575753407893,1.171875
0.0529144404905907,-0.46248966659696994,-0.3364616580331459,1.5527375914958512,0.06346227168514494,0.042330074298303724,0.040219976725662916,-0.2945047301816923,-0.7424548645655329,0.028736068435686164,0.10280915095925487,0.015257929373618816,-0.03910526354489394,-0.02370977743825605,1.1796875
0.09349655694386182,-0.8137494530728354,-0.5931192531004141,2.73129063159452,0.11120176060059665,0.07564224499482423,0.07054572328629771,-0.518005907397015,-1.3069674019403001,0.050620187320872596,0.1804898606565174,0.0268646877344167,-0.06894679301744791,-0.042058091688121246,1.1875
0.16296637075647494,-1.414632604153211,-1.0323610074136087,4.751813685786456,0.1928894362622189,0.13253296772786027,0.12239487699039675,-0.900674193284665,-2.2724722970003146,0.08808160705486012,0.3133609879015909,0.046737320467862956,-0.12001566143940325,-0.073472220065757,1.1953125
0.16889214407005096,-1.4664861466372991,-1.0700804948328666,4.927270215510925,0.19975734557783292,0.13732172730848627,0.1268397964257534,-0.933185958999478,-2.353955300841521,0.09127316583233372,0.3246904943809078,0.04842597359480001,-0.12439945380828187,-0.07617561144023251,1.203125
0.06762470847011934,-0.5900321103849758,-0.4297155968315006,1.9818670456822434,0.08055306998893931,0.05437699927162219,0.051256804931950915,-0.3752035660235787,-0.9451198656482032,0.036647388530958176,0.13089644098139974,0.01945259081255711,-0.049925129712971236,-0.030363395804799766,1.2109375
0.0329025263846536,-0.28833569661167485,-0.2098937984094618,0.9694124964818595,0.03976189022529044,0.025946267926503404,0.02530255362161025,-0.18405713224459638,-0.4621771279854259,0.017886040929956024,0.06436162714216202,0.00953140982755657,-0.024355920190105282,-0.014609632540065183,1.21875
0.10644339703189104,-0.9245696839540706,-0.6751719815777001,3.109085286264089,0.126392369393238,0.08611124993324029,0.08018824861148288,-0.5894842907456512,-1.484740482385742,0.05752979070368958,0.20504993859572926,0.030586191988797234,-0.07846337240614515,-0.047847792378353994,1.2265625
0.07073519743003971,-0.61668523010828,-0.45003853566237084,2.072611294141996,0.08440477986474451,0.05683447575351859,0.05358030984426294,-0.39290935790737364,-0.9877929397898915,0.03832638157517978,0.1367979721530991,0.020377628153219383,-0.05226425076580079,-0.03170511080066125,1.234375
-0.10127698014943914,0.8719129986197537,0.6376231084105428,-2.9324745480356564,-0.118037261229667,-0.08393439918208788,-0.07480839412223401,0.5548498078985327,1.4042180135410833,-0.054371150308121,-0.19235257477438877,-0.028829127295887477,0.07425712530305545,0.046096531088504256,1.2421875
-0.15775194032547088,1.3621996009679112,0.995558441326779,-4.579317274641844,-0.18451914323659926,-0.13006918503505574,-0.11704048286529609,0.8662121880848289,2.188696803674534,-0.08483473617395897,-0.30052768627815357,-0.04498538162332609,0.11589145558465558,0.07164913940464296,1.25
-0.07090521008567854,0.6113160338797834,0.4470860449799734,-2.054921519459163,-0.08228860226717255,-0.05896661082531098,-0.05227965711645703,0.38780663993421044,0.9802135689158443,-0.03803509118617183,-0.13431254112964458,-0.020152433454921938,0.05209521111537074,0.032375603701913454,1.2578125
-0.06352585664578327,0.5465855798934408,0.40028354281472467,-1.8395432927085482,-0.07352408438875326,-0.05300161836477213,-0.046736198589897485,0.34692593994906157,0.8777506727585044,-0.03402644323287304,-0.11997892648381835,-0.01805700714803602,0.04666784757917928,0.02905551592866044,1.265625
-0.11136923550566426,0.9601034043400596,0.7023925748466722,-3.230109241360962,-0.12978419818921394,-0.0921732730967829,-0.08238198552233211,0.6103437918736585,1.543173615817741,-0.059786942825375666,-0.21143060709395717,-0.03174155288123446,0.08182657493819591,0.05069867149730343,1.2734375
-0.04119664740908725,0.35359905197725855,0.2589392052031299,-1.1891581702118605,-0.047272275929120526,-0.034634358611942986,-0.03003088165604312,0.22397624651295509,0.5664651266678893,-0.021993958901605676,-0.07727383598668063,-0.01165891293884573,0.03023030108389717,0.018925407079595606,1.28125
0.00406027970853614,-0.03714448656263934,-0.026316131379543563,0.12409746709276509,0.005892351492202256,0.0024571058750770948,0.003646792964334013,-0.0250609946926839,-0.06340189773723633,0.0023362228429517516,0.009256158090860606,0.0012697380413802843,-0.002991036639311047,-0.0015542022526347195,1.2890625
-0.1379969744783564,1.1919894563792348,0.8722635372591837,-4.01103625775867,-0.1612589670426866,-0.11392176677816976,-0.10241772242333441,0.7573531298312831,1.9132058228308204,-0.07425348587305675,-0.26245036795524934,-0.03939680796468353,0.10150034305972132,0.06274864515110679,1.296875
-0.1763487431038369,1.522247514960755,1.1136856573570186,-5.122027807026617,-0.20628445945078172,-0.14542672747074692,-0.13094420654780553,0.9681312527682809,2.447778827616387,-0.09487815643975502,-0.33572272574093764,-0.050357773711114044,0.1295680485165048,0.08009990452122671,1.3046875
0.12482211071313974,-1.0862740296084779,-0.7921145088748339,3.6488970784230137,0.14814230706285206,0.10110018614664507,0.09395619746549105,-0.6911124037512272,-1.7407971246358787,0.06751361281063702,0.24051781149132537,0.035837358912782925,-0.09212538626076239,-0.05622818262851488,1.3125
0.393192761817921,-3.4098778649787267,-2.4893175644644594,11.459677466869971,0.46382572052362725,0.32083932465161363,0.29426411294146254,-2.169085956038346,-5.4737488813553945,0.21219326866225705,0.7539243140690186,0.1126217126381867,-0.28954090392062937,-0.17770720012618252,1.3203125
0.2657596621099361,-2.306235015634,-1.6827861163727569,7.747985264394554,0.3137700221947642,0.21655814112009916,0.1990982804606403,-1.4667047635602464,-3.7013757032224257,0.14351772761421866,0.5099990359252784,0.07614890186053697,-0.19570095855339592,-0.12003684606830584,1.328125
0.013164258219486304,-0.11816649165430493,-0.08507801622860658,0.3959839914963633,0.016605862226351572,0.009812130545899444,0.010567162722378964,-0.0753591449057073,-0.18822948805131162,0.007377629955243428,0.02658809588389446,0.00388968535779147,-0.009837230361260147,-0.005708746164998135,1.3359375
-0.042151513600290055,0.3626867588722578,0.26478385574334384,-1.213441193653959,-0.048337392155040966,-0.03542144608954136,-0.030692907837257824,0.22908806867047782,0.5805064428138185,-0.02245921720340202,-0.07934206944940816,-0.011912834957745413,0.030864333313966368,0.019346612701932726,1.34375
-0.07245492916497856,0.6261554201695475,0.4565960461671168,-2.0978670470787923,-0.08398746532329257,-0.060202864550114275,-0.05332692694815197,0.39613970629707757,1.001647278405146,-0.038850089073588265,-0.13737462713369322,-0.020580604143704957,0.05320842788900358,0.03309212173809755,1.3515625
-0.20859918853252998,1.8039163286669306,1.317576191175927,-6.063589036406138,-0.2443595188309551,-0.17168948405280712,-0.1549774507124169,1.1464624300989255,2.8960310220913335,-0.11227943199104409,-0.3978688566517586,-0.05954950909325095,0.153419546980472,0.0947305930771077,1.359375
-0.18850446237924035,1.6283005974330538,1.1903252451170676,-5.479382024442949,-0.22089338463459451,-0.1553020782766375,-0.14000091995805697,1.0358978066872966,2.6177396806521007,-0.10146905432800327,-0.35935632318430544,-0.053816722305459454,0.13863665596003008,0.08563787789141972,1.3671875
0.05449996568504439,-0.4760929526382025,-0.3463073350434083,1.5942436696748659,0.06502312379515308,0.04359251200548196,0.04134907292967466,-0.3028782804978807,-0.7618235977054615,0.029489492063864572,0.1057404727369824,0.015693824153186944,-0.04017074520916059,-0.024351734189521856,1.375
0.17933210665046917,-1.5568393668487983,-1.135673835872596,5.2291061595413675,0.21204111514848328,0.14577615888704923,0.13451716761869,-0.9908024155107881,-2.4987454392373003,0.09676350324503741,0.34475131221744276,0.05140452493676317,-0.1320740373517752,-0.08086788686327429,1.3828125
0.07664148677271218,-0.6683269380507445,-0.48685559232033965,2.2430096142747775,0.09134810916772487,0.06170818558355642,0.05790950062795978,-0.4253868327789029,-1.0712407807927167,0.04145012389721753,0.1483235421263154,0.02204749149604599,-0.05661623100420765,-0.0344185290315481,1.390625
0.018810028174757517,-0.16774202332711,-0.1215144828203279,0.5607764699745246,0.023324672584722924,0.01437050761447263,0.014751533378218636,-0.10691104267224441,-0.2672027337632209,0.010334457367940558,0.037577811038723416,0.0055285964427046665,-0.014076817588118426,-0.008251634575194683,1.3984375
0.062364920322208466,-0.5435337612590374,-0.3960371314059032,1.8250735982066708,0.07454633148481159,0.05003591475347107,0.04718725349488948,-0.3467340698384727,-0.8728907299259341,0.033826672595768575,0.12081360331714387,0.01797419006768157,-0.04600465160375726,-0.027933636170118552,1.40625
-0.019798249991781793,0.16891054669685876,0.12467741660241055,-0.5690611461036369,-0.022043685233368773,-0.017227427521414075,-0.014171812222332712,0.10585214611762253,0.269946948272779,-0.010461378492103518,-0.03635226762827346,-0.0055708562500425395,0.014509677396042114,0.009279162321910778,1.4140625
-0.20693512872554576,1.7886543130534216,1.307694562973541,-6.01226546637827,-0.24205349720963235,-0.1704082008993984,-0.1537457652996311,1.1364717603764372,2.872139560044023,-0.11129225120663898,-0.3943151262619025,-0.05910195072985561,0.15210053422968087,0.09395125575577212,1.421875
-0.23859859737667394,2.0621319647674063,1.5065642947955686,-6.928006606056011,-0.2792399503980649,-0.19624612775887915,-0.17724783859118337,1.31087648987389,3.3112059179351605,-0.12830423335433316,-0.45492385059735224,-0.06810473543723419,0.17531028362673937,0.10822537485208507,1.4296875
-0.0876681945311924,0.7555591029297505,0.5516329940515746,-2.5338491963407708,-0.1017602431763088,-0.07259306337892904,-0.06456723744737619,0.47986399271883967,1.2111473238049009,-0.04693738322400688,-0.16623531639732944,-0.02489893309733093,0.06430223253865644,0.03988064746281339,1.4375
0.04920920747145897,-0.4297327403019975,-0.3133727233848195,1.4469397664805308,0.059136023427383874,0.03945061053000467,0.03755058220658672,-0.27378359320105644,-0.6916434516903693,0.02681241263136988,0.0956584734505485,0.01422018592827312,-0.036353073043282,-0.02205839255515604,1.4453125
0.09606499582045587,-0.8364847241901229,-0.6092464427212896,2.806987981996568,0.11409357940352746,0.07770697215958547,0.07247438338765665,-0.5317984995359412,-1.3409779339366759,0.05203085531226447,0.1853429278297251,0.027573024240598862,-0.07081784508851324,-0.04322236144865732,1.453125
0.09858152107443073,-0.8588316306411626,-0.6253129227306771,2.8773041601698734,0.11681779302376748,0.07970990163871094,0.07430407788337694,-0.5454832456399374,-1.3741902162737372,0.0533556733431928,0.19008676641012656,0.028281404385164514,-0.07261812586343354,-0.04432150921357863,1.4609375
0.07579565516290118,-0.6611049389948087,-0.481441582905821,2.213226461112912,0.08988195776681922,0.061075647919787014,0.057256317223630934,-0.4197737048594635,-1.0572943391213843,0.04104399802489101,0.14641668565648422,0.021779510616036397,-0.0558004576138923,-0.03400380609743299,1.46875
0.07337017212268757,-0.6392542894075772,-0.46590472626958057,2.1442854499220645,0.08721164842798504,0.059077134268650064,0.05542252492976805,-0.4067160976204958,-1.0246606533030223,0.039687376351203445,0.14181706543437952,0.021100142101379452,-0.05406846315905723,-0.032917505827975146,1.4765625
0.1373336341302979,-1.191654604532064,-0.8697132891190398,4.0065149500267365,0.1627582404599875,0.11135761141948566,0.10311335095599049,-0.7596675079561064,-1.9150146836640143,0.07408362345329497,0.2641934984266118,0.03940743799661813,-0.10118304885913894,-0.061840415674725945,1.484375
0.1598226366381438,-1.3849749173492816,-1.0113159279378836,4.658437988451776,0.1892707097850975,0.12970778257526697,0.11982876316965772,-0.8837229770161551,-2.227716569165838,0.08615609425252177,0.30708100446826375,0.045848101293266386,-0.1176595982737749,-0.0719643079633419,1.4921875
0.01077898895465365,-0.09526590697816859,-0.06903955886744893,0.3196016063640483,0.013816312022345003,0.007714501503475897,0.008606406123127486,-0.062486995489135826,-0.15459271238957945,0.005886790095321501,0.021908901395415063,0.0032099304659911143,-0.007967057883895927,-0.004508622255523031,1.5
-0.1847028839735483,1.594676446845312,1.1662447082998673,-5.365634123324011,-0.21612092354759968,-0.15225435962652314,-0.13716391824386706,1.014318662633982,2.563803720615117,-0.09934438920872343,-0.3518503974895622,-0.05271850312292476,0.1357160239608716,0.0838917537727999,1.5078125
-0.18421483111348436,1.5896943005061057,1.1627083789223436,-5.34692821458683,-0.2153970312373497,-0.15179909204095565,-0.13669377456492557,1.0113892988239874,2.556172371572726,-0.09901637842763121,-0.3507459751642861,-0.05257697996465187,0.1352447087881445,0.08361416511822577,1.515625
-0.014524376283331815,0.122544214826991,0.08989462648745004,-0.4080175135624886,-0.015764296946957166,-0.012842609469146442,-0.010038872130233962,0.07665858876639195,0.1955521358149066,-0.007573811112427319,-0.026222927930123242,-0.004021465136106195,0.01049404252989885,0.0068247214144441844,1.5234375
0.0626958378904179,-0.5449703672562273,-0.39833826232748426,1.8380351297287423,0.07496067643856012,0.050408003889240625,0.047579773600191146,-0.34848395459013976,-0.8783211636350249,0.034049715851422045,0.12136862560331986,0.018077282333328306,-0.04621160173853226,-0.02810738606021254,1.53125
-0.04049208621112818,0.34642727398208784,0.25365238029325066,-1.1645306305003071,-0.04647412837491684,-0.034017189375545785,-0.029409235848581797,0.22003214853580225,0.557176051239533,-0.02151806459408931,-0.07595221753380417,-0.011439836276925507,0.02962637090956507,0.018564575469910694,1.5390625
-0.12798698655089433,1.1018453820163698,0.8063066646683762,-3.7093928069122715,-0.14938819828473024,-0.1055990645337633,-0.09468448479614118,0.7020465025684547,1.774184878909812,-0.06866085727328566,-0.2432128419117395,-0.036462104026394694,0.0938868856722219,0.05812840439668499,1.546875
-0.05739251003061798,0.49111638757033915,0.3597361122654945,-1.654402629980604,-0.06637722782694742,-0.04783500940865545,-0.04200585752182969,0.31332436741958786,0.7923767641489812,-0.030653682264461874,-0.10821984183080524,-0.01625835329586534,0.04199585831856719,0.026189771790614894,1.5546875
0.0420856590312095,-0.3683524235030535,-0.2686831961997038,1.2386992814435065,0.05062455607391547,0.03349768093253714,0.03218290241199091,-0.23457167883237057,-0.5909955471616719,0.022908227336133482,0.08196823080202999,0.012183117941680165,-0.031080549656186427,-0.01878647795840907,1.5625
0.012333880687254935,-0.10959064349886383,-0.07909188085351028,0.36761019571718084,0.015697539214257494,0.009060757552453464,0.009867760740117464,-0.07079790777429791,-0.1770192474568384,0.006816016377852712,0.025051252546354777,0.0036240554485588517,-0.009157177209443161,-0.005276938319397665,1.5703125
-0.049036371842471796,0.4222381394955373,0.3103203192571864,-1.4232818779332306,-0.05641148266829597,-0.04119823364464431,-0.03603547823155687,0.26707940669923164,0.6765917493434782,-0.026314416169498322,-0.09227337417528375,-0.013975090713343373,0.03598880150779154,0.022524669968669874,1.578125
0.03919417480719094,-0.3415042784070644,-0.24765459362715173,1.145446436518464,0.047392457584989243,0.031000585834251995,0.029821487328099573,-0.2190939998655982,-0.5504122685581441,0.02123835979592363,0.0765680774428242,0.01126486219771759,-0.028906044710092692,-0.017402108000688747,1.5859375
0.1917898506707851,-1.6630313383744484,-1.2137697030903478,5.590894583153143,0.22685575434208471,0.1558853156571628,0.1437885149925343,-1.0597138687117178,-2.672524428362757,0.10353312553619684,0.36848034262924423,0.05495110348372135,-0.1411616998848935,-0.08647437632202712,1.59375
0.16390662212903245,-1.4223343214611823,-1.0382853555712663,4.779939258980147,0.19393655240384405,0.13312560809576132,0.12300919949607834,-0.9058565251064943,-2.2844629962350784,0.08852204868852055,0.31505534295545967,0.047004032560538304,-0.12065996098717918,-0.07386454029766862,1.6015625
-0.02895122935084148,0.24667426345177224,0.181122530018322,-0.8354369639164786,-0.033152162025765416,-0.024612493844431576,-0.0209354413101421,0.15699648199697666,0.39836670920932604,-0.015458467423560945,-0.05401654548194241,-0.00815326248009604,0.021213864605566755,0.013409060503572814,1.609375
-0.1252250877050879,1.0794502110078268,0.7896168416330023,-3.6358912770163685,-0.14658755417198163,-0.10337379835354538,-0.09274392483904435,0.6875740708916492,1.7380294868280115,-0.06735064786848928,-0.2382680205924863,-0.03568185818785576,0.09202128290793105,0.05695531720244837,1.6171875
-0.05714949255025494,0.48965196877150813,0.3585971041475256,-1.6500737704037431,-0.06647009551999879,-0.04770228294923927,-0.041879590276011666,0.31239181620344647,0.7910887650525129,-0.03060488732432364,-0.10801385467222992,-0.01619325853000157,0.041904728940037904,0.02611606905362962,1.625
-0.01715408021645082,0.1438377252976319,0.10564453052764865,-0.4852017208931037,-0.019208104369303675,-0.014980909751747134,-0.012050285410990185,0.09179004514461227,0.23351588267365367,-0.009017305234796807,-0.031433487039424696,-0.004748278853589874,0.012465307311257738,0.008007183292191132,1.6328125
-0.05632684927931143,0.48373752850263374,0.3536812260776439,-1.6267522416886642,-0.06508520896383742,-0.04701329093186279,-0.04132056638403261,0.3073689923718769,0.7769931183664384,-0.030146649287064883,-0.106304432078917,-0.015957458954202534,0.04127163861565187,0.025741691122592676,1.640625
-0.007903349205918805,0.06442473184626371,0.0474497754024763,-0.21481996728510766,-0.007961302965402506,-0.007414396316289828,-0.005123087480734578,0.040243934461627454,0.10316024577046691,-0.004026926077475032,-0.013573161718888898,-0.0021012672171507084,0.005583656160208848,0.0038193264884154817,1.6484375
0.12829266903604886,-1.115327780766997,-0.8138058968287663,3.753091583418527,0.15244861288136813,0.10395769764440235,0.09659825671611154,-0.7105724533532771,-1.7909332749320996,0.06945903404114417,0.24711117978729047,0.036855406629116676,-0.09469129510716512,-0.057828314690421975,1.65625
0.1273834163991264,-1.1071745180376424,-0.8072080133811338,3.7244771074256353,0.15153263148255788,0.10316422658349785,0.09587318273094445,-0.7058393808309567,-1.7783893184196318,0.06900249050381711,0.24546921100346586,0.03655920059874214,-0.09400937737450205,-0.05739657236170923,1.6640625
-0.0443196529690134,0.3808581469847901,0.27980393095916256,-1.2794860852565895,-0.050513924987879134,-0.03734338386960716,-0.03239711427795946,0.24029123764495,0.609693747860295,-0.023617023041578228,-0.08306662468649582,-0.012601717905027081,0.03242455406875221,0.02035414380754089,1.671875
-0.13973327534537924,1.208307074037931,0.8835403466563883,-4.060035484204441,-0.16301708169078624,-0.11542886643484301,-0.10366127535423901,0.7663904046031228,1.9374117742743602,-0.07514548784454424,-0.2658086139982896,-0.03990005354873946,0.10274083817785959,0.06357211769790708,1.6796875
-0.05237170498811017,0.4520839661802353,0.3305598663037696,-1.5176116862179947,-0.06052052524668098,-0.043951705238031054,-0.038429609725811276,0.2855125736746274,0.723520725169069,-0.02809899402884801,-0.09884769567892741,-0.014888119719077785,0.038536846975619134,0.024058154974854074,1.6875
0.029750647653001405,-0.25988010962173075,-0.18931168299993814,0.8713157493779135,0.03589686985153155,0.0233081476433004,0.0228855280560635,-0.1665140033888633,-0.4177117173811189,0.016161766728654953,0.05828217642241526,0.008603609798544468,-0.021860205763536058,-0.013103447302011406,1.6953125
-0.020280812856376475,0.17212241052362365,0.12666427894928722,-0.5856262738635436,-0.023088249496556378,-0.017497140064757298,-0.01445663631388175,0.10957035670051364,0.27825303266099705,-0.010816081469363907,-0.03735037824073313,-0.005714866315947879,0.014924059411447567,0.009501710932887857,1.703125
-0.08322577107265759,0.7162415519700736,0.5239384485293699,-2.4137891743606326,-0.09716112452503911,-0.06890135867962928,-0.06140633207847563,0.4565462075659254,1.1528705106070514,-0.044727804978128,-0.15781709172717048,-0.023683852652423433,0.061152971332023194,0.03791750314051174,1.7109375
-0.04737804733554578,0.40509966020654475,0.2962923115625747,-1.3644596201303967,-0.05484503653530678,-0.03957655113132842,-0.034590431349364306,0.2587138465207282,0.6533894818824738,-0.025330686075971384,-0.08929623997000084,-0.013372465734511774,0.03466503315587145,0.021646315174428186,1.71875
0.026341380738496737,-0.23402520134142327,-0.17014225690654378,0.7830789575414084,0.03208871231194777,0.020681797686332593,0.020454508845248884,-0.1479502792957229,-0.37180154045529984,0.014465866011970512,0.05186844119896298,0.0077200144802225795,-0.019658447752329593,-0.011709512052977189,1.7265625
0.05975476970956121,-0.5235605092430946,-0.3806474073842747,1.752696238503491,0.07148529466854915,0.047985686755575206,0.045341705670342305,-0.33213370884742943,-0.8357893714335171,0.03244055623669997,0.1159618227665536,0.017229600868881225,-0.0442415307370749,-0.026801170536183447,1.734375
0.0656407150870541,-0.573366545541497,-0.41662224028896483,1.920458562965261,0.0783751767727175,0.05276924795181336,0.04964400262920932,-0.3643027613097,-0.917708850285227,0.03553095239659816,0.12714934843203995,0.018877995798884013,-0.04848029887198916,-0.02944408476324856,1.7421875
0.06864522880988272,-0.59759131498683,-0.43476294028572193,2.006383926647138,0.08190894532542928,0.05515429095526582,0.05182437160074419,-0.38088126821873497,-0.9604283398107676,0.037136467646136144,0.13271561924278807,0.01974004664858426,-0.050585045179473896,-0.030786094377578205,1.75
0.06646028417520648,-0.5779919354715173,-0.42094816931966866,1.9432881448795287,0.07942524663326728,0.053309029645320305,0.050210842368438625,-0.3693309150605024,-0.9304999539904024,0.03602495113948388,0.1285912139421401,0.01912365086373362,-0.04895481959011653,-0.029778169766647808,1.7578125
0.05674869813282035,-0.4944554390606887,-0.3601479061064088,1.6622744624942418,0.06807715424908505,0.045374707142105994,0.043047690853112296,-0.3162730129492206,-0.7949930316653969,0.030849543430021803,0.11022320075489904,0.01634389792167527,-0.041861657258761044,-0.025373807233295503,1.765625
0.01797133242028201,-0.15871513148227198,-0.11529535756009493,0.5349243446143197,0.022470494440294444,0.013648195856216853,0.014176479514975866,-0.1027259214604693,-0.2554374391406959,0.009952378977069463,0.036021385670729,0.005252076197190196,-0.013354846989523623,-0.007820476998362984,1.7734375
-0.06724488954169057,0.5801578424534319,0.42384233095034796,-1.9452684429352873,-0.07777996018315311,-0.056147063932721133,-0.049426614839638026,0.3668140406960748,0.9292472709377143,-0.035998494894102784,-0.12723872833521568,-0.019117556472568464,0.04937392198057333,0.030753281541043218,1.78125
-0.13398137353645317,1.1581510898170944,0.8459150099046365,-3.8873175516631173,-0.1562848159691013,-0.11077970146681473,-0.09924611597651736,0.7345534666212584,1.8571557826115959,-0.07197570229303918,-0.25497016449840465,-0.038201119676334765,0.098466548019439,0.060950809008856445,1.7890625
-0.09728842763334111,0.8388562391765411,0.6130648744407271,-2.8176423883494413,-0.11318047912765511,-0.08064349865508917,-0.07180243897249892,0.532646511017375,1.347592540463138,-0.0522004056261543,-0.18458837447760884,-0.02769880368710597,0.0713931615456646,0.04431726199763668,1.796875
0.0013310762979868891,-0.01628924125784748,-0.011380487374005242,0.053480206477063384,0.002686941321002907,0.00018735831038413372,0.001857887803518726,-0.01025359879856793,-0.02304260645969129,0.0009306084755142793,0.004157850318204991,0.0005163807830567887,-0.0012006889344606225,-0.000336587967420909,1.8046875
0.0466658006724073,-0.4082927477133932,-0.2978107847893942,1.370853476838728,0.05588871048778865,0.03731054078738424,0.035635408398675024,-0.2596812806451854,-0.6535869876165978,0.025322456711654995,0.09074535509117514,0.013484102903383192,-0.03449772762674246,-0.02085417125847048,1.8125
0.029399556038715233,-0.2582367328894943,-0.18791442008879608,0.8658831758036719,0.03555788482990134,0.02317566495720812,0.022639413327037956,-0.16440300758428233,-0.41428007021879104,0.015995425174200932,0.05764267154891064,0.008542462240483623,-0.021745736224048285,-0.013048491493956456,1.8203125
0.028716299931645102,-0.25316707062625204,-0.1834930822648837,0.8460599700508286,0.034806069113296936,0.02267186738340181,0.022106854997111104,-0.1605472094859367,-0.40538240793077623,0.01565272502710381,0.05645650741929025,0.008345641942960792,-0.021269040508930574,-0.012769326689472156,1.828125
0.05005644124901738,-0.43853360414512005,-0.3185547730982384,1.4677918015525744,0.05996536723000988,0.04015846254785758,0.03806464663895892,-0.27815851471747777,-0.7022745951983385,0.027185060589185378,0.0973508958241812,0.014444933106064229,-0.0369978883465681,-0.02243803581888766,1.8359375
0.027448552752434564,-0.24171140776351746,-0.17507789041988334,0.8080989385572384,0.03343243286015837,0.021547627332183784,0.02114849729311579,-0.15394186332740264,-0.3876319890624161,0.014983641732229951,0.05399611100244429,0.007966445725559894,-0.020342113091806148,-0.012165404536004785,1.84375
-0.038098519312912194,0.3270108701110446,0.24008522314776956,-1.102131229451299,-0.04362406166796621,-0.0322406289585586,-0.02786279366789785,0.20677581316332952,0.5247882406264757,-0.020384870819299745,-0.07149437070963768,-0.010794141390005276,0.027914985183563844,0.01756200228127908,1.8515625
-0.07260308424675531,0.6255973501394685,0.45828897167762284,-2.106539168749716,-0.08424500994679895,-0.060528757030353625,-0.05363359928056401,0.396807736255874,1.0059164106482807,-0.03898634928031912,-0.13748885323301266,-0.02066764442547263,0.05332284018740059,0.0332098034419767,1.859375
-0.048442920711576895,0.4158509796681648,0.30516918574603036,-1.4013348631865317,-0.05589895856237784,-0.04073892128389457,-0.03554171885294565,0.2638547862022431,0.6702659099902517,-0.025931334935618687,-0.09124402935841724,-0.01375398295182777,0.03556882344207092,0.022261974668466435,1.8671875
-0.012364137363474931,0.10335997931621807,0.07679150337198389,-0.3492814037457154,-0.01344537718866148,-0.011202763904681282,-0.008539756103105797,0.06502769056267507,0.16737244724179928,-0.006457256333576873,-0.022194520944062046,-0.0034300898954878574,0.009007862018062137,0.005899941752620765,1.875
0.002753879776960059,-0.0278589444799223,-0.019279939562706013,0.09156543389293371,0.004414079315625444,0.0012078090871227042,0.002820816277612273,-0.018416492106568934,-0.04407040147714174,0.001702274604474515,0.006830437032662015,0.0008971506479932602,-0.002171626756884128,-0.0009637723397922078,1.8828125
0.01830705683625276,-0.16294065359731078,-0.11833839994564391,0.544132096093417,0.0227016499512996,0.014045330363246969,0.014485583071730753,-0.10390283443758375,-0.2605197527861723,0.010093960320141844,0.036659334235577525,0.005354221539517884,-0.013619718643315511,-0.008005623195981946,1.890625
0.04994683910907715,-0.4364426285903304,-0.3185325439485676,1.4651037033224152,0.059865559131548944,0.04003518461404984,0.03808246096755422,-0.2778570063230789,-0.7005902511714862,0.02715887857257574,0.09711597566458671,0.014423454136411752,-0.03684538116121316,-0.022333928116973028,1.8984375
0.0693551476398005,-0.6038653620013825,-0.4407475143709843,2.0318572252193063,0.08275533218963121,0.0559102185742593,0.052522473350823454,-0.3848632570255636,-0.971243273915554,0.03763608469755732,0.13416471221797058,0.019993399242143207,-0.051145863198993,-0.031151560872757743,1.90625
0.05524045176956989,-0.48212826136707565,-0.35132063884209574,1.62390502972482,0.0662632887605548,0.04428832921278971,0.04201307004968113,-0.30747072860224806,-0.7753689348566026,0.030045699256785418,0.10722265029711181,0.01595539217241296,-0.04086285548545846,-0.02479509676611107,1.9140625
0.027639782621590624,-0.24371813085092336,-0.1770555026668572,0.8209062914833074,0.033780037584477944,0.0216498517180068,0.021462173179915788,-0.1554592365089199,-0.3908975554493718,0.01516278473568625,0.05448567199400913,0.008042782039926668,-0.020566703815561423,-0.012288106301296021,1.921875
-0.0007531165470842297,0.0029337564697399644,0.002689879282402591,-0.008453490474043817,0.0003194739458545261,-0.0016304415259967065,0.00022990290268032213,0.0010569818453867177,0.004820942651419953,-0.00017762098948419057,8.957422969805206e-05,-9.364847361644563e-05,0.000419395253913747,0.0006186527229466186,1.9296875
-0.04643429915317377,0.3995461194224262,0.29219860978718526,-1.3401890023843042,-0.05334634594431816,-0.03908989933282659,-0.0339476882208295,0.25239322585275126,0.6407031031707997,-0.02483457774218843,-0.08740887617534578,-0.013163569284296886,0.03403720158855766,0.02133756711591318,1.9375
-0.09592993949140124,0.8279421798197897,0.6053701457283907,-2.7801709343894605,-0.11150472011999116,-0.07964983480721095,-0.07090586943566778,0.5247272593394806,1.329814525261341,-0.051537489383006084,-0.1821256929915948,-0.02732089144119408,0.07035402556176652,0.04374390294285037,1.9453125
-0.09580796331657966,0.8264528581642137,0.6044383662302713,-2.7772081605469263,-0.11151451269153542,-0.07951405256919085,-0.07082075431197066,0.5244664794998661,1.3287239945977267,-0.051511511848912346,-0.18193139990359877,-0.027288717303671894,0.0702732557885936,0.043680429590205044,1.953125
-0.02980800849453735,0.2552699792576601,0.18728772050849557,-0.8602008933632399,-0.03407750724805144,-0.025403852113389653,-0.021636627491370256,0.16159646681929607,0.4103621240238565,-0.01596391335012272,-0.05571453965018446,-0.008414788407206844,0.021860820124309968,0.013809082873909634,1.9609375
0.057215710715215064,-0.49858678232676973,-0.36289846115716073,1.670042070697819,0.068315109859706,0.045895806850913205,0.04326891721796336,-0.3177278527805307,-0.8009529308967223,0.030984942209161686,0.11088395659165247,0.016474840359086376,-0.042108999337804834,-0.02558417599090122,1.96875
0.10941649350891365,-0.9522031563916058,-0.6936477096021003,3.191433056170353,0.12982740398947862,0.08865403402492911,0.08230041670791018,-0.6055522217085596,-1.5271372860587966,0.05918703040545986,0.2109656608774491,0.031408694602702986,-0.08060167267953527,-0.04923376367926489,1.9765625
0.08162236538408542,-0.7124112666922954,-0.5184679425211586,2.3851025143219644,0.09703930032212549,0.06591822489269691,0.06162132763051637,-0.4521329149167354,-1.1400880582364645,0.044200165613705336,0.15780872345884617,0.0234631512040104,-0.06018316857985603,-0.03667748686386071,1.984375
-0.03435777731075268,0.29278087195606095,0.21531666119663595,-0.9908539059844133,-0.03956041799264508,-0.028999657148287963,-0.024971205322199024,0.18732191778434662,0.47278670280142227,-0.01835057391152373,-0.06428386761454144,-0.009709594405431319,0.025218349781718333,0.015801084386954694,1.9921875
-0.14837469159569772,1.2808560287324147,0.9366913157985529,-4.309157119669046,-0.173614663004378,-0.12230722835555648,-0.11006519989003481,0.8151918473195039,2.0575979771921666,-0.07976548730289983,-0.2825042340291903,-0.042320844044266344,0.10909333291090158,0.06738925132415698,2.0
-0.12906360486308424,1.113101273846202,0.8140342895432306,-3.744100214353941,-0.15064585653383805,-0.10649992691052304,-0.09554670615295976,0.7079887366234336,1.7885675632963336,-0.06928214349064636,-0.2453838110442354,-0.03679297534793132,0.09476201190600395,0.05864087877799377,2.0078125
0.01752167337709938,-0.1564970130478859,-0.11335029855301505,0.523653121097096,0.021929012788856367,0.013425989389946557,0.013906831998328359,-0.09993257044739677,-0.2496340505016632,0.009706967022919472,0.03523119920668848,0.005133945632730901,-0.013130045384828466,-0.007674945386050882,2.015625
0.1349899976303976,-1.1725844468662816,-0.8556064416596898,3.940354284340222,0.16008642318897318,0.10946280590947584,0.10150162701179138,-0.7469453472600707,-1.8828074490837345,0.07294006662332762,0.2599196450954674,0.03872606487952517,-0.09946865506033536,-0.06078925750420834,2.0234375
0.1246668605641344,-1.0819677983672233,-0.7898334672561946,3.639887419129244,0.14792740151151093,0.10091983141336783,0.09377267032188705,-0.6901768675840276,-1.7393179928221225,0.06737308701645339,0.24002171176579565,0.03577800612675567,-0.09182801593582765,-0.056099679090234854,2.03125
0.04783116383743679,-0.41643662931727254,-0.3043624158877749,1.408181380597763,0.05759165912885277,0.038016434378424974,0.036532788908657285,-0.2672586438747934,-0.6710473738995235,0.02602618267991139,0.092948697269921,0.013820760867132456,-0.035366434387424005,-0.021355042700998417,2.0390625
-0.0055926315466314405,0.04589454849102274,0.03328665689263423,-0.14474321693176698,-0.005246131872184179,-0.0056758090888801346,-0.0033108913532141544,0.02705205926153587,0.07200276072336452,-0.0027628130235165427,-0.009291249115028502,-0.0014520545651164182,0.0038954161657698844,0.0028009243263001156,2.046875
-0.03163747646772891,0.2712757753804257,0.19872528587624827,-0.9077969511792302,-0.03597120648119551,-0.026965917121682236,-0.022910917867847422,0.17101605858431637,0.4345939652059121,-0.016865307909385664,-0.05917881836236928,-0.008916028449329219,0.023127932625365562,0.014606901673624271,2.0546875
-0.062182773993979576,0.5352843925124152,0.3922365035925571,-1.8020013367856846,-0.07201768514203662,-0.051932304957091856,-0.04584625282080379,0.33970377743515134,0.8596501085112134,-0.03335214725579926,-0.11762425719988596,-0.01766300816565585,0.04567884166835127,0.028451335287525758,2.0625
-0.07865222868625632,0.6767997291500033,0.49554319356850685,-2.2803839583599794,-0.09144491976043108,-0.06533921362506176,-0.058071023775181585,0.4304765938906356,1.0888208637732517,-0.04218369711264578,-0.1490016762776472,-0.02236887731801836,0.05776711351867242,0.035888831357645555,2.0703125
-0.033310795767799314,0.2833404332492989,0.2081266768704728,-0.9578701995966351,-0.03807034005526946,-0.02816034772255001,-0.024107195568871448,0.18060952391510368,0.4584408913452249,-0.017713102379994208,-0.06208827070050896,-0.009403305209291444,0.024327024797236627,0.015342841616431948,2.078125
0.04587707473104471,-0.4020217260283187,-0.2920887982623354,1.345708611627061,0.0551416605218592,0.036655974306339725,0.034972516639473206,-0.25558857063004614,-0.642825556279734,0.024947997625366213,0.0894287879812932,0.01323016207279246,-0.033940373794694924,-0.020492470498070774,2.0859375
0.047398658694175616,-0.4140838788194,-0.3009437636855023,1.3869999924416012,0.05689411496505297,0.037869352340676454,0.036013415498254334,-0.2638273843319972,-0.6643547414658514,0.025734442995941482,0.09218452192303746,0.013660693439440267,-0.034980082293207745,-0.021163228012283198,2.09375
-0.05130970504413407,0.4411546595842012,0.3230667581312147,-1.4859664086973285,-0.059363712310394466,-0.042922477859377715,-0.03764875949734941,0.2800944349955427,0.7081608120145937,-0.02748821114600542,-0.09681626474971161,-0.014561598857071183,0.03769878279638867,0.023509558537125406,2.1015625
-0.10117219617683346,0.8723216575346593,0.6378173520554016,-2.934989701209772,-0.1181045733120777,-0.08372465245549929,-0.07478103225289216,0.5548652657727198,1.4018880519631018,-0.05437992073781779,-0.19220736360593718,-0.028820371678725972,0.07434840951833972,0.04605950663658918,2.109375
-0.0043883797994549905,0.03370391397714059,0.025935510797911662,-0.11667083631302902,-0.00414947294918458,-0.004550364960564794,-0.002541277559348961,0.021608787437212337,0.05606938325759174,-0.0022298146255187723,-0.006901265313874627,-0.0011467446235103027,0.0030753162549894413,0.002247270373644129,2.1171875
0.11468189483955271,-0.9968323463831527,-0.7264623802216797,3.3491644741908515,0.13611984492636103,0.09284652333890767,0.08626063970724063,-0.6346223315399823,-1.6004163949861447,0.0619503986753995,0.22102690473472783,0.03290952145029212,-0.08454243738092837,-0.05163649334414732,2.125
0.11883227298624635,-1.0320105171758311,-0.7528349404127712,3.4702223631172586,0.14109803776689261,0.09625061057897243,0.08936432857296923,-0.6577779948730951,-1.6588200357553033,0.06422220718384318,0.22895802270414348,0.03411344155713061,-0.08757227309074832,-0.05350278846431101,2.1328125
0.05610948191060204,-0.48920217941268124,-0.3571367583641809,1.6450199226010624,0.06724305923568437,0.044973557257225225,0.04265574071732568,-0.31231428171627706,-0.7864653600560674,0.030477911763838666,0.1088427374062204,0.016194010241530398,-0.041423180882092035,-0.02510759662945905,2.140625
0.0045868105661014845,-0.044170050124552857,-0.032018554239924876,0.1457279859694591,0.006526051237170908,0.002821609974128598,0.004268979483139809,-0.02839419715318939,-0.06933400636099923,0.0027658122281765517,0.010192611672419317,0.0014627061785323545,-0.003538967228303665,-0.0017932676191532576,2.1484375
-0.051500297991118354,0.44093585811917446,0.32296477572557925,-1.486627795643759,-0.059465260372603676,-0.043132007191706526,-0.037643355466138395,0.280592357170716,0.7111279353937371,-0.027456959403309757,-0.09706748162615808,-0.014595973908229882,0.03771632904664428,0.02358241233743522,2.15625
-0.09079087268530707,0.7816594814489968,0.5723107111347111,-2.6310862466425617,-0.10563435327255238,-0.07534103904665954,-0.06706209748668746,0.49697676307323263,1.2577679164418396,-0.048687261044133935,-0.1721632377980037,-0.02585707135730329,0.06664504467408151,0.04137297844291573,2.1640625
-0.0626726347499609,0.5392188069065916,0.3951491447624293,-1.8145945507830137,-0.07256658251336696,-0.05234215575609009,-0.04611994003215279,0.3421512341994525,0.8668506775526721,-0.033597413646193224,-0.11839874501868435,-0.017823250519575368,0.04600739703512019,0.028672626764494183,2.171875
-0.04528662164591831,0.3895424234117314,0.2853687326832167,-1.3096048241557152,-0.05218611452489694,-0.03809873568146668,-0.033139195641341636,0.24655179241240158,0.624865105285733,-0.024248587198515453,-0.08522527901335435,-0.012845747519354363,0.033266436959336725,0.020813738894061993,2.1796875
-0.10687397346474592,0.92296178641514,0.674662347894092,-3.100638260261526,-0.12462307170735831,-0.08847296783043569,-0.07908310460402312,0.5858002204399951,1.4808350497744038,-0.05741816393170232,-0.20303607895660603,-0.03045799834856057,0.07856718070487562,0.048662316214348696,2.1875
-0.09785930017429839,0.8442503280898893,0.6173025796368896,-2.8351864464130925,-0.11385585166414516,-0.08107076185540506,-0.07232052705828615,0.535806165920333,1.3550948537992435,-0.05252668066654593,-0.18565243066121037,-0.027874771398330837,0.07184081486206371,0.04455187930592536,2.1953125
0.09620248392921636,-0.8366547042162565,-0.6101860541039179,2.8152430336646717,0.1146063874750683,0.07773995624747296,0.07254520191124403,-0.533570256005341,-1.3438514586070296,0.05207791164741029,0.18571319376657228,0.02764988902318597,-0.07102551954166046,-0.04328162789460579,2.203125
0.2669369862122671,-2.3146526765343154,-1.6898547503517876,7.784468890461244,0.31546983639444137,0.21744988318904152,0.1999626945862402,-1.474052455932939,-3.718619203114773,0.14408345490240332,0.5122973747736524,0.07650393106457834,-0.19662693927053088,-0.120545049961292,2.2109375
0.18475933862683427,-1.6026239413752803,-1.1700717505963192,5.390882305743522,0.21863981935608293,0.1502289055530396,0.13860448841271883,-1.0208707187407335,-2.576160942252595,0.09976493424616378,0.3549387984993887,0.05299691700188204,-0.13608512270348508,-0.08335922033699542,2.21875
-0.02355306824917687,0.2002737382822486,0.14704976591920121,-0.674290952436156,-0.026649700007642895,-0.020191094488624863,-0.016857215800417814,0.1272466958353308,0.32154348205433925,-0.01252609517099719,-0.04368129940719803,-0.0066086376590474595,0.017216810383133226,0.010910116622875986,2.2265625
-0.10348676424025456,0.8907611133105393,0.6521445233729632,-3.0025629740232254,-0.12086908095272951,-0.08560007897193872,-0.07647881822672768,0.5678510084035664,1.4350283286315562,-0.055601616085087395,-0.19658385856439675,-0.029493334117022027,0.07600497160518137,0.04710313561837923,2.234375
-0.05068896649819854,0.433156242081839,0.31817406943552434,-1.467306474034286,-0.05878861354980002,-0.04242193702354299,-0.03707269538981958,0.27689824872971835,0.7019013449946993,-0.02712778569607327,-0.09550578344260896,-0.014397908630153174,0.03715085887551911,0.02324140491696786,2.2421875
-0.012570156986398616,0.10427839577782747,0.07743273334547957,-0.3590652997018835,-0.013832830198381678,-0.011217952624185405,-0.008669421860889516,0.06672064719269899,0.17090781730335944,-0.006577668488631021,-0.022569459933759816,-0.003489273145275818,0.009144986037395155,0.0060044862725408075,2.25
-0.03185665844070618,0.2722931427498186,0.19978509994730353,-0.9208583694992739,-0.03641451472663533,-0.026982357635218328,-0.02310894358719577,0.172868195327609,0.43758849897985697,-0.016980061403648303,-0.059511244426165594,-0.009001462461699899,0.023372502418471622,0.014720920904115548,2.2578125
-0.06190323854038615,0.5322732290957621,0.38998943164292116,-1.7942280140329325,-0.07173003360634478,-0.0516224352288125,-0.04554398788019612,0.33819548882029077,0.8551059559984086,-0.033172126810406766,-0.11697518226081784,-0.017598136829070656,0.04546239483360827,0.02830459563488268,2.265625
-0.06516092259719232,0.5603098992491994,0.4105328658032074,-1.886154728055794,-0.07549836515961267,-0.0543679570090997,-0.04795872194374117,0.35573511117154516,0.9007535877536631,-0.03491072507480042,-0.12311613618836818,-0.018524454527298232,0.04780538801356782,0.029774173338939225,2.2734375
-0.023438440782226694,0.19993732397145678,0.14649477838259733,-0.6686308727826378,-0.02628835082415754,-0.02023885653032941,-0.01679994323714538,0.12562213990682145,0.32009265906518164,-0.012417698144966606,-0.04329376382141324,-0.006566229101777572,0.017079850249650853,0.010885832602070612,2.28125
0.029332852007052285,-0.25611793977178526,-0.18726720509916717,0.8680515817625324,0.0358138118035824,0.022972187482750848,0.022588662558367723,-0.16491358373405257,-0.4144022420905506,0.01600345832745983,0.05753936353512447,0.008544996938686968,-0.021719399966582252,-0.01300181376892993,2.2890625
0.02207904980351818,-0.19377369059352714,-0.1412238840900515,0.6544489014649169,0.02714635598793894,0.017039087427514952,0.017168649264462023,-0.1246761443025546,-0.3128769404357525,0.012075113021080917,0.04363146769282736,0.006449949862735674,-0.016346556488178315,-0.009706316216984767,2.296875
-0.027477734157337116,0.23418862845490468,0.17220709290177796,-0.7900721204894703,-0.031213806210234937,-0.023500757164616345,-0.019794623305955345,0.1482215188159097,0.3774179893267268,-0.01461419103591173,-0.051001045353584275,-0.007756855516098177,0.020094677868433452,0.012738473878670591,2.3046875
-0.024149587654329202,0.20503861024087547,0.1509557787079248,-0.6915304094833565,-0.02716858330879037,-0.02072246960427982,-0.01725546038197373,0.12962620063300967,0.33092251305618253,-0.012772817905131179,-0.04449825400645871,-0.00680220021939626,0.017593966664991138,0.011220554024441857,2.3125
0.03318793087659595,-0.29102326541176127,-0.21166053181798783,0.9799849445596287,0.04037584981343919,0.02622474086667252,0.025554214503568946,-0.18608323978925087,-0.4674368255256903,0.01815658872822532,0.06507980048025463,0.009622010530999125,-0.024584487947413823,-0.014756826356799662,2.3203125
0.06279463286145369,-0.5474564677191027,-0.398684669932325,1.8406070710306857,0.07510121404613103,0.05042446526266008,0.047598862902511176,-0.34873231886224304,-0.8790924192823518,0.03409816124200107,0.12156177435547275,0.018089144359697686,-0.046307393712937815,-0.028157625517338393,2.328125
0.06319780641720317,-0.5517718172573137,-0.40149373924510146,1.8502379290931799,0.07549958046830509,0.0507534208267937,0.04788157201796766,-0.35090509295625477,-0.8840177992328927,0.03428775323512324,0.12241215581840974,0.018188239239492376,-0.0466289376572881,-0.02832796340407131,2.3359375
0.07824803055787831,-0.682567105904122,-0.4974623062499497,2.291347216322458,0.09334129290947858,0.06311357749782093,0.059203213946628225,-0.43427327292241463,-1.0937916544297583,0.04238804311774312,0.15138255596502959,0.02250594123718295,-0.05785113043191131,-0.03516553588821015,2.34375
0.07184617269642787,-0.6265469587363371,-0.45720530856601016,2.1100253716955053,0.08591911607092816,0.05787098260732525,0.0544967472176783,-0.39925310042391604,-1.0058462798693073,0.03893078504247141,0.13908694555182968,0.02070365382107597,-0.053228901957812026,-0.03231339063435178,2.3515625
0.011717129490921196,-0.10498852417751073,-0.07608713957958198,0.35752537986228206,0.01500615829612721,0.008592107320981198,0.009523458791616615,-0.06762927461700963,-0.16930254326786875,0.006498434921226688,0.023823781831206967,0.0035003554819454273,-0.00886559643905186,-0.005083217694332136,2.359375
-0.0409261090673192,0.3511135567916388,0.25779802607259367,-1.1841406575114726,-0.0472101364067927,-0.03454248094974462,-0.029949606756693465,0.2229193618592097,0.5644210182437073,-0.021911125185480315,-0.07699531271059244,-0.01159227802882231,0.030077731499541207,0.01882865788497519,2.3671875
-0.055718374340731285,0.47923879239042116,0.35158459453093255,-1.621361823142161,-0.06472912544653237,-0.046646514581211836,-0.041067518888886774,0.3046257417498593,0.771060378677639,-0.02991217667021543,-0.10525173744281695,-0.0158471558142949,0.04106935301709374,0.025593878404413795,2.375
-0.08383994544571935,0.7233851746567196,0.5292956668601931,-2.4398608528916874,-0.09782133061185536,-0.06963895294935964,-0.062009531893327176,0.4595876812187819,1.1618649596649073,-0.045077743155382086,-0.15908641193014894,-0.023893062792292738,0.06177880287610293,0.038326065005019935,2.3828125
-0.11773141093862284,1.0172890244078696,0.743315726744438,-3.4235697548246393,-0.13773170187784545,-0.09733106044110665,-0.08723936407920238,0.6463533202017387,1.632848053546542,-0.06331988094892305,-0.22402585906831898,-0.03357785914019596,0.08671299646070649,0.05363279259443788,2.390625
-0.09540352205710506,0.8226799266584893,0.6011727249968327,-2.7692855628824296,-0.1113973592574443,-0.07898211136705614,-0.07050569830777662,0.5231539507716144,1.3222982188433328,-0.05122104817080767,-0.18122390770736713,-0.027166094718907637,0.0701835782142041,0.04348098424393565,2.3984375
-0.038659313390000845,0.32916364127491704,0.24128373068192174,-1.1105463376552125,-0.044339754169552506,-0.032503415213727224,-0.028056156937965235,0.20994328170487886,0.5327918968223879,-0.020566425236219172,-0.07237899719951232,-0.010906103907355788,0.02820308489802196,0.01773812166777991,2.40625
0.008632836308863233,-0.08072743616802239,-0.05751393095687332,0.2710198005226332,0.011639598718215382,0.006143595573781357,0.007289332907822541,-0.05121267087990816,-0.12571407051515468,0.004946731785462265,0.01830261265479174,0.0026182223798097244,-0.006751034314035094,-0.0037042043947593346,2.4140625
0.0787066350564427,-0.6855734027251517,-0.49924809278000126,2.3087107663794493,0.09422537196247162,0.06340220559951233,0.0595248518996783,-0.43751084340469276,-1.1010496841380082,0.0426877716072301,0.15235698184772137,0.022631397560726213,-0.05824416012710171,-0.03539463980410708,2.421875
0.14047414073695746,-1.2187390112185266,-0.8891826370625405,4.102006211580389,0.16685840567013105,0.1139277812325444,0.10554158657848471,-0.7777674151882567,-1.9605818908262127,0.07594719129237404,0.27045167437783796,0.04028969139624047,-0.10355127338596228,-0.06330212961118482,2.4296875
0.07721469745621908,-0.6713713219197988,-0.4897942073847513,2.260058684093655,0.09231254775560525,0.062184410352499137,0.05833318166364776,-0.4291006238012528,-1.0807539061950548,0.0418408595166804,0.14938759885240127,0.022214453427579252,-0.05698373125395197,-0.03466550648613759,2.4375
-0.04641072597402814,0.3978429390348288,0.29134239606288437,-1.337008705349132,-0.05332672677818361,-0.03897910730629851,-0.03388011894573336,0.2523363661938429,0.639322743932391,-0.02479730133757901,-0.08718217122311425,-0.013139865747744556,0.03394300121288177,0.02126507962695398,2.4453125
-0.022847339121944484,0.19362269511687313,0.1424897805782588,-0.653008617836229,-0.025814449544119766,-0.01969783468531315,-0.016284613004460963,0.12305456657257612,0.31242093998525255,-0.012116626403696974,-0.04221223871217283,-0.006411954793896116,0.016663959982941026,0.010609776710024834,2.453125
0.09002578027865146,-0.7828993842026896,-0.5709277461584212,2.628533791130865,0.10685309661552389,0.0726962063448169,0.06790927981773037,-0.4983539500390699,-1.257204602571774,0.048692450642108254,0.17359676825679096,0.025871185899915706,-0.06626438798805882,-0.040441343361861046,2.4609375
0.03854622245582688,-0.3367702671311364,-0.24528154224383372,1.1287208830843427,0.04623524407452541,0.030572948497666536,0.029437612706903288,-0.21461892456198278,-0.5411416195944335,0.020929863032873215,0.07499993483627282,0.011147725310905798,-0.028343777715285904,-0.017132655624401603,2.46875
-0.1061927011000799,0.9156892124586955,0.669918342952039,-3.0821764347467835,-0.12404709125392914,-0.08792203362576465,-0.07857992361963458,0.5825830390861733,1.4725849976041576,-0.057064209584104124,-0.20189897920317745,-0.030266762443611886,0.07807510667755474,0.04835434704970891,2.4765625
-0.04582409073642719,0.3920469474839059,0.2878752389074372,-1.3220202115006114,-0.05290711373078777,-0.03853949058762104,-0.03345860986955951,0.24962825519993284,0.6334592522962291,-0.024482153675362994,-0.086239948121822,-0.01300544404678638,0.03355704864929071,0.021016299196714508,2.484375
0.13447350697255692,-1.1686204902845299,-0.85249992451461,3.92686409001913,0.15937213396268698,0.1090809012947001,0.10113614792421276,-0.7438803514646243,-1.8749569887165523,0.07271195778107159,0.2588400004990016,0.03858741719392215,-0.09910987731153685,-0.06058387518124611,2.4921875
0.08069746618809392,-0.7015066549955531,-0.5121094116828646,2.359327957973416,0.09609861490838795,0.0651548548122377,0.060929031418369216,-0.4474123722050973,-1.1282696236105545,0.04368338361208832,0.15588143712250974,0.02321895162848658,-0.059462898453602454,-0.03624353266639652,2.5
-0.15087577348408274,1.3039334086058636,0.952743419136975,-4.383487826347774,-0.17647534267997042,-0.12436762219426147,-0.11198219409601753,0.8286794175259917,2.0923378678181894,-0.08117780842930784,-0.28731499787678966,-0.04303597723849762,0.11095504624130162,0.0685575109877782,2.5078125
-0.18700809115570005,1.6153468724498221,1.180948209792948,-5.433662479325199,-0.21893516283176226,-0.15400221448963147,-0.13891575254508584,1.027573754913093,2.595368842272006,-0.10062926420309033,-0.35639748871630683,-0.05337794458555185,0.1374443453253001,0.08490048251179387,2.515625
-0.017903766166040166,0.15005770329758436,0.1110312972157108,-0.5081987608474128,-0.019737690338296122,-0.015646936176387235,-0.0126378011226341,0.09536469249987718,0.24340777109574618,-0.009425536456180668,-0.0326701538223354,-0.004984971494023427,0.012913613631031278,0.008367376375469382,2.5234375
0.05387553710888129,-0.47073771124058456,-0.34265254516544497,1.5806332141167663,0.06481699099682461,0.04307967943322133,0.040912475356005916,-0.3004357520638987,-0.7549874610558578,0.029268974548650382,0.10472590659474805,0.015556112498287663,-0.039884979622608605,-0.02409251459061408,2.53125
0.0013123366077006,-0.01462450289716918,-0.009800327866839036,0.047649259711484086,0.0028409079381819915,4.246641624833251e-05,0.0016531062244471162,-0.010765958712802427,-0.023263821145831934,0.0009022537002151748,0.0040814524986664555,0.000498791083059513,-0.0011374045306971371,-0.0002703007364698294,2.5390625
0.02145431221261806,-0.1893498674598649,-0.13760003956729772,0.6345245675146112,0.026434641592045546,0.016541527897001567,0.016771558137674617,-0.12159839097960348,-0.3028809128123104,0.011768490556169579,0.04262779874394412,0.006246570102001118,-0.015950573743316585,-0.009387947232074586,2.546875
0.08007326173924705,-0.6976344763611112,-0.5088636842661722,2.3439970350152244,0.09543204601302589,0.06455763162854473,0.06060572748506004,-0.44452218465581805,-1.1186432492174696,0.043422069844388185,0.1548976718337871,0.023021001447268107,-0.05908873325807862,-0.03595052958417515,2.5546875
0.0205439756834675,-0.18192593669816315,-0.1317875443171387,0.6100912499997218,0.025348617079633245,0.01583120741370416,0.016095728546301886,-0.11633619659811002,-0.2912972604095148,0.011344897522245637,0.04098057339311855,0.005985124620300866,-0.015205096573686313,-0.009019907379894504,2.5625
-0.07359327528162679,0.6340748959506272,0.4646232143589418,-2.135051826323034,-0.08557741153501888,-0.061250233182081594,-0.05430521094700988,0.4027858859436276,1.0179299592661295,-0.03947170148596522,-0.13935471272041675,-0.020961830044039873,0.05416322549387122,0.033602711082655085,2.5703125
-0.0366561792036256,0.31478801548842916,0.23101896086213652,-1.0604576285686116,-0.04218400608201217,-0.030979218862854208,-0.026744206497106713,0.19963482204443672,0.5038388578069812,-0.01963381448078473,-0.0688614620641493,-0.010381665985953366,0.026975714475387703,0.01687432891963664,2.578125
0.06181226195415401,-0.5379639538086092,-0.39261392855093685,1.8115017476741089,0.07378377351155511,0.04970899816254926,0.04684296519716149,-0.34292498634174445,-0.8664762080348137,0.033458573900578104,0.1195737850877041,0.01782767485173281,-0.04557703313768277,-0.027746542111631006,2.5859375
0.06522123981938001,-0.5683662226698116,-0.4147651947350874,1.915317061040188,0.07789980425092041,0.05250272298641338,0.04944423733435556,-0.36198700090556246,-0.9136487403314418,0.03536653252144724,0.12620737302417925,0.018817928732964756,-0.0481752498020476,-0.029320854539108362,2.59375
0.006472572051164009,-0.06089190679234943,-0.04338135192572265,0.20465982362209825,0.008789822888471521,0.004307345694796707,0.005622047908119097,-0.03858914095112393,-0.09504621391324339,0.00373618859987728,0.01383108624977846,0.001991261150535037,-0.00501024960163687,-0.002697993455087158,2.6015625
0.010383952707781648,-0.09501683656367672,-0.06819461284997906,0.31642679591164935,0.013415746551268303,0.007430038482982122,0.00857591480313553,-0.060364844298214725,-0.14855527496541385,0.005817261386880951,0.02132474000860013,0.0030937502059443,-0.007922309498321213,-0.004418264366702431,2.609375
0.06419050961196333,-0.5597519872379557,-0.4080901607190357,1.8809799402665186,0.07677072140095416,0.05149899885768436,0.04869617609494529,-0.35689910884285353,-0.8975611167814578,0.03477229229203331,0.12435874292850568,0.018483160318748512,-0.047458873898283176,-0.0287540051212679,2.6171875
0.05519439337192209,-0.48087074828697157,-0.35030600250748584,1.6157530013727504,0.06615351461128546,0.04419548511061534,0.041845207934028336,-0.30719324065215625,-0.7732328531280958,0.029914937332492685,0.107216637272584,0.01589790091520516,-0.040708578468939695,-0.024681271959225128,2.625
-0.03530466240474583,0.30221745767618,0.2222904283326719,-1.0217953589449729,-0.0404190795410578,-0.02985070194036186,-0.025770870012086187,0.19159443428897965,0.4856803699772672,-0.018816175341332078,-0.06599208793413042,-0.010000671049256112,0.025950387798531323,0.01628759809637002,2.6328125
-0.10066981150871747,0.8672006442371432,0.6348163536635967,-2.923109719394013,-0.11737197235671508,-0.08334706048588111,-0.07446949506261417,0.5517071445690449,1.3954974043791997,-0.05399728063650305,-0.19115767383751978,-0.02868152138534054,0.07398942391036106,0.045874708217062,2.640625
-0.07408373444200844,0.6369477090704271,0.4659681745748043,-2.1455262744008956,-0.08608678756012156,-0.06160264258381455,-0.05453435718248464,0.4051068487010913,1.0261202660087192,-0.03968561142761552,-0.14028838114527614,-0.021054105198168763,0.05435158717366094,0.033834097929925463,2.6484375
-0.02961831569473401,0.25253450534052924,0.18522196585580605,-0.8515429011008074,-0.03374792817975851,-0.02524582989669854,-0.021388489365508637,0.16006475095463005,0.40755812869331004,-0.01578808377722793,-0.05512764053709985,-0.008345220875656223,0.021633488711220648,0.013712771152926372,2.65625
-0.051561752447649385,0.4431724815776288,0.32485577428936435,-1.4934779932921143,-0.05948062206550397,-0.04321938495320795,-0.0378454713323767,0.2808891160668187,0.7119263525103914,-0.027645861395931913,-0.0971035195996516,-0.014643647833759219,0.037813819946792185,0.023655895484353453,2.6640625
-0.08857537077261429,0.7644998366123757,0.5590849399622989,-2.57016978448922,-0.10290169689135599,-0.07347990189194298,-0.06545683541056893,0.48470821034117717,1.225425404452346,-0.04756654197918131,-0.1680302060479991,-0.025220705535089722,0.06505924448991351,0.040394635644258096,2.671875
-0.04632135709532912,0.39911677743173896,0.29144378509981356,-1.3353406467822266,-0.053160548185260996,-0.03886698688731,-0.03384859649478446,0.2519729103484239,0.6370658228113824,-0.024766709266687455,-0.08724067075551666,-0.01310980437880718,0.03395843953978604,0.02122791284730355,2.6796875
0.05451061541262335,-0.4749304135090554,-0.3465794075846813,1.6026504957633547,0.06536455031135516,0.04364767335128812,0.04145623796299157,-0.3033344524061465,-0.7648162699952157,0.02958316561240192,0.10581031070023444,0.015726977768895076,-0.04025806410219384,-0.02444369507145135,2.6875
0.1230742474774121,-1.0701622255172119,-0.7803151077673209,3.5969350246891016,0.1459197575356961,0.09974836813012897,0.09264537208848439,-0.6809487247604031,-1.71751333028702,0.06655428090064706,0.23715025035822415,0.035316991440919175,-0.0907248557932694,-0.05547311754847064,2.6953125
0.12057513622592674,-1.0486261783979403,-0.7644570730171754,3.5208985063591784,0.14292323057013467,0.09771655954577717,0.09075466579828625,-0.6670978279298443,-1.6822450972792253,0.06521926706377087,0.23231196473878188,0.03460161562339949,-0.08884378293839665,-0.054306757754509646,2.703125
0.0650686524328596,-0.567051773701913,-0.41323723238804577,1.9027238832558893,0.07757136468717954,0.05230344368742805,0.049259818011130795,-0.3610626295291501,-0.909910644679921,0.035270267830685376,0.12591539558998432,0.01873486575014299,-0.0479309948292698,-0.029150555315379485,2.7109375
0.004955381776234562,-0.04666749149323693,-0.03309242340784052,0.1530011145648484,0.006834636342348262,0.0031002418943616617,0.004372456432211517,-0.02971430737100939,-0.07350039680786294,0.0028387749844772654,0.010858514890889001,0.001534068737813767,-0.0037229713075381792,-0.0019467758884332879,2.71875
-0.002901875398853806,0.020376036636992164,0.016291659843090996,-0.07291654975181333,-0.0023483552375251895,-0.003341141279729488,-0.001429216461893808,0.013389429066603007,0.03578193172172497,-0.0013784960418778975,-0.0040492869062103256,-0.000720973564321482,0.001950839018763651,0.0015758496537593909,2.7265625
0.018378835179100345,-0.16373204606749917,-0.11829503345368267,0.5484422600620286,0.022728212878789112,0.014058292102131857,0.014475572245769609,-0.10411631007159391,-0.26044069429492644,0.010103915606096942,0.03668051568261146,0.0053767635572406726,-0.01373220826774134,-0.00806820523108369,2.734375
-0.022804080043240593,0.19382502685893,0.14253543011935277,-0.651930834904779,-0.025754914948199252,-0.01967866465270905,-0.016334673817116376,0.12274023775088104,0.3123019129761932,-0.012120921584996093,-0.04226297943128706,-0.006391640651380461,0.016642001310602138,0.010597270970331606,2.7421875
-0.10551486540008469,0.9097409747562457,0.6654945841850209,-3.060845453105813,-0.12302199895326331,-0.08737715854484422,-0.07807594555663756,0.5783388795520858,1.462590732916327,-0.05668472822645058,-0.20055198830163526,-0.03004907396691257,0.07748701433397062,0.04804775993394602,2.75
-0.10317582411589776,0.8885545065169957,0.6500162336473273,-2.9906115883361646,-0.1200945348244213,-0.08540373785992032,-0.07622293444690514,0.5650863867017284,1.4294659592300485,-0.05533252649401278,-0.19592148818040164,-0.029372584996732006,0.0756583141864339,0.04696795704560918,2.7578125
-0.02651791156963304,0.22547393885354358,0.16526840759945202,-0.757928660561118,-0.029790079984338236,-0.022605953702953683,-0.01898745798022664,0.14246766120682394,0.3626195606667222,-0.013970974029371952,-0.049140526336964675,-0.007436361390305714,0.019264745592436263,0.012263104696018375,2.765625
0.0023375601597574306,-0.022629508191021542,-0.016220060861821817,0.07935934801007448,0.004104587530633212,0.0009644294832061332,0.0024251630486668624,-0.016454554301358636,-0.03874044828668172,0.0015151825557676818,0.0060388975004800095,0.0008028523847335001,-0.0018203230494530768,-0.0007645486335790291,2.7734375
0.015513737079923678,-0.13661483429948817,-0.09922846197017267,0.4613045410324084,0.01953571835172674,0.011629954202197989,0.012222615302200118,-0.08894811555123174,-0.22168632391945495,0.008552866760759451,0.03125727876092587,0.004548308862409349,-0.011468249410178434,-0.006701953942331375,2.78125
0.1032218574183114,-0.897514724560052,-0.6546875771556269,3.0159769405353662,0.12272260277010048,0.08336956960222872,0.07778828428093974,-0.5721351243289653,-1.4415107596237404,0.05583281093151692,0.1991633000690268,0.029637753971694686,-0.07609166857204593,-0.04640977716067713,2.7890625
0.13687548390554394,-1.1890900375080455,-0.8675697850407058,3.9941689207862288,0.16224623662564372,0.11098497939467593,0.10289340146251078,-0.7572875948533159,-1.9094858534819976,0.07395776273837473,0.2635367157393705,0.03927117540060993,-0.1008451217378738,-0.06164449965210575,2.796875
-0.010256551916920216,0.08648340170127009,0.0641637644004087,-0.2939743720891264,-0.01103104952026041,-0.009364322523194182,-0.007083564458551181,0.0537976286820767,0.13749226921422672,-0.00541742481984812,-0.018153096445493126,-0.002836402912706432,0.007555281393614747,0.004973789955444683,2.8046875
-0.14080439645905118,1.217392890763616,0.8902231843108376,-4.0945072086206205,-0.1647370917311235,-0.11620980688743969,-0.10453469618448892,0.7733752090135625,1.953843562481753,-0.0758087278509089,-0.2680732770256598,-0.04019917573850392,0.1036417530486189,0.06405684426772405,2.8125
-0.06356022567162235,0.546714398208337,0.40040650555934687,-1.8400436448751634,-0.07386009204836452,-0.052970585232183474,-0.04670346030028122,0.3479714275398818,0.8795174630901028,-0.034118926732535686,-0.12026036346722781,-0.018081560137376353,0.04665945560118985,0.02903686123286647,2.8203125
0.024623157615018675,-0.2186287171157534,-0.15833184874129,0.7295269004334779,0.029884551674894032,0.019291006286970756,0.019178413776960713,-0.13771938027611333,-0.3472557449941583,0.013451927378585011,0.04853095703957142,0.007173806165425774,-0.018323736079638775,-0.010922632694003183,2.828125
-0.07266081215447884,0.6240710649723193,0.45742604153059624,-2.1053332449613573,-0.08457579810338164,-0.06028703746351459,-0.053540368747384846,0.398168291854738,1.0058140941335474,-0.03899086980067219,-0.13760240965645665,-0.02066182836062724,0.05330368760243396,0.03312109668803145,2.8359375
-0.1404064145881134,1.2116756401600228,0.8862871051058502,-4.07673493508763,-0.16416875691899546,-0.11582273798553346,-0.10410616767464387,0.770895859179059,1.9481023725454094,-0.07547476385327456,-0.26724220461105813,-0.040052374124883605,0.103178256682496,0.06380931750142621,2.84375
0.026821373091384902,-0.23664570054163608,-0.1722106403270456,0.7973396048534154,0.0327539851973566,0.02092438754724665,0.02085404558295043,-0.15096517466034137,-0.3781877697005796,0.01474068425148575,0.05275524946349519,0.007815406981274175,-0.019937895795386636,-0.01188589635633042,2.8515625
0.19985454490202,-1.7355792801706638,-1.267214134199584,5.8366146566202,0.23642766066117726,0.16252474371993422,0.15003293881192364,-1.1044698344966768,-2.785622178053415,0.10803371875155075,0.38390979684692944,0.057349818188639594,-0.14730182968269923,-0.0902161013723633,2.859375
0.13245624367988273,-1.1511410159099602,-0.8401473309327504,3.870953045188285,0.1571948645807674,0.10741275646845054,0.09961620379938174,-0.73329366720651,-1.8490612755754803,0.0716621599098883,0.25503737565865825,0.038056284909226676,-0.09768489273713891,-0.059704452585908695,2.8671875
-0.004823297939999863,0.03889495546297317,0.028996891596968746,-0.12656772732353755,-0.00417331243989997,-0.004929825773333545,-0.0028616210084020663,0.02264948907925883,0.0597617528640098,-0.0023474225384669577,-0.007564019141851905,-0.0012496863805883255,0.003318835139513584,0.00243641794718757,2.875
0.02211652573464194,-0.1946067185682368,-0.1417061819806502,0.660376122884609,0.02762528208656446,0.017083562925777198,0.017335481567589548,-0.1259942011230026,-0.3145839056272849,0.012211506041267762,0.04401161318004915,0.0064543462310033585,-0.016547946964182842,-0.009753563063690613,2.8828125
0.1087117118107258,-0.945313145929724,-0.6897747443918449,3.1791296253943804,0.12935681296273188,0.08791180027601038,0.08192171737029942,-0.6027034575542474,-1.5175708893578197,0.058869090568283794,0.20965552946158073,0.031234517414938927,-0.08020189002062661,-0.04890585206514554,2.890625
0.0664477075672587,-0.5785727152192894,-0.421512836001597,1.9394258973167853,0.07929166416283073,0.05328113056701671,0.050173760269837796,-0.3691230234399132,-0.9281690315392247,0.035965628367553105,0.12864089174876994,0.019113068747774156,-0.04890246398131668,-0.029695002620935437,2.8984375
-0.05633969495417996,0.4861394503325073,0.3563013540344565,-1.6420589866894748,-0.06543881832677015,-0.04720845044464137,-0.041581696276398204,0.30796621815358227,0.7801378093679294,-0.03032475274365896,-0.10647303678987695,-0.016057077099864165,0.04159820031696259,0.02592057175684311,2.90625
-0.13548328239631996,1.1708664561810238,0.8565529197790958,-3.943316001778263,-0.1586229342325124,-0.11188510597706464,-0.10056505341981183,0.7443380058609416,1.8803211634089547,-0.07295598305314278,-0.2579673254772158,-0.03869279549204226,0.09978393080258788,0.06168122521018848,2.9140625
-0.17362461071923627,1.4990773213691666,1.0964439401733515,-5.045890129437168,-0.20342496376478525,-0.14297510492554044,-0.12890685618692285,0.9545187379579917,2.4099635525163183,-0.09341000640991257,-0.3308698682912335,-0.04955827287828216,0.1276827601905037,0.07884123117452127,2.921875
-0.18703443108712473,1.6146568580783633,1.1806731502655663,-5.432160628669244,-0.21906546236719693,-0.15392305842441092,-0.13887935787696062,1.0280812453137358,2.5959472256899305,-0.10059333874592462,-0.35642470385919783,-0.053370975547048984,0.137446246624122,0.08487095467814526,2.9296875
-0.11897671991857814,1.0262200946356594,0.7505230764893753,-3.4517784778221405,-0.1388578806064269,-0.0982877661439898,-0.08808411132844694,0.6526520025708259,1.6492797228654337,-0.06393783074340105,-0.22613177084568237,-0.03391344124536188,0.08735769823531128,0.0541010969935124,2.9375
0.022889510494929034,-0.2024087750382746,-0.1468155810213482,0.6779281242231032,0.02813503256164659,0.017788761947190156,0.01784061492406055,-0.12921386866926945,-0.32371906757456614,0.012523494288258386,0.045395051485474666,0.006668300209317389,-0.017048933841044736,-0.010087608595947139,2.9453125
0.12017329260035381,-1.0456142327025215,-0.7626153887349307,3.5132409179406463,0.14263693624656035,0.09744304007380795,0.0905057214624897,-0.6652453778595324,-1.6769661930008324,0.06500168097001173,0.231590603592074,0.034521233376059134,-0.08868443276135594,-0.0541516003683984,2.953125
0.11854812639436631,-1.0305764888263902,-0.7521889828573532,3.46808208181537,0.14074613433985564,0.09612512471888555,0.08929457420985931,-0.6563031161064916,-1.6549874817795642,0.06413853692047998,0.22840844830527526,0.03406638596303248,-0.08748004393150473,-0.05344263841124419,2.9609375
0.10370685392645047,-0.9003732866887769,-0.6575642796903419,3.032972343380605,0.12322809097327297,0.08393899448204409,0.07816442745285346,-0.5744054342280855,-1.4487889322813692,0.056099405887089726,0.1998793565917692,0.02980000055759463,-0.07646231578630347,-0.046696989324957416,2.96875
0.12948783381061219,-1.1241515040058527,-0.8204690117898875,3.7794500556197126,0.1534497109800478,0.10499620760612334,0.09737249830069226,-0.7161724266048283,-1.80674565975965,0.06998089069245905,0.24918576488012248,0.03715840084291278,-0.09536246792059679,-0.05832497560094304,2.9765625
0.11387580160875826,-0.9906812730068736,-0.7223432499985293,3.3261297557223566,0.13508777004714487,0.09217244619051036,0.08574785554906962,-0.6302010465323631,-1.5891456495242633,0.061612840172548436,0.2193674577807821,0.032705694543305235,-0.08390775792513107,-0.051254379637518784,2.984375
0.006781327485410519,-0.06289489154663351,-0.04523584146004163,0.21205492254536543,0.009243775514617846,0.004451001126189961,0.005841261665002084,-0.040687796854569906,-0.09994087618845439,0.00392267417194728,0.014421050269571651,0.002086621572153814,-0.005150702120395745,-0.002782832968000093,2.9921875
-0.07979684158690187,0.6886299596884617,0.5028903336044752,-2.3096860839631566,-0.09254408533361182,-0.06643998415692862,-0.058832641420143016,0.4359645582882816,1.1042003158534908,-0.042777450695897244,-0.1513026313748012,-0.02269146940163707,0.05859180522209245,0.03643612131055682,3.0
-0.053350143181991494,0.4594035474349747,0.3360630344647887,-1.5449322105806067,-0.06155961795963765,-0.04472817019780694,-0.03918085802698246,0.2905488395900064,0.7372465050106519,-0.028569707231404094,-0.10061707958399073,-0.015151935152313388,0.03918294882654007,0.024491353248324167,3.0078125
-0.014202365964036387,0.11849293217954926,0.08831791141317177,-0.40644260021417605,-0.015622821937810324,-0.012603816354266755,-0.009968729698656547,0.07525487511339593,0.1932268068399865,-0.007462982648483386,-0.0255564939716059,-0.0039630888074986895,0.010342179469135127,0.006742524105103005,3.015625
-0.06375418637108539,0.547153967304316,0.4014928171875232,-1.8450971174252722,-0.0738519289964923,-0.05315998651546973,-0.04688192033375522,0.3481546905288469,0.881558584959089,-0.0341373659037711,-0.12037050710085646,-0.01812875805738286,0.046728271853938214,0.029122312528550087,3.0234375
-0.09821262469487077,0.8466460647326853,0.6194499880366695,-2.8461515033226914,-0.11427440038432636,-0.0813917194251708,-0.07256809453038758,0.5377706873145431,1.359917372253027,-0.05270488124914449,-0.18641305940288944,-0.027975023558331973,0.07207148195529982,0.04471229679788763,3.03125
-0.019589197833565514,0.1658555860916233,0.12221525914861234,-0.5596758902340497,-0.02178830700905422,-0.016994477592368055,-0.01393407495541016,0.1048116892434101,0.26669681419021807,-0.01035431488591078,-0.03595001099811592,-0.005483220381219295,0.014254700636667655,0.009145546452771894,3.0390625
0.03808155047606774,-0.33451143387157695,-0.24249387739443407,1.1169714604436496,0.04595421303813577,0.030284539605003002,0.029062169415859106,-0.21247768088963664,-0.5345807825604904,0.020696040854251408,0.07451537334640594,0.011004140581810212,-0.0281683387274287,-0.016957934934956894,3.046875
-0.03583555673494192,0.3058537568959623,0.2251561111950769,-1.0343696058427443,-0.041131802758546325,-0.03021722834544609,-0.026090374387724005,0.19499272680568247,0.4937700993956672,-0.019167644356654464,-0.06699808983176131,-0.01014735950275127,0.0262364458168526,0.016488209778029617,3.0546875
-0.0769158337997551,0.6629808899029018,0.48487199261422853,-2.229830417027423,-0.08962085379561706,-0.06389368720561014,-0.056697618547302236,0.4214555587991246,1.0650005488204426,-0.04130470290660607,-0.14588936050766751,-0.0218849854523656,0.05654107883540305,0.03509487995423883,3.0625
0.03910155603855249,-0.3413982838463306,-0.2494142765608945,1.146640561882517,0.046749531209678834,0.031072510788841993,0.029939574252063426,-0.21750634107375758,-0.5487262155796796,0.02125922385875739,0.07596336539174373,0.011324336414830403,-0.028755161577723773,-0.0174012915149169,3.0703125
0.10799596953010115,-0.9389581092140478,-0.6853939410218779,3.1526728850454955,0.12789590103092877,0.08752085011381032,0.08138220822072369,-0.5971271490680508,-1.5072291505879882,0.05841069271552672,0.20798708693869472,0.031027333974378745,-0.07950222367325677,-0.048603333075832145,3.078125
-0.023321697941160843,0.19798834807645868,0.1455931898163865,-0.6670106944808246,-0.026286721146368947,-0.019963132600548487,-0.01663431808184925,0.12570001840877373,0.3185569173172648,-0.012386487751201145,-0.04301223712253491,-0.006561701417529833,0.016976693653570896,0.010800476845033814,3.0859375
-0.11697220522456726,1.0099309527792166,0.7383698308983659,-3.3903112450466697,-0.13617535371274603,-0.09671182499609601,-0.0865550313194959,0.6408266381420121,1.6205425678674197,-0.0628742090004228,-0.2221631544548295,-0.03335195681701734,0.08580031796127356,0.05319029302512261,3.09375
0.03019199724064718,-0.2639478249691496,-0.1924086586338696,0.8939699563958589,0.03705084237362866,0.02361941568251702,0.02326110852922944,-0.17033583486332884,-0.4262801907015539,0.01647874381960785,0.05933630775704335,0.008767616721446542,-0.022451704715754365,-0.013384063514535615,3.1015625
0.18286765103923633,-1.586604911937609,-1.158020501086766,5.336861790473123,0.21660901223218537,0.14850149104658555,0.1371829339523989,-1.0113779497683582,-2.54935180336616,0.09880468343518255,0.35145668050109613,0.05244433501592688,-0.1347260956472441,-0.08246320350515944,3.109375
0.09821333856949202,-0.8538972085118812,-0.6224122936003662,2.871155447895047,0.1169148165710423,0.07921157648109495,0.07395645236818103,-0.5447311520470101,-1.3716603314800155,0.05316738846118731,0.1894727077611168,0.02821774362355426,-0.07240668562690557,-0.04414746871853733,3.1171875
-0.03241087204774032,0.277482038688303,0.20335953103825488,-0.932255364370568,-0.036865983293394355,-0.027593314841721756,-0.023538571154236427,0.17522332217497794,0.44509591129399945,-0.01725967995267098,-0.06057067854892042,-0.009131988812899318,0.023720786316390966,0.014971749253164624,3.125
0.013319262303351951,-0.11898324348399766,-0.08684642969172769,0.39810819973628864,0.016818778427076995,0.009992425099850781,0.010672826508171647,-0.07635545244232457,-0.19075201797465965,0.007404288235590431,0.026894605416176935,0.003969827091025354,-0.009916996921505536,-0.005726945922995614,3.1328125
0.0654908191176168,-0.5723197386417674,-0.417227076034021,1.916827405887426,0.07807881740124245,0.052744130223386636,0.04969807069253432,-0.36351478741930987,-0.9155758588380696,0.03555820059225866,0.12687650073637557,0.018868495437085454,-0.04832215292830779,-0.029355539896537643,3.140625
-0.05103159452188268,0.4357386622752665,0.3202292597520469,-1.4737561625834747,-0.05910541051195479,-0.04271475052793452,-0.03727266632599226,0.27852527269465893,0.7058615539946664,-0.027245012098685573,-0.09598855242087996,-0.01450276000165032,0.037383639495464395,0.023357434061775706,3.1484375
-0.1488817475629451,1.2839301307748239,0.939599396633801,-4.321585835882209,-0.1742695572106561,-0.12286570544269725,-0.11037275850192126,0.8176983287367467,2.0666399072093173,-0.08002403404904469,-0.28340115414270206,-0.04248704812907995,0.10939728505709463,0.0676363340884937,3.15625
-0.07386943640311874,0.6359627395586391,0.4654497761189091,-2.1404235032657026,-0.08598059537033843,-0.06141065029772408,-0.05444674242811087,0.4046109890979162,1.022395588702779,-0.03964093847375086,-0.14006827577317812,-0.02100749741381177,0.05427282023815579,0.03370216929038654,3.1640625
-0.008728892675698794,0.07252321035756334,0.05399585633781779,-0.24688446544398052,-0.009215849818855131,-0.00803753222329587,-0.005863566726649228,0.04566467440574901,0.11571818314551668,-0.004551426165321136,-0.01533485580780565,-0.0023892431851022015,0.006375375570549033,0.004234667961017223,3.171875
