AF3,AF4,F3,F4,F7,F8,FC5,FC6,O1,O2,P7,P8,T7,T8,time
0.030617771301446117,-0.269107913751448,-0.19584415563085508,0.9059066270721097,0.03723388296783726,0.02411597196471486,0.02364802492499617,-0.17171386056991086,-0.4314702560059907,0.01670083941084729,0.06018555157811938,0.008880576461078721,-0.022759746979708183,-0.013618185828752646,0.0
0.2418409703137398,-2.098791453471778,-1.5324187684164747,7.0563541872850815,0.28579713238738863,0.1969738460513612,0.18135581193827915,-1.3353446026614593,-3.3692688258485415,0.13060821202911327,0.464291310215371,0.06932873197798237,-0.1781963595187298,-0.10922054989528336,0.0078125
0.17469954894078923,-1.5180818587438114,-1.1079804183555826,5.100025161685441,0.20668362586288558,0.14206229521479563,0.13122214255963732,-0.9651746361395332,-2.4356512328223445,0.09444370372719078,0.33576850741485365,0.05013177101033704,-0.12872661531167798,-0.07882975329848288,0.015625
-0.06253981989645122,0.5366900153750298,0.39285083235637663,-1.8085928354470666,-0.07258227684704674,-0.05202586757334342,-0.045908777690458445,0.34208164010661973,0.8633390390194337,-0.03346897939608815,-0.11817890927501815,-0.017737717929290846,0.045918569486091944,0.028540618914844693,0.0234375
-0.12422736291463539,1.0723224403023026,0.7837794676171533,-3.60583401677028,-0.1451730875839878,-0.10248849790480205,-0.09201545215863687,0.6820596167235575,1.7209099072247334,-0.06678941856596085,-0.23624526207243995,-0.035394470160739086,0.09135538019914832,0.056463396108387326,0.03125
0.05585192117943959,-0.48620010264617763,-0.35456896285175177,1.635411174864905,0.06682589720475417,0.04481112212249093,0.04235767976717973,-0.3101588043999874,-0.7828992764642754,0.03023926266046519,0.1082809049328973,0.016103348544036236,-0.041162462252184465,-0.02500527719021424,0.0390625
0.1626215030030181,-1.4112389612988456,-1.0298585576332784,4.7439355192921155,0.19259043318332983,0.13205799042141994,0.12206379063524289,-0.8988587340558991,-2.266334601110348,0.08782090887290352,0.31261043029777674,0.04663015194620182,-0.11978899912584778,-0.07328426795202546,0.046875
0.008445094107665915,-0.07694257799640916,-0.05495549748672171,0.25737978760872654,0.011201005694871072,0.005787710102500058,0.007005025593547378,-0.04994509360968484,-0.12130495071021821,0.004770744207952156,0.017671939875786805,0.0025216340577087987,-0.00638876844586209,-0.0034971439161050996,0.0546875
-0.16793466257261755,1.4503143205381386,1.0608295035378654,-4.877812311621441,-0.19645075925419186,-0.13857026763960403,-0.12469036776243302,0.9217937313627234,2.33122610932663,-0.09029792548573584,-0.3198264393948386,-0.04793271757646905,0.12342710127951506,0.07631136722407852,0.0625
-0.1119861514719648,0.966194652920968,0.707351843393069,-3.2521742718709756,-0.13067171821062812,-0.09275168937115359,-0.08298408838144707,0.6137846101814537,1.5523761670788665,-0.06017341630589534,-0.2128122408939673,-0.03193133582261419,0.08230386570701469,0.050990406917218845,0.0703125
0.04150445161305415,-0.3628125278889412,-0.2638746624760449,1.216590166288078,0.05008980405056839,0.032880835996299845,0.0316463758094874,-0.23210585182897608,-0.5823479399724439,0.02257720769464138,0.08091299000300542,0.011982426013150811,-0.03068759456816907,-0.018458308577532556,0.078125
0.042933099716737325,-0.3753569318839049,-0.2739872922809336,1.2636999116094907,0.051947949026103994,0.03405995826127178,0.032859122563295914,-0.24053827175389966,-0.6019351468016492,0.02341469842805031,0.08369488428387482,0.012415805749887585,-0.03183851011571886,-0.019109532498742518,0.0859375
-0.05227016705777092,0.44909101449573885,0.3279069046034835,-1.5049576709909878,-0.06010393553607959,-0.04380963544476035,-0.03816165648659802,0.2839600364677206,0.721863089002541,-0.02789036530314757,-0.09848883342158338,-0.014804705981049696,0.03820253067211405,0.023946754173610883,0.09375
-0.03274978835290415,0.28061639115786524,0.20549250432851765,-0.9406648676442756,-0.037253444733784204,-0.027754801393634825,-0.023707496645287263,0.1769969279949409,0.4495190739781119,-0.01746007382108577,-0.06114399924923591,-0.00924144819299673,0.0239129738971981,0.015089760950763342,0.1015625
0.08526654113937616,-0.7408843247208984,-0.5400629764804341,2.4903497594065276,0.10157859565947577,0.06889675059020621,0.06427234610134167,-0.4727178412307426,-1.192412799077662,0.04605564850586463,0.1647411456180289,0.024494108018633002,-0.06288007525176201,-0.03832409694388212,0.109375
0.10951794801335234,-0.951547607090508,-0.693889463909335,3.19587325563534,0.13000507651292664,0.0887681231773649,0.08238043072855229,-0.6060088480426913,-1.5291729110981818,0.059125585364149615,0.21115354567835715,0.03143559924460478,-0.08070800408735007,-0.04929731178807918,0.1171875
0.008711053223514188,-0.08025171259021088,-0.057238060517072926,0.26172859685983996,0.01107669872754743,0.006272045289011789,0.007187085608860676,-0.05002018195198546,-0.1259627683386749,0.0048598186380603235,0.01813434909814173,0.002611149087994268,-0.006468078837874771,-0.0036788690986679713,0.125
-0.05661666965056018,0.4843156071320182,0.3557336688466301,-1.6407288610322952,-0.06600523292248414,-0.04717467009525773,-0.04155418972464299,0.31051313083582266,0.7830530465985442,-0.03029046314759156,-0.10696613251712916,-0.016081022843633327,0.041669619267104954,0.025873750169572534,0.1328125
-0.020896164456307226,0.1753131504212238,0.1301270276706341,-0.5999596180958396,-0.02382554689765467,-0.017933452093834533,-0.014878531172474795,0.11362590092683746,0.28554736273992365,-0.011010180675937661,-0.03855896433807116,-0.005867788886120575,0.015367019853802146,0.009695331636122288,0.140625
-0.004042706650582725,0.03039211953639825,0.023536634152069854,-0.10632639175221062,-0.0037221130791332212,-0.0042011297181745715,-0.0022698997888580268,0.020033570145878053,0.05051222173924558,-0.001911705144436117,-0.006245597121040005,-0.0010336656984737704,0.0028993647928585962,0.002076304698920203,0.1484375
-0.06474429465243495,0.5566051278626322,0.40702078978956,-1.8705343761828002,-0.0750224341280693,-0.054000099283058815,-0.0475382991811943,0.3536996426501338,0.8948002119424064,-0.03461845925466718,-0.12243940199531075,-0.0183796016175121,0.047513392827180805,0.029571422860296518,0.15625
-0.08127128884990562,0.6998324525228214,0.5111514431418943,-2.348755829595489,-0.09436478959109838,-0.06761096468969209,-0.0598110922697073,0.444202317905037,1.1245322768618506,-0.043537898227627124,-0.15407324209375603,-0.023096952919471593,0.05958990403310774,0.03705281097227344,0.1640625
0.008630417901459653,-0.07824783225618644,-0.057360997133504434,0.2707408588070724,0.011593672073521778,0.0059748908035026265,0.007337726012409586,-0.05144405871037746,-0.12628762612728756,0.004868258008553879,0.018045068542466677,0.002623808761613359,-0.006671456170986527,-0.0036526712417334333,0.171875
0.07031556442245773,-0.6113429045133981,-0.4467233695599791,2.063920383826382,0.08419801614548784,0.0565026115807292,0.05329549667651607,-0.39124138499670563,-0.9839179409083463,0.038044543103855175,0.13608438763213285,0.020261487366880916,-0.05204436720240971,-0.031553586711013853,0.1796875
0.025990390586788256,-0.22630572493989226,-0.1652012713382289,0.7657869682103123,0.03187631902661573,0.02022380558229002,0.02000395901751735,-0.14670687748733127,-0.3665252958491493,0.014106769164952692,0.051131483922723965,0.007559099941828591,-0.01925859609682079,-0.011430720465796435,0.1875
0.004676106282814763,-0.04142463749632627,-0.02959632273825939,0.13969328373899098,0.006733565522813516,0.002745728371853409,0.0039586026670591955,-0.02915141549107214,-0.07000483938408013,0.00262700121858601,0.010325504161371601,0.0014389520602775042,-0.0034543007868440435,-0.0017447780286813804,0.1953125
0.07082261709803395,-0.6154944998223477,-0.44804571396395815,2.0661419974592397,0.08462096850096086,0.05687681579654062,0.05337834620791797,-0.39360560070222295,-0.9905794957028868,0.038325593350281635,0.1370882509727728,0.02034866766457988,-0.052164536409993204,-0.0317080067099838,0.203125
0.07988748220780331,-0.696112805893562,-0.5060419356799459,2.332492012241262,0.09516449808612606,0.06433089236346488,0.06024929906237824,-0.44321449503826627,-1.1163202019686838,0.04325587291595035,0.15455376997269024,0.02293490233028103,-0.058888519134387154,-0.03585573374775298,0.2109375
-0.0211762432036159,0.17789589659810665,0.1325250759558336,-0.6093841297822985,-0.02397650993360735,-0.01832849680973868,-0.01514919745312943,0.1140732601867241,0.2902904523409976,-0.011186982530329919,-0.03893977987398755,-0.005974044047402123,0.015499512278231086,0.009871482918716852,0.21875
-0.06589267232832346,0.5656563277285892,0.4149047868986684,-1.9095243334514778,-0.07651139216314833,-0.05485363671666838,-0.0484876124463373,0.3603216871559186,0.9119627832561823,-0.03526205596510079,-0.12459838291189053,-0.018743695563062632,0.048382141352614504,0.03010492051500202,0.2265625
-0.0021322939029069883,0.014404043435494411,0.01119930226810367,-0.04780323045974213,-0.0011573491939933394,-0.0025925066379726626,-0.0007790650375810304,0.008466183450886539,0.023747770501775,-0.0008742120780692771,-0.0025114139542487743,-0.0004716842308214596,0.0013361902490595789,0.00121219389882589,0.234375
7.023040390697272e-05,-0.004823811698177309,-0.003245446938017093,0.021055740363103363,0.0015228954582720596,-0.0007615519100421528,0.0009599085171229763,-0.00377902680128045,-0.007349370093788529,0.000308627850618245,0.0017524333252795078,0.00017673409077656468,-0.0003805061351381476,0.00017589838047066812,0.2421875
-0.09401378745329786,0.8092360826485177,0.5914575413153137,-2.7190383431813294,-0.10945030041208784,-0.0778176757849576,-0.06930517107457204,0.5151103141137062,1.3023225683605317,-0.05043715402330344,-0.17841746080240278,-0.026738377366243127,0.06890544286493919,0.04276915534049248,0.25
-0.09691399480704035,0.8343985206889649,0.6099519255775541,-2.808913990330013,-0.11314281227872158,-0.08027934390004848,-0.0715784474958107,0.5316154250406123,1.3438020789186726,-0.05204229309784336,-0.1841241428651102,-0.02758041297926795,0.07118209071075267,0.044138196887524975,0.2578125
0.03054893753477712,-0.2687667321081597,-0.19560912584236229,0.8971506764951606,0.03673709543558834,0.02400353576687985,0.02351114645729696,-0.17046087946634367,-0.4290260434737955,0.016640975865398953,0.05978653390748426,0.008860980863105954,-0.02249904690683824,-0.01351409035156805,0.265625
0.09580547008962136,-0.8336019174284801,-0.6078373461538386,2.79571164707904,0.11353603925073334,0.07744281162037642,0.0722287123922737,-0.5300416342234193,-1.3375758200556311,0.05182525060034284,0.1847738224065771,0.02751018381111808,-0.07048133611542702,-0.04306282942065091,0.2734375
0.02489501992415563,-0.2194239552713212,-0.1592481039103716,0.7324651095904957,0.030228626791588352,0.01943769669580482,0.01928667101884445,-0.13966054214065707,-0.35250471777979603,0.013616728189106765,0.04917009495383226,0.007230048955341329,-0.018325444258657727,-0.010991984433564871,0.28125
-0.041516529878003944,0.35654264081006887,0.26100409796961616,-1.1998519837428534,-0.04768074854115603,-0.03494568957422651,-0.030340758145219297,0.22576057580460548,0.5702840606451034,-0.022201640177022083,-0.07792099233645217,-0.011748808432450526,0.030501201005222474,0.019072702703487984,0.2890625
-0.019377171097894972,0.16599611980692291,0.12170486641430892,-0.554879912552747,-0.021479024489217884,-0.016883611771954504,-0.013855529961162258,0.10357046201705199,0.26221972744463623,-0.010309847990904113,-0.035636437999321716,-0.005415132028104428,0.014181392849400704,0.009063248158994047,0.296875
0.0314577597315432,-0.27425582518294395,-0.19929716469636988,0.9263202956117992,0.03830856859929451,0.024703995389749517,0.024119136129193607,-0.17635055061677196,-0.44411546044407707,0.01709268083372955,0.06158427262024385,0.009109714343928065,-0.02326104754279246,-0.013963906588853534,0.3046875
0.058422317486780395,-0.5091889857602104,-0.37038654186384,1.7141139096797222,0.06998532367980978,0.046785569908746515,0.0443310509965283,-0.324875879376514,-0.8179656874787878,0.03168694030228925,0.11321012703640454,0.016825589946179487,-0.043181788599336024,-0.026189881205587746,0.3125
0.04777362820635782,-0.4181732190164261,-0.30414508328602613,1.4067337616423272,0.05749165221940283,0.03805065024057266,0.03645315772876956,-0.26653756913961685,-0.6686618036417806,0.025995352968730293,0.09287543023810113,0.013806012859766001,-0.0354398704976487,-0.02135566269957192,0.3203125
-0.009940334881262974,0.08163748261056245,0.06039745666780598,-0.27280817872890395,-0.010365386118207146,-0.009227408409738,-0.006620918150817905,0.051057537387487244,0.13472933659685535,-0.005122446261864878,-0.01753416076504813,-0.00269412666607471,0.006985039570853687,0.004794317546589853,0.328125
-0.058572318438071765,0.503156026176821,0.36829013407890987,-1.6899726208536467,-0.06755447249179398,-0.049013008713133514,-0.04296690178587929,0.31880725184165926,0.8108681716175512,-0.03135121823418784,-0.11046202501889961,-0.016631883378804297,0.04279464541413782,0.026807430372274507,0.3359375
-0.018771319003983575,0.1583921774306692,0.11685668881918986,-0.5339455103691878,-0.020682214848544787,-0.016341212569260855,-0.013303444348233247,0.09950935517959725,0.2563611590720903,-0.009872089152818066,-0.034083573686864294,-0.005273842265579036,0.013576119046140485,0.00878316425588041,0.34375
0.05048592993624334,-0.4412879647648809,-0.32124635652398703,1.4790905622617578,0.06077427512704666,0.04043194043724727,0.03837583262247873,-0.2818147490389571,-0.7077258761829911,0.027479320968048376,0.09847097362174585,0.014540244190680614,-0.03728974794488694,-0.022551971018005587,0.3515625
0.02186425159595658,-0.19260080592604856,-0.14022049534642386,0.6433682465413049,0.026910837565665088,0.01700643485766679,0.0170066141153022,-0.1235722768562438,-0.31001514827701737,0.012011832235618388,0.04343124025862928,0.006370220286338144,-0.016127317863538344,-0.009577287560186354,0.359375
-0.06345913226700478,0.5469708889065258,0.39982199878190455,-1.8417295972032925,-0.07371160234629585,-0.05289370634768462,-0.04671144415265304,0.34711192105940214,0.8764629075077993,-0.03404678719937853,-0.12011308624147768,-0.018032880176025338,0.04673049560928701,0.02903819856779102,0.3671875
-0.05721477271402034,0.49242391588852813,0.3607872038022468,-1.6605964681611796,-0.06650516824419521,-0.04781714621131809,-0.042104065668047655,0.3131781185005546,0.7893937291253746,-0.030711936972500353,-0.10820295262803749,-0.016253534041306302,0.042170309394131106,0.026186835618618443,0.375
0.02066905657244301,-0.18317057826357808,-0.13185169851983575,0.6065812639937722,0.02506187950321517,0.01598429437463086,0.01601909746584223,-0.11552761479893965,-0.2936552784543428,0.011284966814315862,0.04087636245541881,0.0060280305655416215,-0.015149229226766831,-0.009090751322686927,0.3828125
0.020337394818831424,-0.18095164709310918,-0.13041350951181402,0.5991304961090057,0.024669901163609426,0.015793932767174678,0.015857324841165393,-0.1136120146317476,-0.28829596850376604,0.011140676331072252,0.040207743579446266,0.005947517275754674,-0.014988857620986054,-0.008957405802686103,0.390625
-0.054446884364269144,0.46671137790940204,0.3418306480761871,-1.572844583633352,-0.0631429586295004,-0.045429802761939475,-0.039830823089453016,0.29780561264943584,0.7525842023474894,-0.029139170695212015,-0.1028776408778448,-0.015435169465383251,0.039884633775035226,0.02488707391701519,0.3984375
-0.060320015117532724,0.5178199576405229,0.3787031036784545,-1.7386003936847874,-0.06972821070155164,-0.050359883858891855,-0.04414140630355774,0.3291261583467422,0.8344906399492165,-0.03228858768636962,-0.11395322410550947,-0.017116933524951326,0.04406329852257822,0.02755370771590354,0.40625
0.014190462850603906,-0.12715534788079086,-0.09237461001012431,0.43260610593406873,0.01815606515763474,0.010514667400607474,0.011460579455220315,-0.08205973620564143,-0.2019326336519891,0.007881652561018065,0.028746764015155645,0.004193802589179641,-0.010803487912655313,-0.006157631435275116,0.4140625
0.04288642906943736,-0.37520258831989045,-0.27351410759628236,1.266192698160148,0.05187651781195301,0.03399383480958307,0.03282918883434538,-0.2401296763466161,-0.6010410313193054,0.023358860004081616,0.08360048343407879,0.012400095942302274,-0.03185049835840388,-0.019131984039712818,0.421875
0.01149609396551124,-0.10278069384082163,-0.07446982749827462,0.348050603965562,0.014788652605407439,0.008363626600250489,0.009339478284484714,-0.06680329699376102,-0.16461595911837149,0.00643714098614232,0.023456838130506263,0.003409546684567426,-0.00863946486700625,-0.004910147974246902,0.4296875
0.03699614428729468,-0.3232013670809331,-0.23518722565072073,1.086250762754307,0.044729359534956374,0.02930027486979536,0.028304622558775774,-0.20696164057379138,-0.5202011141022773,0.020154205278543006,0.07232074159374882,0.010688715939733476,-0.027309992726512477,-0.016448492800128212,0.4375
0.12870665784901233,-1.1173726697835697,-0.8150668968685678,3.7548957915502768,0.1526911074027537,0.10439975837329223,0.09670838114821481,-0.7121410045924437,-1.7970489725676895,0.06956389806653132,0.2479399370334958,0.036925512377657954,-0.09475837707784715,-0.05797151347890659,0.4453125
0.1402499982130413,-1.2175015779367275,-0.8883807207791591,4.092628290691111,0.16636561526141158,0.11383417708448364,0.10531385072402605,-0.7759514814191608,-1.9581040964925729,0.075796731508682,0.270061236797425,0.04024748455236494,-0.10327837429994009,-0.06320484692787533,0.453125
0.006283125773363168,-0.05740816573217911,-0.04127613201068589,0.19425919505278605,0.00879303524317266,0.004137801669739158,0.0053278155777283604,-0.03818518456381121,-0.09415638233708813,0.003594601315671781,0.013651933273037094,0.0019334363659533462,-0.004756600953196974,-0.00255730118407878,0.4609375
-0.14058741160419966,1.214418930430652,0.8877267695017103,-4.081343214170228,-0.16408046997315257,-0.11607676150348227,-0.10427973923934553,0.7710254430019872,1.9496505287848724,-0.07560668152436656,-0.26745809383353175,-0.04009366176141612,0.10327188540512869,0.06392592296417927,0.46875
-0.1575414293242492,1.3607126543799668,0.9948386963103627,-4.575471658558257,-0.18424530287566873,-0.12988867984141522,-0.11689805691344288,0.8649858625453198,2.1862438042128014,-0.08478193117644611,-0.2999606611323976,-0.04495456487136454,0.11574914884838856,0.07158203609537928,0.4765625
-0.07613410307509015,0.6548918340025873,0.4796470651355373,-2.2068443727514486,-0.08872547459219725,-0.06321961444345914,-0.05611740138110251,0.4171666796441986,1.0545994218996055,-0.04088387854178448,-0.14425964476058525,-0.0216658914818195,0.0559140397814322,0.03472552840506142,0.484375
-0.022025901741763682,0.185935940006584,0.13750807231948578,-0.6344067921877284,-0.02520943704508398,-0.01898025005093401,-0.01576512681438435,0.1194253306264436,0.30249057881670455,-0.011675592218607573,-0.04079442394247371,-0.006193415346034906,0.01619704511228704,0.010259087632190281,0.4921875
-0.027823877173528414,0.2363111800472669,0.17444841683496093,-0.8049281345994511,-0.03200640710225637,-0.023773432109434937,-0.020115267901308808,0.1512899963134381,0.38306244695085695,-0.014784138054498314,-0.051915730682668,-0.007863146962828577,0.02049581016756234,0.012904634268837721,0.5
-0.015167687151845707,0.12669149540499822,0.09402148014819692,-0.4339733366378012,-0.01696492264839546,-0.013395269774349532,-0.010611060984800729,0.08115070228980283,0.20644682903512512,-0.007953702031163004,-0.027658126275309457,-0.004228047083475144,0.011098122952266372,0.007160201983147701,0.5078125
0.0587597404009813,-0.5136790665182681,-0.3743468947617275,1.7230183155571461,0.07025331420164685,0.047118641152463586,0.04464670299705208,-0.3267477078037241,-0.8223112602155327,0.031922665275895455,0.11388098609813979,0.016958534826181322,-0.04342819989943553,-0.026318794558794226,0.515625
0.11806083548776747,-1.0265204997815849,-0.7494743566571305,3.4518578299940517,0.14029302862200896,0.09559065085693876,0.08892402947389964,-0.6540407538509929,-1.6473636002346062,0.0638999230380204,0.22741282498075643,0.033937608032141256,-0.08712862771699134,-0.05314250646547481,0.5234375
0.07307277881706836,-0.6354056645136658,-0.46415516875109447,2.141732345845238,0.0875254580811072,0.05874276966689954,0.05533116162839517,-0.4064566289243099,-1.022054508328439,0.03961598570399162,0.14134732560558289,0.02103986392925491,-0.054018189699602676,-0.03276449612597543,0.53125
-0.025033165175567737,0.21490481762316901,0.15687721298025742,-0.7149658921928203,-0.027940471642412566,-0.02145694148901301,-0.017883295522853813,0.13421554453664608,0.34176945974844314,-0.013309053217087034,-0.04635757385614737,-0.00705600060164365,0.018194232040773407,0.0116106718452882,0.5390625
-0.02952433873968269,0.25294814661009585,0.1851300107509245,-0.8459409122305819,-0.03338985669519273,-0.025031741305082213,-0.021246204411530266,0.1593847073795204,0.40392369156144203,-0.015736461123468867,-0.054913036526894395,-0.008338140163455868,0.021524944619863415,0.013602345443571235,0.546875
0.06755146735110065,-0.5887918475172707,-0.42896092998217394,1.9791969145749633,0.08068502573569337,0.05438147975342577,0.051132985827640316,-0.3751022601525031,-0.9457554977462992,0.036605427153576044,0.13083737635282988,0.019450338471519748,-0.04986147085487336,-0.03033641723916088,0.5546875
0.08450252253992349,-0.7356270045291006,-0.535750079114369,2.4713517044887996,0.10055955936841039,0.06813771331798027,0.0637032938271475,-0.46838356061169706,-1.1807897181341165,0.04574239341588291,0.16320046716030268,0.024299227399943488,-0.06229226464684783,-0.037983975041954075,0.5625
-0.05233896615031769,0.4497034479981021,0.3301541027205961,-1.5132607081395755,-0.060496085465135525,-0.043897873757363676,-0.038451105053335315,0.285561000907737,0.7226892521957387,-0.028032597664856218,-0.09870136129521237,-0.014862170647871868,0.03841096063000677,0.023960122587076454,0.5703125
-0.1360463469878649,1.1742061935770742,0.8593225041925932,-3.9509819399886155,-0.15904874049522288,-0.11235044677197696,-0.10090098679393679,0.7468575583047684,1.8868019057888534,-0.07315532063995121,-0.25884499768712965,-0.03881084238654381,0.10000886451251806,0.06184405580407421,0.578125
-0.014917291081636551,0.12471851414821193,0.09246024693094408,-0.4255112861681858,-0.01656340174233529,-0.013162103323842003,-0.010458570626051667,0.07959924668286252,0.2020852746401417,-0.007851967063531482,-0.027006373202153638,-0.0041435702545717,0.010901275078596818,0.007033182117526232,0.5859375
0.09747038664735393,-0.8482713795439701,-0.6188722219762137,2.846873405280305,0.11572954665933109,0.07882621816704269,0.07346202582202936,-0.5397711139635666,-1.3610017515148884,0.05274004709073397,0.18806257164472573,0.028020058108210066,-0.071795318285754,-0.04381761383496411,0.59375
-0.03506101852619209,0.29995190717159015,0.2193385285507039,-1.0087609737628014,-0.040081143636232254,-0.02964007674748629,-0.025414429479851935,0.19000708214360562,0.4822493255128648,-0.01868195057922231,-0.06553738011277464,-0.009896032770620795,0.025661364277447314,0.016157769221320527,0.6015625
-0.21773087209134911,1.8816440722147683,1.374702438432044,-6.324069410655383,-0.2549528626650702,-0.17912469958098118,-0.16171810067141693,1.1962173588388634,3.023049067944952,-0.11712272327734649,-0.4150653524782365,-0.06215934101309502,0.16000297165583036,0.09881098306481506,0.609375
-0.12302435093228291,1.0610432543423416,0.7755540730530125,-3.5676527535109344,-0.14361168106445127,-0.10160760025636276,-0.09101755473000538,0.6746825629887705,1.7062494967545259,-0.06607064020060069,-0.23387171568675288,-0.03506725718622606,0.09033172214884852,0.05594693530965202,0.6171875
0.13129497820535782,-1.1410192943533317,-0.8327723286927373,3.8318483081003265,0.15549640375244675,0.10649457467313715,0.0987623837410591,-0.7260945035674754,-1.8306863614067022,0.07097608297027673,0.2526736322366022,0.03768325515437826,-0.09671247865043194,-0.05912228840650158,0.625
0.17601228303430735,-1.5274600841772497,-1.1147532577941242,5.129517837591286,0.20810276248540974,0.14300302022271538,0.13204504261092537,-0.9723945219133412,-2.4526086617026612,0.09503954313838894,0.33813586832005565,0.05046283021694756,-0.12955374959103522,-0.07931977587073658,0.6328125
0.02177441408240608,-0.19141191219904444,-0.13832799382374888,0.6386241960207825,0.02670129727538544,0.016690083537742338,0.016841391898859845,-0.12282351713556655,-0.30726072866764215,0.011907767611712144,0.04295655756207412,0.00632591861187666,-0.016060800055723686,-0.009499643020320095,0.640625
-0.011965442074300925,0.10057729119227103,0.07524585834976698,-0.3416894619308138,-0.012950528200919782,-0.010910507814010682,-0.008344026881618099,0.06300737583345312,0.1618923713777836,-0.006247797844809021,-0.021565947376460563,-0.003328483429036131,0.008745948747859016,0.0057446698280382725,0.6484375
0.10780254340001982,-0.9370664039259565,-0.6828345352795142,3.147492131622887,0.12800146347705318,0.08721662950099018,0.08111304523815177,-0.5967098972566519,-1.5049007936509098,0.05831183949780459,0.20771896652238558,0.030947289184819503,-0.07942660721506312,-0.04851352780016227,0.65625
0.11324437715410089,-0.9849027623702492,-0.7180424751869017,3.309245212722743,0.1344816038176582,0.0917651519841012,0.08523871882421977,-0.6267081554970854,-1.581821181873901,0.06122494997858904,0.21824967151519922,0.032529470842223455,-0.08352797666825228,-0.0510295667719135,0.6640625
-0.04403086617586108,0.3766006108134247,0.2761508842547287,-1.265245633384674,-0.05048442311035984,-0.03693572085514427,-0.03211173491638238,0.23945319832313508,0.6054964645779272,-0.0235477190745396,-0.0826316594708785,-0.012442225055470355,0.032106147482357,0.020126653275727227,0.671875
-0.12612669287764086,1.0880815264607369,0.7952976230071909,-3.6530963376550534,-0.1470160621548578,-0.104139479509383,-0.09335456666546806,0.6913285628380793,1.7480682733335777,-0.06777626215932694,-0.23968560749759885,-0.035931791881612614,0.09250285686145385,0.0572976439741474,0.6796875
-0.0471901461416394,0.40563187672357454,0.29623397550502,-1.3561946413649184,-0.05406884431293629,-0.039530909573479794,-0.03439762577749273,0.2561945487544231,0.650375532392875,-0.02521384129450522,-0.08859395909385023,-0.013369646870506114,0.03445666338503471,0.021602432066393812,0.6875
0.014537155923627084,-0.12861009315472194,-0.0941195620120138,0.4389531759551518,0.018564561995310102,0.01098955571284172,0.011704947471242464,-0.08382291792998146,-0.20867775346318737,0.00806679941516288,0.029501560441246993,0.004285676328033263,-0.010940389915013244,-0.006321472939386159,0.6953125
-0.0469485767076927,0.4031497525351571,0.2946237141073455,-1.3526975017990335,-0.05396935366021491,-0.039365904917492166,-0.0341995131260897,0.25529074991676093,0.6466869170427023,-0.02506282020507143,-0.08830511371880258,-0.013291825074449504,0.034350645320191026,0.0215145876571414,0.703125
-0.12011231743601608,1.036262801222801,0.757541422956967,-3.4865179320540287,-0.14034885019677,-0.09930484625294718,-0.08888710733808942,0.6588778856804651,1.6658020085635257,-0.06450751992626097,-0.22846818745077727,-0.034233470493424685,0.08830730436674784,0.054668502897076095,0.7109375
-0.09109530335489946,0.7852039577819752,0.5747191724760111,-2.6474346986792696,-0.10636880542095996,-0.07561785608449535,-0.0673500507196876,0.4993913856828622,1.2637520621463998,-0.04890785591415279,-0.1729688429757697,-0.02597246888726448,0.06707966178231035,0.041593614768078914,0.71875
0.0017415226004573047,-0.01867264101986048,-0.011908235129278705,0.052497167864563175,0.0028654078817250085,0.00034033787229288546,0.0018602850068444577,-0.011888599961812163,-0.027383601308627388,0.0010973399654687496,0.004724431727340517,0.0005667738076450884,-0.0011982445749283744,-0.0004123240092739282,0.7265625
0.06050205912220056,-0.5280938655326326,-0.38386388111916364,1.7652921119267653,0.07201744094786154,0.04849313454901613,0.04573148932815766,-0.3355038119135313,-0.8458300889348699,0.032775884510326495,0.11716190787647446,0.017406747718122333,-0.04448304499538311,-0.027059070900784972,0.734375
0.06445816949172477,-0.562977248763432,-0.40966335798206865,1.8841065614096926,0.07669351428345814,0.051834395369278544,0.04875032126024139,-0.3572692473283436,-0.9019378789110761,0.03493525837377752,0.12472842538167306,0.01857935683647659,-0.04746764546019276,-0.028906252121061068,0.7421875
0.07555370474973122,-0.6591009542587396,-0.4801497501912891,2.2092604963861717,0.08988022322875469,0.06094224783454615,0.05706829427665467,-0.4185630312730716,-1.0564139311393812,0.040923132356941276,0.14602264329593936,0.0217617415017854,-0.05570808711753251,-0.03394102379917299,0.75
0.1265196856380051,-1.099912810247519,-0.802150963262729,3.694227858165266,0.1500267565470642,0.10258536492063429,0.09510659057907886,-0.6996407971671424,-1.7649646595370918,0.0683772385151828,0.24358806218233836,0.03632704406551794,-0.09326867147296257,-0.05699741249532073,0.7578125
0.140308328662658,-1.2186393651513963,-0.888993461040632,4.0971348965310375,0.16634083967006139,0.11383205302283843,0.10541804705375264,-0.7758885911798175,-1.9570115870161717,0.0758019391670343,0.2699501486756222,0.04026422577175975,-0.10343733795146842,-0.06324468330737616,0.765625
0.033129047706493185,-0.29013477323143105,-0.2111169753760059,0.9785219852811083,0.040274954387201516,0.02616367558060405,0.025482537879973385,-0.185749773942899,-0.4673220839081612,0.018058340297670665,0.06490795190157057,0.009603903886488916,-0.02458488033602331,-0.01475958740024127,0.7734375
-0.1134789001665624,0.9794665245709862,0.7160217076641747,-3.2879684130789837,-0.1321147414579691,-0.09380577625617269,-0.08389074327270872,0.6214618959841266,1.5711677430730429,-0.06092668293184337,-0.21547610538827194,-0.03234260686040204,0.08325393548153165,0.05158726423042662,0.78125
-0.12766710968593983,1.102454980257095,0.8057547328646147,-3.6995462218868997,-0.148667747263191,-0.1055164977454142,-0.09447095211603324,0.6991718337231291,1.7692296897630315,-0.06857038930265351,-0.24256085475822842,-0.03640827887866902,0.09364463200589897,0.05803659301874568,0.7890625
-0.021345619013902084,0.1821122227778648,0.13321157682918383,-0.6039115999721878,-0.023526074210786632,-0.01860250027943299,-0.015124129551080053,0.11329323254244818,0.2916125377809383,-0.011290090949048304,-0.039237818378311216,-0.005982977896341167,0.015395201956606938,0.009955262520566197,0.796875
0.00518976922397803,-0.04761978376188329,-0.03489464992467654,0.16688628639283004,0.007587477827983806,0.003144148515837984,0.004669600901862493,-0.0325979652287157,-0.07737964623588117,0.0030011198019516076,0.011389083685631698,0.0016279747170029214,-0.004088072781586876,-0.002041057653766775,0.8046875
-0.0972327232993369,0.8387380629348559,0.6127466836901126,-2.8181031802687766,-0.11314331865882252,-0.08056690398561418,-0.0718072989950137,0.5322624011338476,1.3465340668042414,-0.05218801711456185,-0.18462583106423,-0.02766818949273371,0.07136988455358403,0.04430161752364469,0.8125
-0.12541298970902462,1.0820795346867074,0.7911467132019608,-3.64151680605217,-0.1465282025312642,-0.10355647785900984,-0.09288633213560657,0.688144733976104,1.7387896235287923,-0.0673711537342871,-0.23852388581970674,-0.03574795214919583,0.09220589448626113,0.05704828493885009,0.8203125
0.011993642782739523,-0.1081003613093598,-0.07767706141731884,0.35658973328164,0.015013551371809248,0.008918944819402804,0.009635192107293637,-0.06841016840181388,-0.17107111814381468,0.006670342942558185,0.024394738003378328,0.0035416771117737877,-0.008846804075716587,-0.005129052444605786,0.828125
0.11276253792639807,-0.9808411852100388,-0.7148707328840174,3.2876525366674554,0.13351951085730304,0.09140558516667438,0.08480720505070391,-0.6232968032915358,-1.5719893431272691,0.06096260322516235,0.21719533237912558,0.03236150877456707,-0.08297518952393985,-0.05072076879445377,0.8359375
0.044378314530710804,-0.38879189493149124,-0.28206557923651987,1.2934512180544677,0.05296960177466328,0.03543972564445692,0.03370255494995159,-0.2463097311975169,-0.6212574694686958,0.024086533595747896,0.08632932601553696,0.01278891963072341,-0.03261564772495128,-0.019763385359141093,0.84375
-0.022552900556914512,0.19101876786253513,0.14171679125891046,-0.6558642209188816,-0.025849759268386157,-0.019385550484274486,-0.016288036641150336,0.12256764422014294,0.30921431611664024,-0.0120117721077755,-0.04176814621664079,-0.006371986673261514,0.016674930355534242,0.010523008273165957,0.8515625
0.038176899209093125,-0.3343568971124418,-0.24232741218191156,1.1170036960472671,0.04572444393536155,0.030255129887279384,0.029100308666173885,-0.21226986968639333,-0.5359276160572304,0.020720885520564166,0.07444490017616608,0.011008090744146546,-0.028056952367450906,-0.01699277928923443,0.859375
0.0664420421127995,-0.5790412196178272,-0.42176849537904115,1.9469537340834842,0.07926127684096448,0.05336796736380525,0.05030663556251332,-0.36867177428749004,-0.9301429517834761,0.03600521514852207,0.1286315729618283,0.019126560572704544,-0.04898641100071012,-0.02982614545912613,0.8671875
-0.036638521391886204,0.31304943921074635,0.2293706314433596,-1.0508068111751487,-0.04180553272006359,-0.030983334701818865,-0.026568979960276816,0.19853397086640875,0.502731871218243,-0.01950094584016805,-0.06848086409853284,-0.01033653437946473,0.026742290411573492,0.016815614722211273,0.875
-0.08162120438160174,0.7023198003977453,0.5136007334126931,-2.360438886004963,-0.09465803699198928,-0.06779711154255308,-0.06012538318001193,0.44600329651706566,1.1288150267188186,-0.04374908846488622,-0.15453009935712342,-0.02320274687261457,0.05977446317969373,0.03719121817357121,0.8828125
0.04282282046988954,-0.37466565068380364,-0.27332341908005137,1.2643979170080673,0.051819694338760984,0.034039723150170634,0.03279256214464826,-0.23968758803864018,-0.6014597829016877,0.02329480719182809,0.08350362919630365,0.012401813983300859,-0.03183912837757833,-0.019134995444793454,0.890625
0.13987901989849258,-1.2142289220351858,-0.8870739473913474,4.093082747758732,0.16610507431268706,0.11346882615677896,0.10526146036269458,-0.7744885631621563,-1.9519057138432876,0.07561290467507747,0.2691481003655173,0.040184924401405975,-0.10327089266092751,-0.06308611725153715,0.8984375
0.05953849081911965,-0.5183426293536125,-0.3789119250589587,1.7526933091160022,0.07157920414849518,0.04770473825448862,0.04525738539985754,-0.3319662926912152,-0.8347423386158305,0.03233416148943783,0.11542738911471123,0.017201962908091756,-0.04411050789092111,-0.026706520201506843,0.90625
-0.06109864445327551,0.5257422575500765,0.384238747148153,-1.764886837831438,-0.07050441810550277,-0.051061921051796105,-0.04485277224488625,0.3327781293479699,0.8445206065300356,-0.03270122913148542,-0.11539819440159634,-0.01734012469879129,0.04472862574686887,0.02795626645860964,0.9140625
-0.07301772018022441,0.6284964335046535,0.45991288482562254,-2.1154462602187865,-0.08469924071887838,-0.060834290168943664,-0.05378081218955874,0.39886353507883254,1.0115814611933103,-0.0391569826898212,-0.13825070678926005,-0.020778749921558873,0.053560617044496155,0.03338255976260395,0.921875
-0.022993587443500288,0.19562736200000191,0.14396975350214913,-0.6605228691098516,-0.025928095648965612,-0.019844681006003097,-0.016472567578313516,0.12376387075202035,0.3151822343669732,-0.012194188810712572,-0.0425678136355828,-0.006474019894298597,0.01683497431379856,0.01072417725091723,0.9296875
0.0013629338837530412,-0.014611614413056926,-0.009502843546481827,0.04486443075562696,0.0026754530563951207,0.00017581101264811658,0.0016337397617831601,-0.010088128508829222,-0.02457876114391649,0.0009398741547291335,0.004067374685025561,0.0004882985051520377,-0.0009756308196014576,-0.00029993445753995484,0.9375
-0.016294232092178788,0.13830964062208467,0.1024706714247666,-0.47318090934738755,-0.018213237807015316,-0.01422940035895894,-0.011598846153497336,0.0873780329823006,0.22160658538046055,-0.008614919747445085,-0.02967606288178058,-0.0045801594246272,0.01206790634650894,0.007718131749826823,0.9453125
-0.06439619277093465,0.5540066269272211,0.40642393983957265,-1.871773820052689,-0.07491373088426732,-0.05360682508742836,-0.047465737109075944,0.35251530669480924,0.8914833494575757,-0.03458327958170304,-0.12170940600112597,-0.018346469135292413,0.047398727474960725,0.029470165713807124,0.953125
-0.08844512949887595,0.7614419948792918,0.5580925168788551,-2.566221735519372,-0.1031747454641177,-0.07329397540647041,-0.06534321625890958,0.4850271400295477,1.2252545471549583,-0.04752151784582475,-0.16771532162229427,-0.02521141900516303,0.064995474196812,0.04028432621536213,0.9609375
-0.026859583584207463,0.22789302627082567,0.16840980512231662,-0.771454422123369,-0.030617965841764003,-0.022871709139042795,-0.019346257990247136,0.14564626855877,0.36781402722718676,-0.014269766882721115,-0.04986088330306387,-0.007581543829819496,0.019639125264528105,0.012378350199302928,0.96875
0.054906085738918496,-0.4802650445196206,-0.34897464428671165,1.6065108805016188,0.06556292974170579,0.0440309362416688,0.04168966072906216,-0.30488907297402457,-0.76861511640074,0.029810434895637974,0.10653821993815854,0.01581116536540474,-0.04052256789920851,-0.02458868444797053,0.9765625
0.04234153555858106,-0.3715849160481316,-0.2700919341392332,1.2409515017159407,0.05072527994808648,0.033672098574028995,0.03234384272037566,-0.2357998834788432,-0.592799553715692,0.023013473575886026,0.08240340417111176,0.012230877760629005,-0.0312942152566462,-0.018862716637621492,0.984375
-0.0116646774977634,0.09653873492693775,0.07102047557670992,-0.3260650026871295,-0.01264862092628622,-0.01058857153837758,-0.007921470350066018,0.061280885209240056,0.15741688952606306,-0.0060771227831255365,-0.02093257206050756,-0.003184676263109411,0.008397840440227925,0.005563566761810729,0.9921875
0.02043805554322347,-0.18037429566527383,-0.1320279916671591,0.6135284355415423,0.025446797616643282,0.015700363468635313,0.01606364433951406,-0.1161883966671729,-0.2911746723687821,0.011276469701456822,0.04059059587090695,0.0060305129128061345,-0.015263336673950263,-0.009003920383941254,1.0
0.09191963593039974,-0.7985647457748696,-0.584010797179676,2.6951151675692704,0.10969633593290257,0.07424523529188991,0.0694153979251235,-0.5102590791983602,-1.2862657336659769,0.0498053682948185,0.17742245830241643,0.026486231714247112,-0.06786677229196482,-0.041363811783339324,1.0078125
0.07523361017019337,-0.6540939976100895,-0.4783363875508227,2.206912850924525,0.08997299982617436,0.060581519262406264,0.05693288294855657,-0.4181929358631639,-1.0534203493847096,0.04075947250631825,0.14548991997875113,0.021692150787390656,-0.0555693811679378,-0.0337890083152849,1.015625
-0.0011626304623084409,0.006930130018412851,0.005301692708479814,-0.019484077430851753,-8.101737420036581e-06,-0.001993508549040187,-0.00013586861715848852,0.0028523000258675094,0.010380782449522914,-0.0004437621594487017,-0.0006704250473512452,-0.00019789895017250834,0.0006629495302290301,0.0008105130027017212,1.0234375
-0.029164821032255765,0.24884575587483992,0.18291903324634848,-0.8355475174115736,-0.03298117256860212,-0.024941604784628264,-0.02106055068622292,0.15721753936232027,0.40065663618824265,-0.015511623823163071,-0.05422990862345217,-0.008233938616316513,0.02126862949111444,0.013486448845519063,1.03125
0.0019013355225439917,-0.020438826406866003,-0.013535024615765542,0.06897740799137991,0.0035210745620136755,0.0004976460885986134,0.002148631673507702,-0.013755207646433865,-0.03141133490603386,0.001252593044404242,0.005175545471070828,0.0006528071426573182,-0.001599955612197928,-0.0005892096768031648,1.0390625
0.04932010855654891,-0.4308362868924181,-0.3135396316228573,1.4485507920298444,0.05926817692355918,0.0393362217425828,0.03755298649491081,-0.27485674354189665,-0.6914357384620232,0.02679287161869161,0.09588903819652346,0.014223712016495468,-0.03648806019014849,-0.02205730992664017,1.046875
0.07418735594320854,-0.6458355910270698,-0.4703049637240051,2.168555741526951,0.08849982557113771,0.05970969975917147,0.056049992165052555,-0.4118175692289244,-1.0371660378058165,0.04017072300729721,0.1435213047854111,0.021320029289870045,-0.05473654809152274,-0.033285569370399684,1.0546875
0.0021556153901732497,-0.02220934426505154,-0.01398034166568896,0.06563097911556973,0.003576916686351138,0.0007832164247850326,0.002186501046621183,-0.014665392486954946,-0.0339943184836823,0.0013383400709127146,0.005670696076863896,0.0006818560026776239,-0.001626745353417989,-0.0006382991643106349,1.0625
-0.17199242874892928,1.4853628989931176,1.087370041158528,-5.007688507335727,-0.20165050741567145,-0.14168843378499463,-0.1278196581487667,0.9454704391756322,2.3892285174851855,-0.09252912045827176,-0.3277188207194492,-0.049145750487682424,0.12662394894733475,0.0782000947289233,1.0703125
-0.2693825830988139,2.328423756306867,1.702341014893361,-7.841014346254043,-0.3164161910614126,-0.22131914734084765,-0.20042547398722513,1.4825316538170838,3.7431205588012078,-0.14502971565397807,-0.5141748349548076,-0.07698115223469797,0.19830318295834773,0.1222473947675706,1.078125
-0.143953677291356,1.2422099427977846,0.9081206879194313,-4.184293379338494,-0.1686704574532762,-0.11861814951287333,-0.10670814375243214,0.7912994215470706,1.9968898720101729,-0.07742543162463236,-0.27405204437380876,-0.041065971061383474,0.10592178167882306,0.06542551143520027,1.0859375
0.07037298401737276,-0.6134968356323325,-0.44765063311135556,2.059760107701541,0.08385353194830936,0.05676591452410001,0.053289966253900166,-0.39024173068209295,-0.9851490262139034,0.03811003326286577,0.1362237548349797,0.0202697337949148,-0.051899129368147515,-0.03160445480006968,1.09375
0.15381405700719908,-1.3352528335772111,-0.975242250166441,4.491890221110474,0.1823310612583471,0.12496370693107879,0.11556495656602388,-0.850772023872736,-2.1458187381121934,0.08310816870141405,0.29587705633574884,0.04415693856176817,-0.1133845027288003,-0.06935777105710057,1.1015625
0.11821102052359717,-1.026392097251087,-0.7500934625634971,3.4581272706978456,0.14059576092317086,0.09572481039673689,0.08902322220727885,-0.6551342156731852,-1.6505051149050078,0.06394274696579873,0.22764373167004862,0.03398628698026866,-0.08725418712817325,-0.05323150443814255,1.109375
0.1065936632639538,-0.9266313146697497,-0.676790853842601,3.1219589325778214,0.12689836895718287,0.08617153092751594,0.08038604944619034,-0.5910394595495587,-1.4888689030155497,0.057701035943757896,0.2054239982306204,0.030664317125331634,-0.07873797967063077,-0.047994889286729084,1.1171875
0.11395211378832636,-0.9916904310431609,-0.7231462426860272,3.335817042771095,0.1354169959959004,0.09220522873794221,0.08584437859474606,-0.6310873842804391,-1.5911821745395587,0.061670821183641006,0.21962246014711137,0.03275305193596816,-0.08411929908697713,-0.051357787905950386,1.125
0.03928168718796736,-0.3447681495539678,-0.25012789771655286,1.159350955728071,0.047489300663136114,0.031092101729889465,0.03002918846194154,-0.21949702762616466,-0.552493379139666,0.02139694370858778,0.07677104801714404,0.011369565477157978,-0.02910594084797146,-0.017551715525548094,1.1328125
-0.08807577542269847,0.7598663749984008,0.5561659801588439,-2.551422554212634,-0.10233533738052111,-0.07319101362653975,-0.06509096338393781,0.48187185372640556,1.2193036978197433,-0.04729044984863121,-0.1670438023739842,-0.025078129816690397,0.06466295025588888,0.04014737493270668,1.140625
-0.13637211244951827,1.178866410420491,0.8617296614005585,-3.959627599237582,-0.15919759020456134,-0.11274526824889482,-0.10115175990397542,0.7477855926268815,1.8916605127517165,-0.07333096956574699,-0.259557427550865,-0.03889850090383987,0.10024231985852033,0.06205043560774854,1.1484375
-0.0689397029065705,0.5938052106572653,0.43455202486061906,-1.9972053354397938,-0.07997096320782193,-0.05748671841905747,-0.050778448631194864,0.3765717501748182,0.9541585137688089,-0.03694143874791343,-0.13047206666754185,-0.019608901870774728,0.05064342016978091,0.03152338244917353,1.15625
0.021860164020146913,-0.19380483896319434,-0.14048658062888625,0.6463159074198294,0.02680647016496301,0.016935188814584435,0.017070806793446865,-0.12334956981802404,-0.3085033451351132,0.012038120058935198,0.043396122244851836,0.006361701781652274,-0.01619791204467772,-0.00959483986236739,1.1640625
0.046909238789206116,-0.4108051411334427,-0.29892718603280066,1.3741771149161566,0.05626084484079567,0.03748801229794223,0.03578998236623839,-0.2612529071128387,-0.656535696457443,0.025508946970581415,0.09136704440336148,0.01351637012811037,-0.03465525518453547,-0.020925450416749942,1.171875
0.010572081422818461,-0.09541124929066969,-0.0684474501619975,0.31296711545031014,0.01342331516590495,0.007766626390198662,0.008588481527534742,-0.06089307364741098,-0.1511919007736374,0.005855285479873225,0.021786465350020448,0.003110838896089559,-0.007863832200345923,-0.004463951258406975,1.1796875
-0.015346783448112576,0.12951674535705132,0.09580360361813235,-0.4427627623400547,-0.017136930932449054,-0.013409448626242677,-0.010823629913241178,0.0821627378704699,0.20835431705062327,-0.008131899719509892,-0.027861830069050235,-0.004296627602014737,0.011276825530918256,0.007250393847323646,1.1875
0.01469200124421239,-0.13086980774426732,-0.09480223462262737,0.43578517866182304,0.01827520424803307,0.011173609853863209,0.011658970458155487,-0.08331594613347831,-0.21032987869290495,0.008104975216492404,0.02956737689418201,0.004325955553449832,-0.01086446713554454,-0.00638201203002235,1.1953125
0.04639202948898658,-0.40604372138933226,-0.2960180017374325,1.363516385368302,0.055659810137363916,0.03703497964538003,0.03541191041471223,-0.2581308000596777,-0.6510940749490882,0.025223617752418787,0.09014859752955387,0.013418417618731977,-0.03428975825289579,-0.020747915294183166,1.203125
-0.008645490715768795,0.07040084593208694,0.052383884593976505,-0.23890283897822023,-0.00910583089277639,-0.008071231578402518,-0.005696470874175973,0.04504267304934144,0.11480247821342056,-0.004464167079381372,-0.015197508112218077,-0.002336568970573292,0.006182915890332333,0.004165757490794946,1.2109375
-0.11432323495609728,0.9862342054704635,0.7217248606143901,-3.3183481496923144,-0.13342284484501338,-0.09452964108216079,-0.08466765916357555,0.627143018999603,1.5843426916869898,-0.061453631275679134,-0.21732109059512908,-0.03259480466283548,0.08397889920637161,0.05200179081556341,1.21875
-0.12317914341358978,1.063604241585318,0.7780624830920437,-3.5755639217328747,-0.14369312443213964,-0.10175875381320598,-0.0912903856666806,0.6754700451476346,1.7071338447801578,-0.06621102404411627,-0.23413750740542982,-0.03512783142326829,0.09048933355406871,0.056015326991194526,1.2265625
0.0017441359552676247,-0.018373603149031973,-0.012539871687117976,0.0651755880265302,0.003418809450144584,0.00040799756106182244,0.0020119683141900063,-0.013209392809254086,-0.0301649493783427,0.0011659303876109539,0.004934857870202388,0.000637256578171632,-0.0014716621535837996,-0.0005200345849634344,1.234375
0.11826884889504316,-1.027963281574148,-0.7499532348319409,3.4594300167442213,0.14051636890249378,0.09571336831105592,0.08902569580847262,-0.6551428372085863,-1.6506418121398962,0.06399595073153999,0.22785759529252808,0.03398480400293222,-0.08722538858149217,-0.053263272527743974,1.2421875
0.12616971515342557,-1.096299912393893,-0.799928720113248,3.6879257943210444,0.14977361684477747,0.10221059398742063,0.09493520832552589,-0.6984523558486055,-1.7606649223752298,0.06824519723192739,0.2429462291306648,0.03623026314722229,-0.09303541509435058,-0.05684157425295526,1.25
0.0839807601892709,-0.730384444299141,-0.5330416320726176,2.4574412017409126,0.10010833374141682,0.06770725132712915,0.06344824026683211,-0.4660330846937959,-1.1736151855344723,0.04548182678961717,0.16219074360707522,0.024149799392780894,-0.061976551337876856,-0.03772091650792455,1.2578125
0.03807311420538708,-0.3326233501380328,-0.2426419203572912,1.1191021949368931,0.04597916473199995,0.030090783492414626,0.029147106539428855,-0.21308713007117014,-0.5341975490498111,0.020712515574135313,0.07427549754908574,0.011019363270429693,-0.02813131411791814,-0.01690164324633327,1.265625
-0.04837445123582368,0.4154027433670191,0.30425556405065923,-1.3993886971245881,-0.05591147751700367,-0.040662092313492854,-0.03543191815618036,0.26356806321895515,0.6687502173151924,-0.025902077051704456,-0.09117181789484044,-0.013718826618863455,0.035542915581115365,0.022230307563867818,1.2734375
-0.13369798763980362,1.1532806362099448,0.8438172008791823,-3.883872079514486,-0.15634593559518936,-0.11038061478363459,-0.09911452916323021,0.7340123746474205,1.8550035637065192,-0.07188851499460673,-0.2543385654432247,-0.038144263501599746,0.09828739439944155,0.060804184103014296,1.28125
-0.11060693239514707,0.9528588654111608,0.6973521461450862,-3.2100052655246047,-0.12904631767838232,-0.0913737967234108,-0.08182861821276993,0.6066985076821059,1.5327448792470084,-0.05941385151772428,-0.21003184210335551,-0.031531752987880836,0.08120689868170679,0.050309238741956516,1.2890625
-0.01871394403502302,0.15773538330280706,0.11600613734800515,-0.5330458024957633,-0.020814507875310737,-0.01618099383832349,-0.013226701420314515,0.10012133360106255,0.253979453432993,-0.009861123684538306,-0.03421195911614345,-0.005218161307456024,0.013588278770495987,0.008717581182452491,1.296875
0.01305545015407353,-0.11641015066678151,-0.08445268592516286,0.3914252357075988,0.016540266033031423,0.00973004330975429,0.010453762642259442,-0.07495228950638037,-0.18744223590336723,0.007250412569656648,0.026467950251135748,0.0038701004236622216,-0.009721775851035671,-0.0056312626215795835,1.3046875
0.01162926982930774,-0.10395265624605639,-0.07486977400351802,0.34786910821907824,0.01480052596066762,0.008508809031482245,0.009369917208634514,-0.06690837974436874,-0.16656477542158202,0.006455489438601605,0.023703320652667483,0.003430249909679963,-0.008656161398442901,-0.004962179396959496,1.3125
0.0669736238670284,-0.5837142263875783,-0.4247779091798359,1.9574677115678436,0.07991701749380216,0.053817151540516736,0.050673247137506885,-0.37171080036558446,-0.9360424777364276,0.03628428213428075,0.12966534293717988,0.019244088326671627,-0.049400736500668535,-0.030010280411327903,1.3203125
0.10064905716448069,-0.8753476965638118,-0.6379918415608009,2.9382678608759063,0.11956359871857578,0.08141738529235054,0.07580014040470506,-0.5573104946328641,-1.4051874466255796,0.05445794268730861,0.1941387288755256,0.028894480643070684,-0.07416504073444989,-0.04526595765876527,1.328125
0.031242104716560394,-0.27401561968198634,-0.1994259150981261,0.9204714522918462,0.03790569009099715,0.024628997645229155,0.024027921537885483,-0.17507661974445238,-0.44037466317829205,0.017066604262278122,0.061285561786541015,0.009065875143568481,-0.02309441368075429,-0.013869229055025061,1.3359375
-0.017835781361631997,0.15076411999690675,0.11056508520168913,-0.5052597761108886,-0.019840164370464684,-0.015560531314244529,-0.012529455194757556,0.09521670715815263,0.2424988088796741,-0.009386896881348477,-0.032692001443780795,-0.004960151746690179,0.012955723207470895,0.008331561000566317,1.34375
0.026141713494258888,-0.23022621520477934,-0.16749478639074325,0.7748666251791875,0.031887079355205857,0.020401810099866777,0.020303953429085263,-0.146988061132146,-0.3691238502005067,0.014295776820485504,0.05141298472702315,0.007620751037840413,-0.0194154348913529,-0.011571984829451317,1.3515625
0.006120180414956617,-0.056173677845436844,-0.04023186732056787,0.18888569039788677,0.008284557955045796,0.004010582065282188,0.00527143806830082,-0.036508255093691044,-0.09114378419455124,0.003473241871790117,0.013087059212084914,0.0018811421376650674,-0.004582517264800958,-0.0024940976463707324,1.359375
-0.11755843348450748,1.0151578606351683,0.7422334265144285,-3.412896071014967,-0.13725018173376327,-0.09720694573742109,-0.08709083996445183,0.6448867503143418,1.6292203584791114,-0.06320045839313186,-0.22353854556149766,-0.033514256434572204,0.08646877355896482,0.053497555256440385,1.3671875
-0.12794574415051807,1.1038742453179717,0.8072424971497346,-3.712301940559802,-0.14939661368220747,-0.1057129201640332,-0.09477329155701955,0.7018970014228587,1.7746150265435958,-0.06877554389798751,-0.24333518533271387,-0.03648023711600727,0.09397964877407637,0.05818735328390169,1.375
0.0068959287660166815,-0.06499078221004732,-0.04615244193298085,0.2161322255493966,0.009368075954199686,0.004655079025055985,0.0059380621671294345,-0.0412086043125718,-0.10071013909727493,0.003927290277662093,0.014764566904147063,0.002114944453771209,-0.0053843691607144166,-0.002870330551761388,1.3828125
0.03428124972410547,-0.30126666024655974,-0.21877743749418793,1.0117190313754865,0.04163541286414784,0.02709976779215635,0.02632413815515133,-0.19217037101240092,-0.4824848730497611,0.018675903555722722,0.06721218584163727,0.0099464461149032,-0.025496551411630843,-0.015267090140621935,1.390625
-0.06391082309485363,0.5506569956672063,0.40319178532088845,-1.8512375643089087,-0.0739279984783413,-0.05325642139972938,-0.0470636373002093,0.34880108863533504,0.8829624760671476,-0.03427091207301613,-0.12066049635858941,-0.018177471908656484,0.0468960780451024,0.029211705002600716,1.3984375
-0.01123844264396463,0.09437329071725253,0.0700031903776344,-0.3201112325368112,-0.012008892460786694,-0.010190117479134817,-0.00776770368179543,0.05870815489590249,0.15120266909469277,-0.0058682726210899806,-0.01988139073574428,-0.003127996629027965,0.008193864892779658,0.005406975644061038,1.40625
0.18491253647024788,-1.6055636518327032,-1.1714801958699443,5.391813308816298,0.21874198623937388,0.15029474087258418,0.13870032516666006,-1.021802022903655,-2.5764013181550514,0.09989393462721297,0.35539049066538086,0.05301098234609519,-0.13617785443126473,-0.08337135315064766,1.4140625
0.19768510920471638,-1.7162447741665061,-1.252823527424214,5.767043795882449,0.23376764739878167,0.16073020732356572,0.1483103454189787,-1.0921929286940382,-2.7543533124027633,0.10680318149407177,0.3797200402850958,0.05669987989425247,-0.14560690050339087,-0.08916826918360657,1.421875
-0.008111262309009444,0.06711390169062252,0.04902957351109518,-0.22241906545285686,-0.008351793959778721,-0.007676984920971033,-0.005260603657788532,0.04144993986801057,0.10757857010936292,-0.004122365635852617,-0.014156864489091009,-0.002172555750915667,0.005837280790445032,0.003969994357545675,1.4296875
-0.125493227634896,1.0841297918316277,0.7920591595622672,-3.641879917840697,-0.14649817128652967,-0.10368413740019528,-0.09291954231026679,0.6883107424195266,1.73999839402437,-0.06741539550287966,-0.2387611118066762,-0.03578117755936723,0.09225388951231124,0.05709298817657197,1.4375
-0.06955626229126331,0.5990334010897103,0.4386545955111651,-2.017222090607608,-0.08080638579150631,-0.05783516771111832,-0.05124927168254783,0.38070075356668776,0.9616392740258589,-0.03730038237888506,-0.13166417983178627,-0.01980057199763946,0.05114588680387296,0.03175837583197672,1.4453125
-0.0343360392854508,0.29336358368966664,0.21571348100735782,-0.992207433711352,-0.039462923926720996,-0.028999033034821174,-0.024960909166165526,0.186971759365765,0.4715598007689576,-0.018334638436609776,-0.06424731496584463,-0.009719858301679278,0.025230024855213497,0.01580112507285983,1.453125
-0.05866997830858612,0.5039464790729844,0.3690974440951969,-1.6973209973329522,-0.06804371026731501,-0.04895736413693344,-0.04304193989827253,0.32070431089335116,0.8104416933835126,-0.031437901951265876,-0.1108239118444927,-0.0166616416167422,0.043052650871284515,0.026815083123299936,1.4609375
-0.03290585234286708,0.2806202823666613,0.20593184235677317,-0.9456331693093845,-0.03760403936870151,-0.027880015560918417,-0.023793586867825112,0.1783236936471421,0.45267816427267454,-0.017535888199463445,-0.06147598928273092,-0.009282561723240084,0.02401387642342857,0.015160517442845006,1.46875
0.002283499601527929,-0.024374296984106796,-0.01629863436139358,0.07726059415618253,0.0038499176188232327,0.000954508347825185,0.0023936008976935224,-0.015564358220165993,-0.03675847485662511,0.001422166143467197,0.005966264676157384,0.0007725558201195062,-0.0018734007084437664,-0.0007691065471678843,1.4765625
-0.02159209087506965,0.1828200420835438,0.1350652539842202,-0.6177962927411584,-0.02424935285725475,-0.0186133963404798,-0.015448496484827276,0.11606007144024988,0.29495189443172637,-0.011462134466854896,-0.03969385354248058,-0.006070756186619808,0.01573023423346799,0.010031256702440016,1.484375
0.0036525272942859437,-0.03480439175260737,-0.024638300610138702,0.12026598329130017,0.005516943769597483,0.0019481818633867326,0.003478362401544731,-0.023258993313221697,-0.05643490467212528,0.002149041428747866,0.008524326185433756,0.0011576380525471265,-0.0028669182794330297,-0.0013923191062322246,1.4921875
0.11677170836957676,-1.014038641651395,-0.7402544371287137,3.4145134366022214,0.1387243207870665,0.09450253205765612,0.08794352315030475,-0.6467516725803907,-1.6300116677746186,0.06313768488928134,0.2249314907721359,0.03353660497539636,-0.08613720282959081,-0.052583087745987515,1.5
0.13581004064351065,-1.1796084181147861,-0.8607156067931203,3.965440559184769,0.161118538640603,0.11017812969477513,0.10206846499120718,-0.7515339207556413,-1.8949172877633218,0.07341220969844958,0.26140932951952106,0.03899242490888713,-0.10011360085027501,-0.061191277222493914,1.5078125
0.007417718840972089,-0.06847395307460374,-0.04885279119761246,0.2251790028683656,0.009900487753360871,0.0051514700436925505,0.0061848460184361674,-0.043877262700221305,-0.10865298626265706,0.004213117704670915,0.015716975739852458,0.0022637994941404585,-0.005579820587489347,-0.0030679924374953037,1.515625
-0.058656839758450804,0.5038529300593163,0.36869213367015896,-1.6961791852556793,-0.06795747057262269,-0.04901071030612549,-0.04306026127523215,0.3202077294213284,0.8112133332138054,-0.03140428370155676,-0.11084297324118607,-0.016635014858841064,0.04304141002499534,0.026848631777799527,1.5234375
0.0036834864614345556,-0.03553058733444872,-0.0255725214730157,0.12111226814933056,0.005431149251396697,0.0019202696662939623,0.003536685329768079,-0.023392078360515874,-0.0555671448781696,0.0021920163988485707,0.00838759725341975,0.0011943048691216752,-0.002863784690915797,-0.0013650431934732188,1.53125
-0.007027338360281663,0.05729848263961976,0.042780207298190785,-0.19348025363266186,-0.0070972470431931375,-0.0068065841518521455,-0.004516061180249351,0.03561562113164702,0.09291523404230626,-0.003574804510696606,-0.012014091797462514,-0.0018938838001712976,0.005034673539868136,0.0034839509891144587,1.5390625
-0.12984056766933447,1.1208125465380336,0.8200309928522553,-3.7739387135141262,-0.15161904514832295,-0.107219210903362,-0.09627915131722299,0.712425164361065,1.8004410452071982,-0.06975830241908913,-0.2469289644219794,-0.0370496961732758,0.09547196752373625,0.05907825584282237,1.546875
-0.13549313300168903,1.1700957493190238,0.8555920777653977,-3.9390468051059235,-0.1582983123089777,-0.11181071819337368,-0.10050074306781447,0.7436546368061329,1.8786687421594719,-0.07281484898197241,-0.25774518965450793,-0.03866257640777433,0.09965713715146225,0.06163595664097445,1.5546875
0.026548251550863565,-0.23288650829376284,-0.16963137565636704,0.7825582043768909,0.03243513884053754,0.020769209516539863,0.02051302190129226,-0.14924877644849172,-0.37519924925880527,0.014489906740352426,0.05233673670253772,0.007707029197808953,-0.019635768792593954,-0.011725778565568477,1.5625
0.11785649407879686,-1.0238920087810663,-0.7470383709652237,3.4438123603342716,0.13993805521635158,0.09545384209612218,0.08870185930244114,-0.6524743425157521,-1.6449058117062407,0.06368875842517686,0.22710177649053637,0.03382641959038661,-0.08688693864321057,-0.05307251134920161,1.5703125
0.04474479080372473,-0.3913178886060776,-0.2845703601043991,1.315170573857399,0.05382812967460239,0.035612593792143446,0.03413365447307956,-0.24960152439743136,-0.6276940154289181,0.024313754447255816,0.08717325564622566,0.01291080907845625,-0.033083717459854174,-0.01998695611972069,1.578125
-0.009813562967665643,0.08066190535358293,0.05985457190559808,-0.27301090924416094,-0.010504524814651374,-0.008994736889449422,-0.0065612632546461075,0.05120943742302106,0.13108242415849863,-0.0050499420393673835,-0.017288011419591038,-0.0026747621190146512,0.007086390002485399,0.0046974286502689,1.5859375
0.04067392798631282,-0.35702114247486844,-0.26012534096968426,1.1981457464290106,0.048894043791522845,0.03238534019158482,0.03115969872724462,-0.22682783105904358,-0.5712263422947759,0.02216462129548738,0.07935355333322207,0.011784667707425858,-0.03009503692453677,-0.018169965092451106,1.59375
0.05229146003019075,-0.45776257705393136,-0.3331266279557362,1.5352182492219226,0.06263271118728111,0.041901731703418876,0.03980277872811636,-0.2908186064824595,-0.7324119127540357,0.028390589500886017,0.10163978606208951,0.01508616500129137,-0.03867533144793623,-0.023422681687393504,1.6015625
-0.04398212844524031,0.37670970638547774,0.27700732240944204,-1.2712002287175017,-0.05065651821816626,-0.03694460944477632,-0.03214494509220498,0.2396630758727967,0.606919081665505,-0.023532454212501174,-0.0826653041945979,-0.01248544597622378,0.032219345883933624,0.020180102052222735,1.609375
-0.11081130112367553,0.9566167434281863,0.7001749493951979,-3.2179379615026407,-0.12931867299507424,-0.09168485515990324,-0.08207932116157089,0.6078507368176489,1.5359122122503412,-0.05956098832931524,-0.21068945082523977,-0.03159549749115134,0.0814664900507204,0.05044274978339543,1.6171875
-0.045966140757020685,0.3954376706625071,0.2894382048540161,-1.3278618937237205,-0.052939598102208454,-0.038615218343708305,-0.033647625095530036,0.25030801175888895,0.63355540313383,-0.024600832027310216,-0.0866216936777822,-0.013014901585603776,0.03372747495639042,0.021091909496502484,1.625
0.0644797815966432,-0.5616380549441623,-0.40978140169687755,1.8884978761440288,0.0771014821773328,0.051773149294068566,0.04884496769381471,-0.3585142224196166,-0.9019919368095455,0.034948876314066936,0.12480720696982864,0.018587329070896542,-0.04761081474867856,-0.028882412094262955,1.6328125
0.09111176530374447,-0.792904077031549,-0.5783497182830267,2.662507773502973,0.10839932630779907,0.073538110545203,0.06873979358653717,-0.5052597823683244,-1.2717571372442082,0.04932728705535318,0.17581724095830079,0.026193097282126453,-0.06720617444538649,-0.04091650599310369,1.640625
0.02825472946618735,-0.24863708569656376,-0.18074085672100648,0.8334511511210617,0.03440483282992518,0.02207764056662733,0.021814821566784243,-0.1588345365886825,-0.39821889330982013,0.015455642732252172,0.055558799082639866,0.008213150569270796,-0.020928015649349214,-0.01248799989697269,1.6484375
-0.032549514259661703,0.27808946272354124,0.20379186790142892,-0.9330080720472004,-0.037041552668217424,-0.027661221259745655,-0.023565074604385693,0.17610344122037228,0.4462165731295229,-0.01733453405055292,-0.06074299213634787,-0.00916801932918754,0.023767308714277548,0.014981038548100616,1.65625
-0.039726662735106624,0.34036694020806035,0.24924352805745909,-1.1409232948166699,-0.04542478319919268,-0.03349320998235139,-0.028910443935689666,0.21563004323858695,0.5460115437617123,-0.02122321443044676,-0.0744535534864423,-0.01122654520874925,0.029003283736986112,0.018213295415277362,1.6640625
-0.033956160319691286,0.2905694537757641,0.21294018885911534,-0.9769002939420237,-0.03875676900058725,-0.028730746277504205,-0.024611743574954856,0.18411421508467632,0.4668365382876393,-0.018111853705371276,-0.06342358295863232,-0.009602418440622183,0.024827450998003448,0.015640268765497182,1.671875
-0.04582581276345466,0.3934995361704109,0.28815082508456213,-1.326537613259494,-0.05282375216876237,-0.03841697347100523,-0.03349560219741501,0.24967179852861732,0.6325247321519196,-0.02449069217427624,-0.08608358311797928,-0.013019877147437993,0.033662947281101134,0.021054283108504226,1.6796875
-0.018912873860406333,0.16020795151433603,0.1179306665660992,-0.5426780419519202,-0.02105411623990474,-0.016407429734640808,-0.01341423317295234,0.10110333325760092,0.25786234345356723,-0.009967368820962788,-0.034501704663571116,-0.005317971143506044,0.013841268073981124,0.00887523217736794,1.6875
0.07059250573912978,-0.6154941516867732,-0.4483163570488748,2.066025317093439,0.08433958713306593,0.05677440926191437,0.053413796023073126,-0.39225159800147347,-0.9872251008009448,0.03827900646397275,0.13669656413838627,0.020311767384093172,-0.05210426229450007,-0.031656879815023325,1.6953125
0.11302704078410628,-0.9832888983282246,-0.7168538176045584,3.3022483231798363,0.13408455525793855,0.09144390948672909,0.08509214038232275,-0.6256771737342246,-1.5768902456241702,0.06113506960989018,0.21767039324531867,0.03247299756278848,-0.08331336839714525,-0.050869899681860536,1.703125
0.029905263268230186,-0.2628464057533609,-0.19087532841763646,0.8797576565950581,0.036060410911001206,0.02343309426067693,0.02300020736294684,-0.16721145340799304,-0.4203988680672135,0.01630101613017158,0.058475315827882825,0.008687443074444542,-0.022041635169008922,-0.013234813389614526,1.7109375
-0.07427720787452183,0.6404322566830339,0.4687062680838617,-2.1557072934189794,-0.08645086458243985,-0.06177006651075852,-0.054820359123506544,0.4067458445516641,1.0280748027500268,-0.03987885731975836,-0.14082819047236178,-0.021141164996840114,0.054649054166224086,0.03392446420202653,1.71875
-0.08157809949080198,0.7037026719021524,0.5150462787505421,-2.3664185464661727,-0.0948112981240706,-0.06771947246277726,-0.060243647511568944,0.4465636475982251,1.128934815223629,-0.04380719345710237,-0.15469542461543243,-0.023233443412330107,0.059906001875403514,0.03720492983916142,1.7265625
-0.03840563229349515,0.3284668305747006,0.24112620688495698,-1.10437496554706,-0.043972026584563347,-0.03240084986288502,-0.02790529396239236,0.208500807195866,0.528773973092279,-0.020497361102232516,-0.07202528754951555,-0.010858925276160006,0.028005658165095954,0.017627547524967736,1.734375
-0.021490568408849865,0.18095205491300734,0.13326269034702093,-0.6089119419306279,-0.024187718041386808,-0.018550306448797953,-0.015198208663176506,0.1153745573887931,0.29407705041901094,-0.011342524190634286,-0.03959345048993506,-0.006006605487077243,0.015547325667653445,0.009953234784163618,1.7421875
-0.006925276975058976,0.05555708730281096,0.041443394284536555,-0.18695695385119981,-0.007050107801531745,-0.006587423043485584,-0.00437257213460696,0.03520948676636256,0.09079663345178249,-0.0034945054751990188,-0.011650186607890325,-0.0018534759496871118,0.0049201583047163945,0.003367394899366186,1.75
0.01585183138119182,-0.14044609595924273,-0.10172887150818305,0.4724052581464577,0.019879200327750424,0.012076397920212522,0.01251708073050702,-0.0902450550590541,-0.22738689139248439,0.008746779622490283,0.03194571112565893,0.004652051998378795,-0.011770817423960949,-0.006927394818975532,1.7578125
0.010723243407360222,-0.09621682761654675,-0.06926240119000202,0.32214857383623885,0.013897465023701365,0.007850403011792722,0.008648804139956386,-0.06198967800654743,-0.1561174146892479,0.005966763889371787,0.022096837765651953,0.0031947578179555656,-0.008012836423429074,-0.004592082474946671,1.765625
0.022490151126593628,-0.1990651464799963,-0.14443252191092235,0.666079758483783,0.027710472606637126,0.017431685446433486,0.017491146538367273,-0.1269562488968249,-0.31853898860091595,0.012339915307005109,0.044590372941957626,0.006569854066970094,-0.01671916737094262,-0.009899156484857403,1.7734375
0.0953392807078032,-0.8296662399027853,-0.6053979974466603,2.7873294232268844,0.11345113146541193,0.07701475644455502,0.07192374648639593,-0.5285555754655907,-1.331140516440807,0.05163137766505853,0.18395884554508282,0.027405039408816396,-0.07033053092041246,-0.04284813372515167,1.78125
0.11025152452860121,-0.9575999552025926,-0.6991159019269451,3.2199790847262135,0.13102219073462482,0.08919137414675342,0.08303365534510233,-0.6107959075702402,-1.5387442938051863,0.05962887618138551,0.21243389276071703,0.03166301968426282,-0.08126519762543909,-0.04957523809969549,1.7890625
-0.01902856573190413,0.1621416077307984,0.11894920910013855,-0.5455253083485501,-0.02123433944695755,-0.016627050663434822,-0.013515419902212847,0.10168862764373189,0.2599705416844194,-0.010126117305963533,-0.03498184425706977,-0.0053283478581447104,0.013907501079332836,0.00895530622921044,1.796875
-0.12311895331005626,1.0625977334604608,0.7770518021161856,-3.5765436913588244,-0.1439332527244832,-0.10180202332339205,-0.09121794079153318,0.6755016994575971,1.7090693924993674,-0.0662457276140639,-0.2341592147820854,-0.035115086192076005,0.0905273745090874,0.05607059450772241,1.8046875
-0.048979674605257505,0.4202083775265827,0.3079135308692434,-1.4172565793059144,-0.05673656402926008,-0.04109645439145682,-0.03584745932219432,0.26716407879358384,0.6779806580746816,-0.02622513798088237,-0.09231798082826287,-0.013903914406731265,0.03597345679436107,0.022494765110176007,1.8125
0.05834527118913629,-0.5085340781515982,-0.3706712579920495,1.709067934453723,0.06973253316062197,0.046765068602718715,0.044279091571583884,-0.32428811944260344,-0.8163759404302551,0.03168326328356062,0.11302472920259551,0.016813481951784715,-0.043028541972524106,-0.02611615716624424,1.8203125
0.03923052795832009,-0.34277469917453895,-0.24956500589969208,1.1540768645413821,0.047422135264160135,0.031157100229411535,0.03000280917268219,-0.21918405662970597,-0.5521157807050379,0.021394251516275484,0.07654201432572073,0.01135009402973116,-0.029001438456034413,-0.017499820104856005,1.828125
-0.008986999330269321,0.07385406787725407,0.055165654237490466,-0.24854668373449051,-0.009289713040771412,-0.008262909802755,-0.005993571125498177,0.04641356940804041,0.11796110704205458,-0.0046019289191307315,-0.01555146149091672,-0.0024511709441479472,0.006447980584164546,0.004290054669366365,1.8359375
-0.008055852228169605,0.06481143074272337,0.048909012248737435,-0.2196798138223163,-0.008247341373107462,-0.007517554419408224,-0.0052959193843854285,0.041309236822632996,0.10509914814056598,-0.0041043168688196605,-0.01373529084545798,-0.002180114894038328,0.005723883029304343,0.003841430404706837,1.84375
-0.06951809971914352,0.5970459211022623,0.43771665770412765,-2.0077623668896214,-0.08058106667515974,-0.05791687847716067,-0.05118626466965799,0.37987390211300004,0.9605630172883388,-0.03724765967865995,-0.13149816255747976,-0.019750503099609084,0.05090638339472785,0.0316663594678713,1.8515625
-0.16815534126407128,1.451848582005634,1.0620622938233306,-4.88170303812103,-0.196636468875696,-0.13871686211169068,-0.12484229076676237,0.9232525071130374,2.3335970401167123,-0.09043705103334447,-0.3203665780669854,-0.047979196570944675,0.12350143252918078,0.07636425559582442,1.859375
-0.09552405863605841,0.8234405695567735,0.6029040127050848,-2.77260837992417,-0.11123450160844263,-0.07922274736635987,-0.07063451789432566,0.5232657646164612,1.3241541210409717,-0.05129474989668493,-0.18134627514475202,-0.027225867132167268,0.07015862713004845,0.04355422701724306,1.8671875
0.09929985339680046,-0.8633162197249439,-0.629784896238962,2.8958313579727646,0.11786421274126604,0.08034488060421187,0.07483368419581313,-0.5497222297869002,-1.3857788601211372,0.05372262953364792,0.19150825739536137,0.02851099695266559,-0.0730901612617025,-0.0446001868274971,1.875
0.13314452541766691,-1.1561029085144126,-0.8444855715357941,3.882269842879732,0.1575724452405509,0.1081118091841587,0.10015544579785603,-0.7359232612069719,-1.8568889582048091,0.0719556375791304,0.25622066039145414,0.03821814567730651,-0.09797108968465305,-0.05993242950161223,1.8828125
0.023558309351877284,-0.2069958458644298,-0.15142275484542805,0.694762543618534,0.028677847920616315,0.018420380097499477,0.01836739632640524,-0.1323112177173732,-0.33264964070744607,0.01287179740179257,0.0464992962074346,0.0068762355046629005,-0.017392223497065283,-0.010354163136303142,1.890625
0.03673420404163158,-0.3213023020500608,-0.23428333331617737,1.0804630003195073,0.044380192496634274,0.029168680850443038,0.02816674293526291,-0.20535157428797948,-0.5160494917282455,0.019983592921867792,0.0718089100046362,0.010635951679206349,-0.027166242169224995,-0.016339111440396556,1.8984375
0.1313311660911177,-1.140910892695164,-0.8322461905110607,3.8364989003905436,0.1558344521638957,0.10651859012316543,0.09874926439115335,-0.7268254948824913,-1.8323598824028533,0.07099662435882993,0.2528871786403775,0.03769724244569257,-0.09683415876129073,-0.059182722325306206,1.90625
0.05979731575540544,-0.5217998832207883,-0.3797995575504443,1.7554386238293116,0.07163238674180805,0.047885712950424375,0.04534861731931041,-0.3326000484606277,-0.8377204640567287,0.03243648779147524,0.1159239110002924,0.017236587889967174,-0.044217240882909035,-0.026824261099143605,1.9140625
-0.0878789573970049,0.7570131253716286,0.5541815888849041,-2.5451695544774844,-0.10221843551283671,-0.07299401190378353,-0.0648978575910696,0.48123411563484847,1.216523747864373,-0.04719238876414553,-0.1667239733103938,-0.025019687870951754,0.06447650398062159,0.04002884816962814,1.921875
-0.0506944031064019,0.435342738950508,0.3190199637154744,-1.465655504728719,-0.05845142567435853,-0.042496781857620396,-0.037171159030126556,0.2762643829330501,0.6996260855310764,-0.02716634872840714,-0.0954894895681068,-0.014391682964800081,0.03715695751655511,0.02323197650971613,1.9296875
0.07337043219993733,-0.6386797708260328,-0.465661699116909,2.1455304874282772,0.0875998768406014,0.05907083145813534,0.055430800190151515,-0.4075836111194926,-1.0257397251680924,0.03972236937998682,0.1419957207368131,0.021104669648013785,-0.05412574085686765,-0.03290084161963458,1.9375
0.025978385976688476,-0.22844720174806646,-0.16596397340946709,0.7678962746662198,0.03183683533868463,0.02023368886823587,0.020089196918228875,-0.14656546666354553,-0.36620166188123454,0.014214589649388062,0.05126758177381817,0.007550880035773347,-0.019271971991463573,-0.011455681756529917,1.9453125
-0.12394923749233756,1.0692191356116312,0.7821194392637386,-3.595545381206978,-0.14465836622312422,-0.10249466617808715,-0.09177891549494406,0.6796913555629708,1.7193155483280549,-0.06656084629141869,-0.23569887210476131,-0.03534263392608104,0.09104684087362475,0.056387441741998584,1.953125
-0.16110722989778575,1.3906353352593488,1.0168251267069188,-4.677868125923084,-0.1884866327408579,-0.13285932054932945,-0.119490626448681,0.8846620922606574,2.235872093013938,-0.08657439967077446,-0.30684700513390145,-0.045964720212630886,0.11841572666915315,0.07319582341431508,1.9609375
-0.10021217075381213,0.8638022660192759,0.6316007481463377,-2.9055890848788843,-0.11690361430724149,-0.08300179934482765,-0.07404300907356856,0.5492344104461633,1.3884990545979568,-0.053770295621332204,-0.19039140234668883,-0.02852736796915839,0.07363885391226961,0.045633451721028034,1.96875
-0.04109186388708199,0.35254199250698187,0.25809938236650226,-1.1847464336366225,-0.047314228330736015,-0.03464046417902913,-0.029949406998922103,0.22350427049613567,0.5659254009033986,-0.02193542287722586,-0.07727883517659255,-0.011617081598159506,0.030147624325637733,0.01887483727984793,1.9765625
0.029163866414534317,-0.25594752467474374,-0.18578231580412283,0.8589515978356277,0.03544468763785015,0.022898037070502683,0.022452002399629918,-0.16351107248905922,-0.41156598187211796,0.015919234919053556,0.057318362976157285,0.008456315104416053,-0.021559608477089404,-0.012930129378448058,1.984375
0.09262118007862534,-0.8061493938510544,-0.5872320811260149,2.7045383253030812,0.11014869904114101,0.07492216723155555,0.06981221493509315,-0.5130216818133446,-1.2943557413923645,0.050125688472596866,0.1789154206730278,0.026596386364386982,-0.06827293374320748,-0.04165779206400308,1.9921875
0.08494926139063998,-0.7399458709914422,-0.5392795386708694,2.482180599836214,0.10109321370100367,0.06863757575527986,0.0641218623054698,-0.4707909547425373,-1.1873861570578632,0.045994612491331334,0.16416219274163799,0.024420284529090272,-0.06265339131383804,-0.03818085676077936,2.0
0.0658214904793943,-0.5739243141779071,-0.4187346765307029,1.9283508625196157,0.07862649086522501,0.052889835813720476,0.04988669442888204,-0.36567854902910174,-0.9209740553885234,0.03568869349320429,0.12737825019135615,0.018976336196756077,-0.04861808735830547,-0.029511478232296627,2.0078125
0.10262533500081616,-0.892326148578716,-0.6513702389896333,3.0003283283791164,0.12201979941110348,0.08299047676940143,0.07735384969322535,-0.5686206614951901,-1.4327276613314828,0.055514476008323176,0.1978058786062376,0.02950578774070448,-0.07572278808299976,-0.04616035204666732,2.015625
0.09511213827403621,-0.8271640976709375,-0.6031640121826262,2.7781859759946452,0.11312122662153078,0.0769083172981753,0.07168284673885866,-0.5269195917008702,-1.3280024505695518,0.05141746096510109,0.18354744182981694,0.02732423554098587,-0.07014560078165463,-0.04275405213011565,2.0234375
-0.019075100600232105,0.1619561621341126,0.11975254153849721,-0.5490354954627917,-0.02141691273912128,-0.016533242941484342,-0.013609829344784668,0.10265476312983343,0.2605790075288572,-0.010174461162294113,-0.0349676225435699,-0.005374448172982613,0.013971393038681812,0.008933378253392696,2.03125
-0.1048022920186562,0.9046711168404294,0.6620511532850542,-3.0432259806218056,-0.12231664965862038,-0.08676368952099019,-0.07758550874872061,0.5748838846468528,1.452929037451859,-0.05636275424740512,-0.1991048379292574,-0.029899754571513355,0.07707797551541672,0.047731786546221185,2.0390625
-0.07203091552639396,0.6208330667386064,0.45428573559784846,-2.0851877434778374,-0.08358819285299213,-0.05998279910568918,-0.05305830140871097,0.39377555540095655,0.996669533143439,-0.038641260398732676,-0.13638505220510813,-0.020500087504204036,0.052892152219688675,0.03288714434262934,2.046875
-0.011742120090106478,0.098411890262222,0.07248872609625642,-0.328295627318278,-0.012558502101179416,-0.010613982513454127,-0.008019232444966821,0.06136529252962348,0.15782840962154562,-0.006117474571950491,-0.020962337376199982,-0.0032310514722254254,0.008479375882956266,0.00559171946760485,2.0546875
0.0013853149211286873,-0.015729400320605658,-0.010857163886484644,0.05289644860379417,0.002777690703380841,0.0001709860702133063,0.0017829648084643228,-0.010694932760430875,-0.024748080849281758,0.0009739802404226583,0.004130849993691763,0.0005339167241466182,-0.0011428075804219204,-0.0003513737365113443,2.0625
-0.020315624795733407,0.17138262710296256,0.12593547192028906,-0.5788762677453441,-0.022867929033044448,-0.017561967502775434,-0.014385767756051725,0.1090722987809523,0.277117901442162,-0.0106701586715667,-0.037431072341377915,-0.0056682684238685685,0.014844469502573489,0.009457564052844225,2.0703125
-0.06620913037365471,0.5679566490631831,0.4157986443968202,-1.912397806798378,-0.07681164632042208,-0.05512841291656282,-0.048596858529381906,0.3617591843278571,0.9154919523700041,-0.03536986495583014,-0.12520427745125598,-0.018791899130084774,0.048526116302613644,0.030204120838445897,2.078125
-0.07385911307625172,0.6343596992297091,0.46438158852729944,-2.133293173943898,-0.08565244560405663,-0.06145974812848544,-0.05432499037432201,0.40363151958279947,1.0219249577132905,-0.039541720658881625,-0.13979412765620375,-0.020977313712784305,0.05405579375685584,0.03366537847637933,2.0859375
0.03249213725543161,-0.2852934634412503,-0.20760339756103252,0.96049883853554,0.039615124494539286,0.025495803594293105,0.02497502644805631,-0.18252167942510128,-0.4575949429995099,0.01770893500926659,0.06370835461833926,0.009446417670715633,-0.02418046102859577,-0.014426807565621045,2.09375
0.12444559190050491,-1.080398050463483,-0.7886223776015865,3.6325616167772155,0.14782491332336753,0.10074724698794661,0.09354761144476766,-0.689266740349878,-1.7369181089649264,0.06726153818015634,0.239668079757572,0.03573672297958403,-0.09173504531252201,-0.05599612691937994,2.1015625
0.014634075172094307,-0.12941317469563643,-0.09373317306347373,0.43285387132825537,0.018481414665476346,0.010930465978734169,0.011573811489808756,-0.08409467389566505,-0.2092162689624977,0.00808261242124312,0.029543869681370166,0.004288659087788756,-0.010858651418171899,-0.0062881871248383165,2.109375
-0.1501710809707759,1.2970727931614106,0.9488052616371844,-4.364123722681138,-0.17562638071403375,-0.12391619995189941,-0.11143221207060033,0.8244127600793754,2.083874106586097,-0.08077845498737479,-0.28587248222899153,-0.042881043825525156,0.11041772081548358,0.06827209053034203,2.1171875
-0.07764995796963256,0.66858770361239,0.4899408697592632,-2.2510198172498166,-0.09036249773132611,-0.06453103589590017,-0.05729617351570132,0.42526252718388163,1.0753352198294621,-0.04170681802036586,-0.14713909009033482,-0.022119782816181256,0.05704814671173341,0.03542029723951111,2.125
0.14585337283716934,-1.2667175905448904,-0.9240402221593829,4.255963895457368,0.17271361244752723,0.11847130949529232,0.10955082049066311,-0.8061668557132343,-2.0341031061135704,0.07879830873056376,0.2806112248239533,0.04184669795923232,-0.10740973006635608,-0.06574516389764963,2.1328125
0.20305881267187478,-1.7616019904911386,-1.2859069178283515,5.920634106190176,0.24009129374828223,0.16534890641294198,0.1522781863277521,-1.1214711025487538,-2.83026236253887,0.10964688784377762,0.3901327339995112,0.05821238530585691,-0.14950835761265693,-0.0916336196471163,2.140625
0.07251178114685886,-0.6311124710306711,-0.46008327340786087,2.119513556128214,0.08638192863483753,0.05846568947588838,0.05484089727033798,-0.4020425509343654,-1.0140828273377316,0.03924091571561484,0.14024894478713623,0.020848249803400658,-0.053454343594271106,-0.03254490998442165,2.1484375
-0.04801578769797943,0.41183470165251396,0.3020825898140604,-1.3899930890823353,-0.05559036685367499,-0.04023867120268187,-0.03514262744196025,0.2622513128821287,0.6628943933305941,-0.0257303301811892,-0.09047056625080924,-0.013636734308448455,0.035249362852472314,0.022010005778094466,2.15625
-0.10701683137604172,0.9222910795461028,0.6749859220643436,-3.107746287957326,-0.12501542033483004,-0.08852000679642785,-0.07919069714078841,0.5872263492476962,1.4835425658321568,-0.057470779666134196,-0.2033428686520142,-0.030507421034588266,0.07868819980903283,0.04871910900008786,2.1640625
-0.11491422974336639,0.9913652332108813,0.7248928249455634,-3.3353831574568154,-0.13416647211577903,-0.09496977547450354,-0.08505401545757568,0.6304528016352168,1.5931090524750124,-0.061692741479997516,-0.2184446005039196,-0.032755195042266726,0.08448994945792987,0.05229334450629627,2.171875
-0.02005100392248318,0.17062842205955048,0.12479758288442498,-0.5698551006964337,-0.022437343324317207,-0.017379881964838383,-0.014198492595506486,0.10765977445141311,0.2734356436588708,-0.010593141648868728,-0.03701094730477728,-0.0055948104282530515,0.014635652155908117,0.009346906270313815,2.1796875
0.08031771264100593,-0.6989760375005111,-0.5102925876720451,2.353869146739516,0.09570215060162024,0.06471311524788882,0.060722159476256324,-0.445486448708866,-1.1229517050785878,0.04348289442799405,0.15505654191976473,0.023141452798647086,-0.0592806132852683,-0.036094357814889504,2.1875
0.002928093614770802,-0.02959540044220195,-0.02073027344454128,0.09956593983650296,0.004747137008948833,0.0013714510345063718,0.0029057206124894265,-0.019601343047948232,-0.04683944251934545,0.0017880689324449408,0.0071745802524369184,0.0009949322146099045,-0.0023881090702145683,-0.0010646146440578211,2.1953125
-0.14155364636222056,1.2215840894921668,0.8934979849016818,-4.107744670437174,-0.16509867507658516,-0.11688889255113633,-0.10497052325032011,0.7759011962147975,1.963267910359476,-0.07607532774479069,-0.2691493466132938,-0.040369463703058515,0.10388278250488348,0.06435179642970859,2.203125
-0.09109022966484963,0.7846023577755008,0.5742365022015258,-2.6378304852334837,-0.10571599256147379,-0.07563101669994483,-0.06726447602603518,0.49789817456592883,1.2625012566177098,-0.04887140867136334,-0.17267414544237297,-0.025946512807725915,0.06673738018149307,0.04152855260159128,2.2109375
0.07627104701846857,-0.6653656793613428,-0.4848344803092685,2.2348178298699093,0.0910250885664494,0.06134160113553653,0.05771586828071166,-0.4237341124764673,-1.0649837394434183,0.04136400937384375,0.1474612242863045,0.021944198819966263,-0.0563707725941163,-0.034229691074461596,2.21875
0.09544311033632254,-0.8313509543818701,-0.6061341588952324,2.791830352191355,0.11345852063060034,0.07709292222844176,0.07204169190629015,-0.5291471959187811,-1.3326405546252442,0.051715503945049625,0.18418611083684847,0.027436439856296832,-0.07041092240017464,-0.042924539008558533,2.2265625
0.0211258914065953,-0.1862563747111512,-0.1355847753272018,0.6279414358154375,0.02607116169080789,0.016315453491400962,0.016561264878698384,-0.11977168255476235,-0.30003003896351677,0.011624343365171508,0.042014480280761025,0.006171666572773617,-0.015687709917996572,-0.009291225360386936,2.234375
0.07367192523334058,-0.6401367575954386,-0.4676809615036781,2.1580736475537385,0.08793122433899377,0.05932337048394871,0.055769947140395675,-0.40905150142399993,-1.0309078043241606,0.03990057391413026,0.14245060523524578,0.02120464370371197,-0.05433831811743791,-0.03307098240997634,2.2421875
0.16947697056703898,-1.4703484191741338,-1.0735684182291405,4.944588958314794,0.20050810589949525,0.13774121328831376,0.12722041388370808,-0.9362650904435166,-2.3629366844473165,0.09152255986607863,0.325658804461866,0.04861030683181427,-0.12479295101884193,-0.0764317080236874,2.25
0.07795967217863871,-0.6785945393570496,-0.49418184150256156,2.2745268551175886,0.09266042639266564,0.06286573346502643,0.05879887685756886,-0.4316690534544516,-1.0898634185233027,0.042172038477331274,0.1505641805711676,0.022406568401708137,-0.057384694975829105,-0.03499502188994936,2.2578125
-0.1370316607206348,1.1835466645388317,0.8663325992155054,-3.9880612735793277,-0.16030654286927445,-0.11308535020771175,-0.10175052332917925,0.7526747224134678,1.9003671658387198,-0.07375256912608841,-0.26074796222589036,-0.03912466630939459,0.10084864848121262,0.062338776720448054,2.265625
-0.22278975070884355,1.9264552199740743,1.408782276049713,-6.48349574669797,-0.2611618906938917,-0.18328513132004365,-0.1657555722616206,1.2250009822518013,3.0933410351821697,-0.11998105850690886,-0.4248422299112164,-0.06366051447724491,0.16394491558312724,0.10115783653300787,2.2734375
-0.13281275320883715,1.1463860144555091,0.8391368382348405,-3.8611235958904757,-0.1553412575086955,-0.10964059936043777,-0.09855686047654062,0.7294526651026266,1.8422037110547052,-0.07142453599463855,-0.2527062947885345,-0.037901002084720095,0.09772531265868135,0.06040633968956527,2.28125
-0.03231750020314073,0.275368643287525,0.20300620049025322,-0.9332343172815356,-0.037138494461905244,-0.027381360007857198,-0.023502444968359463,0.17584418252357567,0.4447353146526777,-0.017204512995374042,-0.06041161200689942,-0.009133041572713227,0.0237608499568227,0.014901902123160518,2.2890625
-0.012629043358835548,0.10535113862310923,0.0780323975569638,-0.3570981719034283,-0.013854037263639696,-0.011279166746393577,-0.008724172447826835,0.06694181104411145,0.17114905488990817,-0.006592872865840518,-0.02270803948684409,-0.003488713849217451,0.00921049078357117,0.005999717251070531,2.296875
0.008730558850140537,-0.07905537158482782,-0.05772579530973696,0.26877352018167305,0.011481204506957344,0.006193213812907971,0.007327468365611747,-0.051277218738594886,-0.12602501031580837,0.004913446651440494,0.018201413506955835,0.0026358138970130926,-0.006607608206473422,-0.0036648402873600775,2.3046875
0.11425189953215267,-0.9934139216344722,-0.7258453613153812,3.3437381865002034,0.13577211486968807,0.09257918534234987,0.08615861795322724,-0.6328221808085208,-1.5945112900914646,0.061829445506509956,0.22015066633824887,0.032843783652633754,-0.0843379072881058,-0.051456232114395956,2.3125
0.21543013161430233,-1.87055090346504,-1.366181088471651,6.290834939333509,0.25488872182473304,0.17539575713786631,0.16170395025998882,-1.1903136871714988,-3.0027799990032156,0.11642279396407916,0.41377875557127275,0.06180699099662497,-0.1588397127669724,-0.09728712976253398,2.3203125
0.15583536290138877,-1.3546216611707311,-0.9891460140049684,4.5571280408825166,0.18483167871063988,0.12654963909337702,0.11723967449296653,-0.8623131045339666,-2.1739461244807305,0.08431135252521536,0.2997667490961682,0.0447558085754213,-0.11502685920085473,-0.07031273882541855,2.328125
-0.02428981226586041,0.20581005270038005,0.15080093605985645,-0.6872357767903425,-0.02710429285960062,-0.02098316081779203,-0.01723170138341776,0.12971506195711136,0.33227511883197364,-0.01283270556497045,-0.044871506999976454,-0.006802257589349093,0.017509043292137625,0.011247684602245185,2.3359375
-0.11419921695318065,0.9851251508154322,0.7204967689432086,-3.3088494649574134,-0.1330062019642512,-0.09461055635893346,-0.08445929780092022,0.6251967115639464,1.5833345920434132,-0.06136893150919837,-0.21690653932261053,-0.032552950512246215,0.08374128355410179,0.05197114111933727,2.34375
-0.07196532120596748,0.6200791671955024,0.45418418020907547,-2.0850066004573558,-0.08347225024673864,-0.059991397300684125,-0.053083438813580165,0.393067421383261,0.9955114378658798,-0.0386402737670676,-0.13614968888175194,-0.02047950596499364,0.052803491061996964,0.032868430530151635,2.3515625
-0.07010696382877683,0.6045301419371728,0.4427485228911033,-2.0346988462102873,-0.08140653603640632,-0.05839843093897818,-0.051761361296745634,0.38331219903951214,0.9694744151867465,-0.03763133015972785,-0.1326866086434839,-0.01995087439976136,0.05155819318377186,0.03204188119803708,2.359375
-0.13148836194160937,1.1362103511885484,0.8311105689189361,-3.8235729681337483,-0.15369920385572783,-0.10859416035584063,-0.09756158132688894,0.7217248691475449,1.824028116145282,-0.07070949236680805,-0.250198816190316,-0.03752887202157504,0.09677127550551975,0.05984699823445627,2.3671875
-0.06983228778464673,0.6020402585190142,0.4412368478923712,-2.0299055073924213,-0.08117583229694418,-0.05809654047524296,-0.05152612606168672,0.3822271058746889,0.9671926347502319,-0.037488917267395894,-0.13222344699365982,-0.01990512798056229,0.051392898771386454,0.03195008429403882,2.375
0.11135216230335343,-0.9674508634649763,-0.7050063672100477,3.2452673847738667,0.13201619431027975,0.09023831122651751,0.08370987246365674,-0.615745415036469,-1.5534647194056987,0.060172396435867824,0.21449934920498714,0.03194349438800864,-0.08194355842003383,-0.05008303662742666,2.3828125
0.15463088833550698,-1.3429761139113632,-0.9793775453027972,4.508079854362574,0.18291549471723145,0.12568454930480816,0.11603210292327551,-0.8540010246231927,-2.156740569984046,0.08353661306605677,0.29735075360873514,0.04435378773218548,-0.11379090449704218,-0.06972234587425932,2.390625
-0.003319756584688577,0.024309005278548283,0.01923006209269031,-0.08757981709291546,-0.0029769451353295687,-0.003608888398592646,-0.001828194587009046,0.016185427497166192,0.03957064327890303,-0.0015674169804172496,-0.004861651817013193,-0.0008243147639525511,0.0024280005595546674,0.0017381441027710294,2.3984375
-0.11025403890135044,0.9508400577876552,0.6955913275787969,-3.200061176742915,-0.12875660330803435,-0.09118329251913815,-0.08161106800100297,0.6050237996132247,1.52731670410555,-0.059218898204936185,-0.209502767900376,-0.031423883535200745,0.08108422881274782,0.05015896999851658,2.40625
-0.02758609575221888,0.23593240008004918,0.17258298794887258,-0.7925015169384562,-0.031345156673138606,-0.023585304338612837,-0.019856744571294657,0.1491016057431466,0.3781189568143797,-0.014689702332044443,-0.051365105816200005,-0.007767878871465451,0.020199617408100192,0.012783138180792639,2.4140625
0.08701548252497253,-0.7568115793975119,-0.552881882658812,2.5470566577571576,0.10361432975559079,0.07018043253003703,0.06574893218004137,-0.4826523728993452,-1.2156136068478516,0.04709581037592408,0.16794889749957412,0.025041469391340596,-0.06420479966827104,-0.03908648236565506,2.421875
0.09618972302694821,-0.8379087884835322,-0.6114669020041341,2.8172917044876074,0.11444427327651711,0.07771034927000182,0.07263187976424426,-0.5333406181418379,-1.3431795003912699,0.05209070260248261,0.18561448596713037,0.027682020821972676,-0.07104037913317857,-0.043277866970523916,2.4296875
0.043486974349709,-0.38230856564413523,-0.2781370456033895,1.2830564500243422,0.05245462255018083,0.03461533737423904,0.03329497896768901,-0.24306328438782435,-0.6098530948641723,0.023700636085508896,0.0848317445516738,0.01259681923607597,-0.0323200381190456,-0.019439346284677413,2.4375
-0.035355637988913946,0.3013917880110427,0.2207869965339323,-1.0137729819108159,-0.040293949256493565,-0.029894735753303064,-0.025532965815989253,0.19118321855908363,0.48732550563496824,-0.018825399115323393,-0.06609899338776747,-0.009979246416582871,0.025683328982531495,0.016272182680445675,2.4453125
-0.14952854061580748,1.2910971556605824,0.9431349977379254,-4.337844432601861,-0.17465957582782501,-0.1233295750595498,-0.11072781957856431,0.8202038044915863,2.075487703400475,-0.08037988546817643,-0.28465092250766366,-0.042655840161806374,0.1097251929037358,0.06795908313201184,2.453125
-0.1951314891394112,1.686038436340618,1.2320813999207005,-5.665619881919579,-0.22835815762003034,-0.16063760928644938,-0.14483693806925801,1.0717300089230464,2.7090024563595003,-0.1049461474994274,-0.37189424294547213,-0.0557042752499509,0.14334519153567526,0.08857142597306532,2.4609375
-0.05252164322737922,0.45122635213410844,0.33107742199667384,-1.5171104038559247,-0.06058144396361777,-0.04393586589594242,-0.03856033565666552,0.2864736107154686,0.724516550530592,-0.028102195032051133,-0.09896312113333114,-0.014909453596335517,0.03851288756009977,0.024015464623025534,2.46875
0.16302183174568952,-1.4144340190483284,-1.0313750948036466,4.752919326885031,0.19298307692713457,0.13240320437396194,0.12220366842991572,-0.9007657337169209,-2.2735191168422104,0.08801114498838378,0.31345033350389606,0.046740316763368865,-0.11997334421442316,-0.0734979133900439,2.4765625
0.2168569631528656,-1.8799540352992987,-1.3717889819361786,6.3179456725331535,0.2562723383108095,0.17639596354694864,0.16240578816615453,-1.197493355249039,-3.0218209690882607,0.11701753495002305,0.41641434892329093,0.0621292460308392,-0.1595259720885671,-0.09781660174447158,2.484375
0.10272608414794016,-0.8917285237173774,-0.6503458237978839,2.9966761222157765,0.12202393358734012,0.08298603162641816,0.07728728234021166,-0.5690985888128587,-1.4343374059172163,0.05556748596039757,0.19805399244167562,0.029482049398687638,-0.07556984384396559,-0.04615420690863818,2.4921875
0.017124415836145827,-0.15100307188349504,-0.10940211354432954,0.5063621129322209,0.021373950719538765,0.012985990715144346,0.013421393039948017,-0.09762652765817062,-0.24390533817646692,0.009461895014271355,0.0343192332470478,0.005007204871771077,-0.01264520971182174,-0.007429261929765474,2.5
0.016408773691366507,-0.14566879347013792,-0.1054463599547368,0.4863860797444295,0.020456815680905353,0.012475480233620129,0.012922359872147123,-0.09329305805016078,-0.23364725849802495,0.009032859251532122,0.03294011633599531,0.0048132907525589895,-0.012172663835131691,-0.007126922012445674,2.5078125
-0.028119998558270347,0.23892989952556318,0.1754679583054286,-0.8081325730813568,-0.03210159873566814,-0.02391375328929147,-0.020217106504685337,0.15246137474274796,0.3860744351544175,-0.014980685034421045,-0.052348174039102,-0.007916488088560745,0.02054695068710021,0.01299704909642295,2.515625
-0.14244393149038986,1.2284342411104063,0.8980373412296191,-4.1335328374291835,-0.16664772019233062,-0.11747684964681714,-0.10547234426854678,0.7821949795309177,1.9759032571653647,-0.07653295202671706,-0.2711650936484138,-0.04060744757644962,0.10462541155071525,0.06471147921002382,2.5234375
-0.18955205577676512,1.6364536222649206,1.1959553118041806,-5.503939469976493,-0.2219750403852163,-0.1560790853350865,-0.14066878110695072,1.0413371568214178,2.6307295796343633,-0.10188882550157485,-0.361289060576212,-0.054072223110890105,0.13926585635628153,0.08603181908968974,2.53125
-0.11482140134887507,0.989385303601817,0.723602511032523,-3.3301069560149887,-0.13400382749740442,-0.09495808524413156,-0.08497591325362203,0.6296146198582944,1.5915673849818242,-0.06167707555629061,-0.21824688872575823,-0.032699346710826666,0.08428476369086643,0.052229402172175206,2.5390625
-0.014801993462038143,0.12345596223220796,0.09152541930538345,-0.42033418281000456,-0.016345265048201968,-0.013089898223293926,-0.010351239520185726,0.0788887994763088,0.2007591534368695,-0.007839102670884553,-0.026844104994824328,-0.004107998071287165,0.010709228127671227,0.006969444501951446,2.546875
0.04299228684732179,-0.3762530403649565,-0.2733581808448032,1.2618024776931678,0.05169940594937505,0.034229295065486075,0.032800171156668084,-0.2394773344257842,-0.6032776241378618,0.023326032224476472,0.08375322625384896,0.012403995815572829,-0.03179503550560249,-0.019194563158762265,2.5546875
0.06839116092205125,-0.5955495901262745,-0.4336909870300998,2.0018168029358065,0.08168171530805683,0.05499174119446385,0.05174865376161763,-0.37973551653390286,-0.9566644368998184,0.03706641565992854,0.13239802850702473,0.019663682501813752,-0.05046257392786491,-0.030684251375071928,2.5625
0.057764343540456606,-0.5035830434088095,-0.3668257578038071,1.6931396040335744,0.0692256735279867,0.04626035843683438,0.04380523518310382,-0.32148833973766805,-0.8084836639717565,0.03135240614976196,0.11210695500982627,0.016635038521994862,-0.04263001538597845,-0.02585105722239818,2.5703125
0.03566514756940218,-0.31196113773653233,-0.22744043911324788,1.0504337117277547,0.04324367574434777,0.028191429338935647,0.027340202059852034,-0.1998514268644964,-0.5009787061723169,0.019424768530900763,0.0698016030268915,0.010327598182202264,-0.026365364797126034,-0.015832256441076286,2.578125
0.08547498897902713,-0.7421148798217384,-0.5421878492562638,2.5005613910331674,0.10189664037646454,0.06899943488203718,0.06454029514829349,-0.47432325038827905,-1.194224700710151,0.046255595974364544,0.16506416221587492,0.024577966953353462,-0.06300344647073404,-0.038377466993709676,2.5859375
0.16923410911156808,-1.4668104271414897,-1.0714609478180463,4.9380750017768,0.20044939723796887,0.13754601649271941,0.12702028344538846,-0.9357655137575492,-2.35944472682457,0.09139701501505272,0.3253182560389714,0.04853277995097472,-0.12460635127134805,-0.07629063052827041,2.59375
0.10451170697417442,-0.9073880114158527,-0.662347318555881,3.052885815962626,0.12418403976482842,0.08454065610539933,0.07867599467935339,-0.5790181526849248,-1.4588961434121057,0.056530016576635846,0.2014559819430071,0.030019764215726993,-0.07696631628947845,-0.04699515660155187,2.6015625
-0.10185280025190853,0.8781253039393947,0.6421554784233888,-2.9552254776546696,-0.11877830736744596,-0.08434433483505145,-0.07532023884254287,0.5581912426240041,1.4116273944901887,-0.054674646589914534,-0.19345566528093006,-0.02901185791372213,0.07485851374322254,0.04639887680972083,2.609375
-0.1727216482993774,1.4909953503770221,1.0901411330238155,-5.018334524974248,-0.20222912600925533,-0.14230688235893754,-0.12816890001739756,0.9488681570169527,2.397117551929613,-0.09287483356914718,-0.3290359370274752,-0.04929452200289544,0.12695011946867304,0.078447741945186,2.6171875
-0.018123187307706137,0.15150131287517016,0.11250521642160943,-0.5164873607162254,-0.020253111319219592,-0.015806175189275656,-0.012784028849500568,0.09714993221402675,0.24640251891995069,-0.009553489233053245,-0.03310909787264624,-0.005070677798820571,0.01311740987821393,0.008441698563853798,2.625
0.07592098771903218,-0.6637808204915018,-0.48240226189570357,2.2240090095829235,0.09054886947033607,0.06107059787116497,0.05739342511876658,-0.4212115847633966,-1.062192432207164,0.04117334645374406,0.14687246730163084,0.02185676124451974,-0.056158229607903565,-0.034144688949850566,2.6328125
-0.04963204305794398,0.4236339049637412,0.31153311304105263,-1.4299459217463923,-0.05713398523711724,-0.041723729687906316,-0.03629660744807532,0.2703390280780943,0.6838793293533858,-0.026462072428106827,-0.09350521856734742,-0.014042116636519022,0.03621988298226442,0.02268963059428332,2.640625
-0.14990192318224133,1.2936429183500855,0.9461746357907537,-4.352767392377752,-0.17528880743774303,-0.12372566881675204,-0.11113710470625991,0.8230159012416347,2.079461581314508,-0.08055672480652071,-0.28551137619335454,-0.04275203656473976,0.11012786882654309,0.06812081565292301,2.6484375
-0.057472219188701636,0.4950851851750965,0.36236624777714826,-1.6677670333561343,-0.06675827005767523,-0.04800386319780724,-0.04221824148071179,0.31414891655505073,0.7954592893128316,-0.03083917841774228,-0.10862136323520351,-0.016350762796723744,0.04230374331342793,0.026352719300097277,2.65625
0.02142936586545054,-0.18749032363284804,-0.13645403034230705,0.6281801955781033,0.026103416365891613,0.016607845934916852,0.016614445286633115,-0.12068737836990318,-0.30172884590007415,0.011651868211498244,0.042503730840329774,0.006218972502576786,-0.015688988518541058,-0.00933632868777064,2.6640625
-0.04506221916730939,0.38786796586715605,0.2835632073401901,-1.3025429160226916,-0.0518718909729104,-0.037759237447488325,-0.032973562315379436,0.24514859277722806,0.6214721313756565,-0.024138545740370856,-0.08461802169089794,-0.012772277750564014,0.03311369763378239,0.020702196412029666,2.671875
-0.05446905400146312,0.4684428360837484,0.3424024660550217,-1.5713294841378558,-0.06275296315900693,-0.04538868784769132,-0.039905697516285296,0.2968341884263745,0.7507703602001595,-0.029155069588913854,-0.10260792910673101,-0.01544360801389565,0.03987700622148895,0.02487960405101678,2.6796875
0.08896086518109683,-0.7742032795453837,-0.5649854969043392,2.604848113292108,0.10599642439834941,0.07198146256109891,0.06717446352831019,-0.4931273196069141,-1.2441343297047098,0.04816716714322823,0.17180177782432754,0.025586741060755737,-0.06569316485256901,-0.040055909189526846,2.6875
0.15835863059593586,-1.3749461363099929,-1.0035536401337746,4.623146455604925,0.18760909996958705,0.12863968350261729,0.11892147703027676,-0.8754435411503447,-2.2083944186920696,0.08555598068227363,0.3045542502619278,0.045430632618590906,-0.11669633408836627,-0.07141374977654875,2.6953125
0.05247315887767231,-0.4574083536567156,-0.3332761113261216,1.5394155507556893,0.06303939228991556,0.04184149453802373,0.03984966080556422,-0.2923677360124681,-0.7347955782023314,0.028452784994999324,0.1019147683678334,0.015126504788227762,-0.03875794399166754,-0.023437436151613412,2.703125
-0.01107193208562057,0.09294605748622241,0.06875653253410184,-0.3107132071514675,-0.011773517797919108,-0.010185549779012485,-0.007554571376279793,0.05767077053798376,0.14945448527611985,-0.0058107281721900324,-0.01972631305396691,-0.003061576832186073,0.007982644509246906,0.005329596120665403,2.7109375
0.06892819019933745,-0.6002441948961869,-0.4376340270981482,2.0170625427461877,0.08221958034839476,0.05535893985271936,0.05219333574443537,-0.38276503005138,-0.9634322388483311,0.03734600531599074,0.1332795822245486,0.019831374261461462,-0.05085358515663424,-0.030892585038925974,2.71875
0.09242604061916583,-0.8040000152505469,-0.586506411835861,2.6987857500700696,0.10977584075003753,0.0746493076098172,0.06970040938737264,-0.5119507533278775,-1.2908266525239482,0.05006083578520106,0.1782029331088178,0.026567948801885108,-0.06806515442138082,-0.041526511546765336,2.7265625
-0.03808223124816304,0.3257896289906634,0.2390326893789533,-1.1015000995832445,-0.043786463283784716,-0.032157494065902036,-0.027777860896530535,0.20710623941105757,0.5243262351071847,-0.020279311728562704,-0.07148366094462252,-0.010762797773997596,0.02799286798546726,0.017547964262112387,2.734375
-0.12273960109568602,1.058013892385106,0.7743082621505532,-3.563600655983498,-0.14339366471807824,-0.10146318267554243,-0.09094921931537063,0.6734530984544744,1.7024523762995067,-0.06592767185549027,-0.23339788477161258,-0.03498186507544344,0.0902190687839,0.055848899844191495,2.7421875
-0.024931672758643334,0.21041273796750656,0.1552145859419328,-0.7122233863491555,-0.02829329176935054,-0.021413397326680947,-0.01782456324630873,0.1344488802787741,0.34223761965990146,-0.013192208806812551,-0.046174656188237156,-0.006999600318229692,0.01816058206885274,0.011546958205267887,2.75
0.0825036714026456,-0.7195733508089307,-0.5242958913178366,2.4174211839425466,0.09821161777842595,0.06655204862370327,0.06244734631928545,-0.4576588232262849,-1.152990403376675,0.044742196271450284,0.15947540320559814,0.02372926137683015,-0.060933325552002295,-0.03711050714330105,2.7578125
-0.0024261994457145638,0.01658942823834785,0.013455629690456316,-0.05611069661373883,-0.00162644666530123,-0.002911412171812123,-0.0010122770166582542,0.010222897289492015,0.027261326487533086,-0.0010594957353384918,-0.0029932918803451257,-0.0005790106729511456,0.0015714141820044553,0.0013138952793436247,2.765625
-0.18496493840732445,1.5978514062436364,1.1684410242838426,-5.3729290302679695,-0.21641263345020406,-0.1522927381724565,-0.13739836180068282,1.016077600792567,2.5660425263630984,-0.09950932152306757,-0.3523490797082791,-0.05279937170156094,0.13592904562673191,0.0839475154862865,2.7734375
-0.21105702783324365,1.8246932609578803,1.3336275380326432,-6.1356124396834355,-0.2471296726301567,-0.17366655817235901,-0.1569339493829554,1.1598442027717373,2.929479433436068,-0.11361400183999583,-0.402393991061139,-0.060259118468416084,0.15516858873841113,0.0958059234084689,2.78125
-0.042730819923017124,0.3678833467502373,0.26909102758491715,-1.2367314666684885,-0.04899911698793779,-0.03592162538704887,-0.031243703181136173,0.23220826745793952,0.5888545660982238,-0.022891671223591085,-0.08028880538138654,-0.012114487795224083,0.031300469397546424,0.019662839997549874,2.7890625
0.10561457951979433,-0.9172365765862346,-0.6694213321707309,3.0842508460307987,0.1255949005162945,0.08548426655259037,0.0795679205807619,-0.5851849922127521,-1.4739841429785232,0.05708417575701424,0.20368154339336186,0.030317240600014537,-0.07791092833341218,-0.04748986282188381,2.796875
0.10900072650976467,-0.9477104724606356,-0.6914893860304532,3.186825052969922,0.12947450460108914,0.0882404643087001,0.08214014375652581,-0.6035645607940073,-1.5208983684650201,0.05894206698288695,0.21012525267901747,0.031308101881875855,-0.08040927375181331,-0.04906049115120533,2.8046875
0.07964204528508075,-0.6932975531694842,-0.5059801911557457,2.332421718870356,0.09478955934010704,0.06417333276165714,0.06020304480158923,-0.44159034233293465,-1.1126562367987198,0.043139152103233706,0.15374558871223243,0.02293553879955474,-0.05872053119511209,-0.035769332559869,2.8125
0.1042775746923299,-0.9056794290610937,-0.661258360975987,3.04597214320859,0.12374305988197867,0.08430362253998065,0.0785293100522723,-0.5774171849986467,-1.4553436566157654,0.0564019408323123,0.20080250158958715,0.02997739351994019,-0.07677015651532239,-0.046880639160814946,2.8203125
0.09273582554017754,-0.8062482969833117,-0.5880584502307954,2.70795776049628,0.11015635312238925,0.07487337956013827,0.06987854565933145,-0.5138383825673573,-1.2948025366564029,0.050157074743126355,0.17885707371805118,0.026653537794569495,-0.06828673544105426,-0.041656334958976644,2.828125
0.0016418364361027468,-0.018903004536518254,-0.012341558317024565,0.056988643431396376,0.0028933627025539963,0.00037607443095773543,0.0018923372776855564,-0.011570650770442692,-0.02817416923172228,0.0010685911219766304,0.004678367503390116,0.0005841822684874038,-0.0012713467512780708,-0.0004710882346038453,2.8359375
-0.056717113571701394,0.4864530068505845,0.3568371149215985,-1.6425880817368927,-0.06581054253292684,-0.04735043133309589,-0.04166881529158533,0.31026245591931084,0.783020703797609,-0.030366602876154877,-0.10700044087361169,-0.01612093587283308,0.04172122437203651,0.025930559990014118,2.84375
-0.03492240913102579,0.2990784251512013,0.21979689621391832,-1.0103592939017758,-0.04003415597608262,-0.02954150501221937,-0.025424499240748438,0.18986051897285136,0.47999367454432135,-0.018639006826618332,-0.06530365807291413,-0.009905603455322608,0.02569288502250079,0.016105019957203252,2.8515625
-0.020683911223470294,0.17629888101363717,0.12990554029561796,-0.5937628454601428,-0.02307203385037629,-0.01794582534676558,-0.01477376110629662,0.11073319839013919,0.2823875050570009,-0.010989479487686945,-0.038014716971790374,-0.005826453321446415,0.015091780535739141,0.009674599090992216,2.859375
-0.04340975712566048,0.3724225733187472,0.2726731445725063,-1.248540863719358,-0.0496811718109119,-0.0365667868036264,-0.031643697473544466,0.23552284593862766,0.5982843494692383,-0.023193404366258212,-0.08151843589475329,-0.012283855413093571,0.03166970581950283,0.01991823168132364,2.8671875
-0.05617243493590336,0.4822579079084845,0.3525723348605139,-1.6160041309566284,-0.06466531501243497,-0.04699442887565713,-0.04109133575363165,0.3057698532983152,0.7752877533844845,-0.029979637385745744,-0.10597741016196377,-0.015905779081230358,0.04102561670836793,0.025659044494982356,2.875
-0.06319348487613544,0.5424942543377506,0.3970707447813654,-1.822480977476069,-0.07296522813911555,-0.05271750980148311,-0.04632641589426291,0.34452596171062244,0.873264452441249,-0.0337306323631726,-0.11934467440632504,-0.017935123558761576,0.046212254099169056,0.02884608228829459,2.8828125
-0.051134097892194356,0.43754391518508445,0.3210624334874888,-1.4749898879270384,-0.058898742687124396,-0.042810426061019154,-0.03734626312658804,0.2783645638295371,0.7065156993983674,-0.027287453181725728,-0.09621688065925674,-0.014512336027636028,0.03733770549636724,0.023405903417113398,2.890625
0.04878117464786373,-0.4272720351585939,-0.3109573721090682,1.4320541122749226,0.058501164536588574,0.03902308708227688,0.03722005147451917,-0.27164506455188636,-0.6827982324093923,0.026504202031817338,0.09484448986835103,0.014082107066609693,-0.03614164541522184,-0.02181060116294005,2.8984375
0.15309069931744584,-1.3293134109650275,-0.9705806995072706,4.467073008373323,0.18113243205912255,0.12441143039375431,0.11503080764782934,-0.846080445511649,-2.134079297563321,0.08271407435293798,0.2943008727597572,0.04394226459557244,-0.11277004722492878,-0.06900572718948011,2.90625
0.06598801506918783,-0.5745032698790141,-0.41904156201364257,1.928742041460735,0.07861552853532663,0.05306027704815019,0.049913960140433075,-0.36626619204963407,-0.9231649452092946,0.03575508122437247,0.12767835332569177,0.01900932978171959,-0.04856696871608696,-0.029561944976470217,2.9140625
-0.12694698352536885,1.095975336367352,0.8019408431765371,-3.689796849608559,-0.14842305009883858,-0.104901633441215,-0.09418510626713444,0.6968015593845983,1.7598122161860048,-0.06828579740555021,-0.24143102139509154,-0.036214787493717704,0.09343102168387155,0.05775531597582684,2.921875
-0.10923999654217427,0.9430327453442164,0.6903480328511864,-3.174772523363595,-0.1276022347613423,-0.09038765683054974,-0.08098984376955491,0.5996608104942449,1.5130010914219947,-0.05878276245088489,-0.20764384207891726,-0.03115456397159439,0.08041239438175778,0.049722225518730734,2.9296875
0.10455305621887453,-0.9074615804564901,-0.6617561254121659,3.049773222647471,0.12403644354981797,0.08459661276775082,0.07861739203809548,-0.57820708696772,-1.4605011918761734,0.056465836128784294,0.20137464547433667,0.030017381316697043,-0.07690566715881313,-0.047032864980992434,2.9375
0.15088975767290488,-1.3089710337221938,-0.9551320207105495,4.401467130038079,0.1787419019444209,0.12242951500883556,0.1132586688919825,-0.8342775586876495,-2.104029482483865,0.0814840293052054,0.29018219227717246,0.04327399905746372,-0.11109676487671136,-0.06798012697228069,2.9453125
-0.045722754186836204,0.3924123245645543,0.28759883153550136,-1.317859559691249,-0.05243629613025624,-0.03854932603738069,-0.03341615912705771,0.24814268791375457,0.6312339680847756,-0.024457180542200016,-0.08586098959996719,-0.012970792356605684,0.03342811816020194,0.021004105851826046,2.953125
-0.16058856306542996,1.3864332301097924,1.0132131859180595,-4.6592448483711,-0.1875737453867443,-0.13245648681901004,-0.11907930862705694,0.8810185982260217,2.2284074664191973,-0.08634249114149775,-0.30565922050943223,-0.04581204114895825,0.11789524208501273,0.0729596289045815,2.9609375
-0.0632212446194107,0.5431167354403714,0.3970492523615028,-1.8257321733440963,-0.07312653984178358,-0.05261188501694122,-0.046380075173416,0.34517024289432685,0.873725042367813,-0.03383731189394043,-0.11940791322729886,-0.017942282353207644,0.04629728236087992,0.028865880695027258,2.96875
0.029161085018863768,-0.25729936056414104,-0.187008335196705,0.8617643863970456,0.0354599783652716,0.023017136047019198,0.022560867296601225,-0.16350045750447362,-0.4107002741903046,0.01596339465921596,0.057402425910212274,0.008473990411683422,-0.021658135486199895,-0.012947478734564383,2.9765625
0.026926329860845335,-0.2380925920059192,-0.17263631066568416,0.7961799831946633,0.03283819850255391,0.02111868056198356,0.020892159873922008,-0.15137553409691415,-0.37932426702359323,0.014762628502767492,0.05317828408517833,0.00781635570178891,-0.020035217506696328,-0.011927069598166447,2.984375
0.06172093863417458,-0.5386750490091433,-0.39272274009430247,1.8087525800265436,0.07384857247083126,0.049576629322438656,0.04686706256132532,-0.3432842701547203,-0.8639862960651575,0.03353543330786212,0.11971267137463686,0.01777458424341233,-0.04560627098037554,-0.027663782512809165,2.9921875
0.11534097776928748,-1.0023023803926308,-0.7317067079640366,3.3685675969095694,0.1369228758180681,0.09344536040777807,0.08684791070496926,-0.6386117280097069,-1.6101556596977034,0.062430318254506734,0.22220005618190355,0.033127997626187115,-0.08498075986465509,-0.051914513642645,3.0
0.046875329417067964,-0.4093469398655642,-0.29809121566199803,1.3751118899641777,0.05626012553149879,0.03730718702796996,0.03567788645701928,-0.26117498800381245,-0.6570685820981274,0.025465054497165327,0.0910591868995551,0.01354048551639956,-0.03457288689436056,-0.020912340415711606,3.0078125
-0.07193582444011323,0.6197472901529871,0.4539027302541913,-2.0823939250092938,-0.08357506946781514,-0.06001539074586385,-0.05302232996963193,0.3934883427755419,0.9959565985782965,-0.03862746546483274,-0.13639005896232761,-0.02045639620977891,0.05282292584622845,0.03285621439242876,3.015625
-0.07706355082067104,0.6646685195217285,0.4863013683216412,-2.231217726936827,-0.08954338649896179,-0.06414524508775059,-0.056824596043811904,0.42165034880204555,1.0664627046063881,-0.041367391096913626,-0.14619651203808906,-0.021920146991622026,0.05658949372602077,0.03515995942794788,3.0234375
-0.028322821422754347,0.24215821276171606,0.17759640652154018,-0.8145768533917597,-0.032183486877706315,-0.024129195764314847,-0.020446955636171566,0.153132638105154,0.3878783618201246,-0.015047006972878718,-0.052822245885599306,-0.007970670275177158,0.020747569788265315,0.013096855124998101,3.03125
-0.037901754831338674,0.3236720976234841,0.23780874373614477,-1.0961096021562984,-0.0435751019571178,-0.03193382818419368,-0.027624144344926438,0.20619075172020604,0.5216759055356723,-0.020216430940133326,-0.07107018666385304,-0.010714353385637842,0.027791380854349092,0.01744003114856069,3.0390625
-0.014358382745386464,0.1191270614300211,0.08871538553274731,-0.41000919084963244,-0.015949180304014078,-0.012695500852096812,-0.010032880215489986,0.07669581166878818,0.19468054043341274,-0.007557213236563542,-0.02599428874409605,-0.003983358277355066,0.010434343377951766,0.006774933477037261,3.046875
0.09555517772121229,-0.8317814652769592,-0.6064173446420981,2.793177573683483,0.11351271108953896,0.07724595320119954,0.07205504477839664,-0.5291860970081508,-1.3346604996417943,0.05169630844780917,0.18442053896130262,0.027459298483029176,-0.07045977654606851,-0.04299110927441541,3.0546875
0.11182030958061011,-0.9714973645007752,-0.7088621054046059,3.267991570760484,0.13286482711591263,0.09054695520718098,0.0841812160894292,-0.619447507333905,-1.5612388353128364,0.06048282820451776,0.2157052471406388,0.03210050733164598,-0.08242044592826119,-0.0503421751671611,3.0625
-0.04136770356986892,0.35518117009165184,0.2605530445538452,-1.194135158723276,-0.04734763493921323,-0.03483842544039843,-0.03022667434071638,0.2243340256289004,0.5701277304846208,-0.02210729548161626,-0.07739006593963103,-0.011743775548677617,0.03031059639354787,0.0190244749850304,3.0703125
-0.14462512332667166,1.2488776534268198,0.9136131194524719,-4.202439029210126,-0.16900659446186078,-0.1193175520383148,-0.10731286063785123,0.793716781116017,2.0068794281604143,-0.0777869387248598,-0.27514528689420625,-0.04128550882968012,0.1063001381540082,0.06576312776939347,3.078125
-0.07011786150785838,0.6035130338641139,0.4417788545744055,-2.0320977709257755,-0.08145827648104806,-0.05830301647577857,-0.0516438036331991,0.38371477338300947,0.9701869968919031,-0.03761172583144006,-0.1327642180383499,-0.019946998732688792,0.05148155474892845,0.03201313816028015,3.0859375
0.010040267683967,-0.09035980793416801,-0.0655804179317316,0.30417337980067355,0.012927373739835966,0.007259148753430133,0.008229430471084443,-0.05800752566054037,-0.14515234282536582,0.0056043663643928964,0.020577316354200542,0.0030046305693415833,-0.0075191465361555895,-0.0042743762441386345,3.09375
-0.014794801889336075,0.1248692957108687,0.09162760298919756,-0.41722239607005707,-0.01615109730485591,-0.013144972751536565,-0.01029228744286854,0.07841200291329634,0.20033411401504939,-0.007800614527270125,-0.026881371882623295,-0.00409962744123821,0.010704154566528786,0.006980736727858815,3.1015625
-0.008040027712003798,0.0660889300688112,0.04886396914636526,-0.21889958610622318,-0.008139031671702058,-0.007621067652575601,-0.005201982928084397,0.04097579555354564,0.10624084737495942,-0.004144495655438231,-0.013895288305685139,-0.002164608006053694,0.00568091666118378,0.003911227718429897,3.109375
0.09720394101054113,-0.8457387084442348,-0.6173215768961231,2.8466553900977867,0.11567147227136551,0.07856998156801843,0.07340832165900574,-0.5388795503371334,-1.3580040376889595,0.05264816276796406,0.1875170143606514,0.02796007236853069,-0.07176171104632373,-0.0437499934385169,3.1171875
0.15137024338312982,-1.3148388097175079,-0.960183753694779,4.421546026178041,0.17933819896808925,0.1229231954733492,0.1138087773127912,-0.837285227868678,-2.111157950654683,0.08186785104446297,0.29117042827221346,0.04345827908493813,-0.11154959176138196,-0.06824425862099831,3.125
0.06384226268355857,-0.556513543993991,-0.4059967571449972,1.867564651416786,0.07625087790162051,0.05127608121636855,0.0483778426457207,-0.3549482576160142,-0.8928993175012684,0.034634572130823514,0.12368465207773448,0.01838704964532036,-0.047061915298794305,-0.028573054941364674,3.1328125
-0.0574667469851514,0.4941138048615924,0.36212642872673095,-1.6677426416391419,-0.06656300563875535,-0.047994190354526525,-0.04223538258598456,0.3136122069707086,0.7945083057216221,-0.030795680504511196,-0.10843951968208769,-0.016350258999252507,0.04221979290087948,0.026337452844663975,3.140625
-0.09353696296249144,0.8062460260306382,0.5906322653602878,-2.7163583479338844,-0.10900574540329175,-0.0775103322743286,-0.0691786425511011,0.512575018868393,1.2953819144165089,-0.05022432704700154,-0.17750212483477415,-0.026665630801808223,0.06873439717000827,0.0426153125621608,3.1484375
-0.043243109630593926,0.370744851459984,0.2724893259292431,-1.2497504992044817,-0.049824250994984796,-0.0364120189118924,-0.031670343444201284,0.23575552460046734,0.5955106760003154,-0.023116717130379626,-0.08140047759965961,-0.012248130859803577,0.03173839511200912,0.019834847088731532,3.15625
0.024340591468488503,-0.2142860170106661,-0.15510500576563457,0.7178477844718645,0.02962303947276659,0.0188303420412543,0.018751655973423736,-0.13634025376024245,-0.3436312924367472,0.01327531463412788,0.047792929215882005,0.00710335869039803,-0.017948576175373494,-0.010723797177562415,3.1640625
