AF3,AF4,F3,F4,F7,F8,FC5,FC6,O1,O2,P7,P8,T7,T8,time
0.3791891682392558,-0.023056589647258555,-0.10076583129972935,-0.07566901756576279,0.002459035130834606,-0.043936238571364826,-0.007106649864969311,1.5033345650138745,0.04679749686373192,-1.9273585053656919,0.07752625099660888,0.02000169239648307,-0.031910294651771476,0.18060738971208262,0.0
0.29894345491789104,-0.018237591729268615,-0.07956150925836117,-0.059680240676089506,0.0017812522088932316,-0.034375628085280406,-0.005503854578749169,1.1849254522056576,0.0369510784960289,-1.5190490292185768,0.061116704520688375,0.01566985920894512,-0.025113488510296208,0.14219713342702564,0.0078125
0.04003686913507651,-0.0026929381994308392,-0.011159447917878495,-0.008105994825261791,-0.00040429659537851185,-0.003538927758849511,-0.00033430601938347603,0.15759324350131163,0.005183783958607316,-0.20166209986292008,0.008189085581880574,0.0016964738096960192,-0.0031898669126707436,0.018298151103078135,0.015625
-0.20577020309626154,0.012063863387774232,0.05377989323184566,0.04085633525106086,-0.002478925772573243,0.025733162666661043,0.004573016507536213,-0.8176923514257789,-0.024976524965935394,1.049097778120544,-0.0420550046707387,-0.01156836626559441,0.017623442934368128,-0.09932695558763559,0.0234375
-0.2300582056412045,0.013520946102090935,0.060194547073866456,0.045694544917358124,-0.0026836767335378557,0.02862212394041195,0.0050575248803937465,-0.913932194632383,-0.02795660616006325,1.1726835132740516,-0.047015007150087176,-0.012877502611707425,0.019679629551765172,-0.11094834854769595,0.03125
-0.07950710623346118,0.0044818500474290215,0.02041231274588285,0.015703106603461404,-0.0014125510896230925,0.010691035189002399,0.0020515768577003116,-0.31645372515912173,-0.009481767439659212,0.40652369068838856,-0.016235778175931782,-0.004751152015938637,0.00693037123458339,-0.03889188131278122,0.0390625
0.038246927558378656,-0.0025877569028650237,-0.010709476880953823,-0.007760851958566928,-0.00041816934274939096,-0.003332328861421188,-0.0002995357991873398,0.15077695086044407,0.004970697065783093,-0.1928123448908974,0.007837604742224502,0.001604691572436596,-0.003043000488361464,0.017485699896097797,0.046875
0.0033043277869957014,-0.0004895988140059241,-0.0014794489303189327,-0.0008025511406644584,-0.0007131103708526765,0.0008298033913232026,0.00039804650238208476,0.01204580433228473,0.0006841458471308612,-0.014994086699578506,0.0006923637463760471,-0.0002815091534222069,-8.433776857212951e-05,0.0007771573370438622,0.0546875
-0.10133157998151446,0.005792962826883902,0.02618004638925495,0.020052570725130364,-0.0015970426326562988,0.013292320281127363,0.0024874709204441513,-0.4032143481990172,-0.012158879712649886,0.5176893349900211,-0.020704654516110064,-0.005930664259602473,0.008780121878703357,-0.049320929828299824,0.0625
-0.09460305193696555,0.005388689475518097,0.024416368296085015,0.018724247891216274,-0.0015409238824520952,0.012491629079766513,0.0023536324636415887,-0.37655451748573937,-0.011336847771343615,0.4836250034220324,-0.019334066182672104,-0.0055695633475065275,0.008214287650840289,-0.04613550525214465,0.0703125
0.04294673497382026,-0.0028708234149111647,-0.011929135765388716,-0.008679153050633938,-0.0003797009683161839,-0.003890771029280365,-0.00039254646359521985,0.1692274139779737,0.005542667237546039,-0.21641633638444963,0.008787667745489752,0.001854070389958797,-0.0034344409786587556,0.019684752796671687,0.078125
0.1095775758814171,-0.006871487230861389,-0.02954768544571129,-0.021962162500888116,0.00018336546236273735,-0.011827103080324185,-0.0017232223494714235,0.4336562854351379,0.013722732211100853,-0.5556316503856679,0.02241513509353087,0.005451786907742955,-0.009080317420678193,0.05158831502558289,0.0859375
-0.005032567660919636,1.1455261638623191e-05,0.0007281245852593983,0.0008678587689901117,-0.0007838387905056639,0.001824111643395965,0.0005647859829046634,-0.021039309541534806,-0.00033887662447245584,0.027638882969887663,-0.0010121093148025282,-0.0007329085366052354,0.0006240885255058997,-0.003253063130869781,0.09375
-0.11871106763641151,0.006838214731685394,0.030769287411227836,0.02351824429812935,-0.0017436354849774177,0.01536546682459653,0.0028344516871183154,-0.47208749922332705,-0.014289283154274643,0.6062355925514029,-0.024252703420766915,-0.006868744342419188,0.010251974833104773,-0.057662610024372146,0.1015625
-0.04875944007684053,0.002637089650508218,0.012294143017798877,0.009583078126044262,-0.0011533476925354024,0.007034462313964935,0.0014378474498631872,-0.19457982970141754,-0.005707913282771751,0.25020161658103335,-0.009953536408383154,-0.0030940636704636882,0.004328792305349573,-0.02419095275514292,0.109375
0.0859026870625398,-0.005450670946105616,-0.023282020971073715,-0.01724587775622367,-1.6716302501546636e-05,-0.009005583291289134,-0.001250711549958686,0.33969646404778236,0.010814667251980952,-0.4352379225957403,0.01757507896824355,0.0041735783521325235,-0.007075044647747038,0.04025172648672833,0.1171875
0.07959425636448565,-0.005072490141291449,-0.021613636333895812,-0.015987887152853895,-7.010688346236553e-05,-0.00825444586221204,-0.0011245541733394618,0.31467836050864867,0.010040375719631784,-0.4031871095764281,0.01628432719814223,0.003832876627312129,-0.006540338186067272,0.03722478775595577,0.125
-0.023270168208226003,0.0011056160169961953,0.005563856128025961,0.004506007128656834,-0.0009384502901400943,0.0039987717756419456,0.000929302355191694,-0.09344896153660132,-0.002581691284708785,0.12035755536936596,-0.00474529675543463,-0.001719021837057931,0.0021706423471822963,-0.012007654691120707,0.1328125
-0.03692786034824093,0.0019277000476001411,0.009168941342777166,0.007223917597094949,-0.0010535185488737575,0.005625782156842443,0.0012017547439452186,-0.14766888652424293,-0.004258749430264582,0.1899497592721834,-0.007537952579486118,-0.0024557381520370148,0.00332571181996088,-0.018530633050791903,0.140625
0.05111441901350817,-0.003358258699391967,-0.014095646088882268,-0.010319672830650866,-0.0003101112670993758,-0.004862838941209859,-0.0005563254709594213,0.20162144043051325,0.006542766601554619,-0.2580501437084895,0.01045903310155279,0.0022967492197807577,-0.004131273109377081,0.023627313834401455,0.1484375
0.10404974610094712,-0.006537431139957614,-0.028082162619732648,-0.020865635162512552,0.00013671226192278445,-0.01116972647185186,-0.0016131463823195373,0.4116733956879421,0.01303844431022593,-0.5274398745622916,0.021279246494773016,0.0051541709248306465,-0.008613417345480264,0.0489730594910106,0.15625
0.09699894404262274,-0.006114587061337733,-0.026220131742056587,-0.01945934539018772,7.711118301926451e-05,-0.010329869169924873,-0.0014721571200932897,0.3837569115195826,0.012175319969168454,-0.4915731225811901,0.019838986932088718,0.004773838734910633,-0.008015204608569316,0.04559474374316271,0.1640625
0.09709645954683145,-0.006120474576806606,-0.02624816115158109,-0.01947869337142834,7.79791071456152e-05,-0.01034156490850853,-0.0014740563971573425,0.3841602439150642,0.01218812000376468,-0.49204548765014205,0.01986147351223772,0.004779374031537042,-0.008023403789918391,0.04563418085447454,0.171875
0.034742995156603305,-0.002376819124932865,-0.009775134894293994,-0.007057675930212728,-0.00044827824156330195,-0.002915752930217542,-0.0002292129076331788,0.13672733979107385,0.004536883604365232,-0.17472501457853898,0.007116598269518005,0.0014142358880113318,-0.0027439356789338743,0.015790257509183184,0.1796875
-0.1760714389078521,0.010280650396985985,0.04592480402444899,0.03494140149775545,-0.002227835941193769,0.022194905610827025,0.003979799990068348,-0.6997255200707407,-0.021329383019231003,0.8979932578187986,-0.035978199545630064,-0.009963978555107911,0.015107671268070454,-0.08510709729908486,0.1875
-0.3270579586827927,0.01934634345165499,0.08582061128506009,0.06502535437757985,-0.0035025182412738703,0.04018204997177704,0.006994434424858307,-1.2987705549467625,-0.03985446906267212,1.666258736705896,-0.06684432351744711,-0.01811393327983156,0.027894131096141972,-0.15738109873738332,0.1953125
-0.15512001143567763,0.009023300487765097,0.040399799258580775,0.030778281605676788,-0.0020514434620237726,0.019704608825669757,0.0035618173193469505,-0.6166086300986232,-0.0187593361773497,0.7914067266303079,-0.03170047486331921,-0.008835821658709305,0.013336587369143213,-0.07510971135395625,0.203125
0.134898509456486,-0.008390135653521173,-0.036222721357767315,-0.02699775601428436,0.00039645752393478896,-0.014841208055131934,-0.00222835724743878,0.5340282740536569,0.016824173997609812,-0.684258801021523,0.027582234297313307,0.006816134573077986,-0.011220160907668959,0.06368819739627447,0.2109375
0.1342030012555,-0.008349886997855292,-0.03604712577309615,-0.02686632613922529,0.00039075969114430196,-0.014761798763196351,-0.002214579590910095,0.5313070239941118,0.016742268292320218,-0.680775819204722,0.02744384742899195,0.006780196249860374,-0.011161712329932799,0.06337349742560723,0.21875
-0.04968110109343659,0.0026886976906656413,0.012525009341413172,0.009759426266242969,-0.0011609734357027352,0.007138981989652109,0.001456301410156246,-0.1981620124347131,-0.005814212718414971,0.25470941823958093,-0.010137601181041128,-0.003141930518091126,0.004406935992490531,-0.02461141126464428,0.2265625
-0.004320163539762424,-3.555357698200223e-05,0.0005404104337493131,0.0007238167091323524,-0.0007777583762207707,0.001737104363144016,0.0005502239105960688,-0.018153390686690588,-0.0002479742033406936,0.023771430480183122,-0.0008620372020362607,-0.0006937761752738243,0.0005637038290507479,-0.002901988637647682,0.234375
0.19698083190848667,-0.01211993412501738,-0.05263458338150035,-0.03937380118768831,0.0009214520981955609,-0.02223719100372412,-0.003468966532986863,0.7804503957428447,0.0244455335611243,-1.0004631265353874,0.040283669516666704,0.010168658798773402,-0.016483034065100665,0.09342194125254066,0.2421875
0.1673504867482317,-0.010337530956769335,-0.044800368943791545,-0.03347066841651485,0.0006712290730266987,-0.018705278329749078,-0.0028773285442363,0.6628316777370533,0.020804649772307504,-0.8495584401552302,0.03422282110501663,0.008568712942962534,-0.013974351800023096,0.07923020308953564,0.25
-0.03094075507942214,0.0015698646168676525,0.007588366974232891,0.006029959670962289,-0.0010027340161396778,0.004914066416861463,0.0010817881876504984,-0.12389240207786172,-0.003526604487112011,0.1595000379872508,-0.006312770244188688,-0.002132258482522749,0.0028169289442221417,-0.015666008459702903,0.2578125
-0.06344058836710507,0.003520343693522604,0.016176723229356184,0.012506099277109751,-0.001277386416963796,0.008783485903087683,0.0017310119407511393,-0.2528484047743705,-0.007514594712349291,0.3249095136532077,-0.012958803500874267,-0.0038859159510388377,0.005570550939583956,-0.031212526529654235,0.265625
0.004819535198760429,-0.0005797573438826722,-0.0018551049757772593,-0.0010900456682236643,-0.0007014379070267922,0.0006502027699498137,0.00036859431685608204,0.01793142321015592,0.0008604328398606791,-0.02240943140785158,0.0009921636735283246,-0.00020236169396773462,-0.00020811557545819575,0.0014610202248909246,0.2734375
-0.06365928447789106,0.003530943296123739,0.016230980567507502,0.01254886114212533,-0.0012793104492573944,0.008805103805809027,0.001735909342396928,-0.25373628337290444,-0.007538948017903438,0.3259782538932705,-0.013003543901153271,-0.0038976127119641824,0.005590219635226192,-0.031304674546292995,0.28125
-0.1357607446802937,0.007860038429592844,0.035268673391041276,0.02690730856689172,-0.0018875781057152866,0.017393709175300698,0.0031751947789649326,-0.5397046238341755,-0.01638060844912239,0.692770941911567,-0.0277367223609215,-0.007787452967859927,0.01169449566754182,-0.06580447028004173,0.2890625
-0.020614624294614393,0.0009469515387956967,0.004844249026837616,0.003967767348759911,-0.0009155766635196919,0.0036799987843577344,0.0008760514990713351,-0.08283677062133966,-0.002251435291896895,0.10686295306799562,-0.0041981288262658446,-0.0015727777033411072,0.0019439795607747146,-0.010699722358708984,0.296875
0.09563497360324877,-0.006032490863879829,-0.025860400985184467,-0.019187700163601,6.54460369200655e-05,-0.010166140541209227,-0.001444810985653951,0.37828799183186473,0.012008067116282347,-0.48460482991570747,0.019560082268852676,0.004699736823498631,-0.007899189157877008,0.04492644148429966,0.3046875
0.016649372373017165,-0.0012905549528937407,-0.00498504074927847,-0.0034491125148396894,-0.000601464701994202,-0.0007583611756541092,0.00013244261128563315,0.06483401489151695,0.0023147729715894383,-0.08270634796685612,0.003409745688005755,0.0004354111697529389,-0.0012100160697903456,0.007119936591727499,0.3125
-0.10423549931065278,0.005966338058541359,0.02695203436800179,0.020636690560135628,-0.001621909813389208,0.013640762342533865,0.002546080441289996,-0.4147396648114159,-0.012513706910907802,0.5323697484249807,-0.02130027254367352,-0.006089152079042413,0.00902771689050265,-0.05073675450508299,0.3203125
-0.09564796496403348,0.0054500074719701815,0.024680380680177343,0.01892883651842124,-0.001549395079227777,0.01261830898200097,0.002374387538274398,-0.3805963398036921,-0.011456576063235599,0.48873696115567605,-0.0195404347727495,-0.005625332303773385,0.008301693190601625,-0.04663554990562778,0.328125
-0.020682379817322925,0.0009494527940963718,0.004874101558676632,0.003992899368611091,-0.0009163745696127205,0.0036880682871927198,0.0008771782755455408,-0.08315148271830237,-0.002260590665945397,0.10736644524184956,-0.004211635543438423,-0.001578759020811184,0.0019524355011553563,-0.010765949096177016,0.3359375
0.047592843546152105,-0.003148705980699546,-0.013165227911232362,-0.009613470687752966,-0.0003396613161433527,-0.00444495916418681,-0.00048627518363801987,0.18772395214631282,0.006112957879087422,-0.24008546278782184,0.009747162639369457,0.002106602946888733,-0.003832136076604452,0.021913537130518825,0.34375
0.09343520375809061,-0.005900028791154895,-0.02527944182615201,-0.018748155773369444,4.745640451999489e-05,-0.009903312761141096,-0.0014014269026072631,0.36960312280065893,0.011737776932528992,-0.4734404847338687,0.019116658502672575,0.004580645363762127,-0.007715553174469434,0.04386441561982048,0.3515625
0.046545550452301444,-0.0030841833995719145,-0.012890782866912842,-0.009405746855029092,-0.0003485578585149048,-0.0043159853391553284,-0.0004650552894061385,0.18354442694118234,0.005986006800434187,-0.2348400082500825,0.009528253219094849,0.0020496554632521754,-0.003744109755873694,0.021431501694700403,0.359375
-0.040761661666730946,0.002157331668257523,0.010180776589825526,0.007987456053014123,-0.001085713715591193,0.006081887241073807,0.0012780043939700674,-0.1628822725353007,-0.004727840023643552,0.20945656272217175,-0.008320601762012738,-0.0026622307326384805,0.0036497372628816627,-0.020350019278616457,0.3671875
0.05785799648489113,-0.003765329150046607,-0.01587033588118192,-0.011660600484324607,-0.0002532061302260797,-0.005668369770509147,-0.0006910892769450897,0.2284098414925799,0.007369905505669572,-0.29240842062990396,0.011839603352870223,0.0026606477879360393,-0.004701449280167869,0.026847454621341686,0.375
0.30351543414153886,-0.01851602812086013,-0.08077390319142884,-0.06059975927521135,0.0018203850547921184,-0.034930262449647954,-0.005595555340249877,1.2031150261548809,0.037511615478532094,-1.542475631640536,0.062057048331573945,0.015918918478726566,-0.025502772790578766,0.1444122751792228,0.3828125
0.28824361380086305,-0.017599015956891922,-0.07674325984407492,-0.05755688534927432,0.0016912317502045659,-0.03311016460036297,-0.0052903396605764085,1.1425355356254114,0.0356401817126459,-1.4647283888036695,0.058934930974443064,0.015094846368996979,-0.02420802816608399,0.13710182746031707,0.390625
-0.10916807804337517,0.006262947392540178,0.028248907483592656,0.02161319807007779,-0.001663469465172032,0.014227007732503556,0.002644241719650865,-0.43424108696146724,-0.013119411111787023,0.5575131120464171,-0.022303517112168693,-0.00635302502677797,0.009444415659491242,-0.05308851651595276,0.3984375
-0.4377040413465675,0.025989612123019718,0.11504603055697675,0.08706280010614852,-0.00443653881859957,0.05336063684463115,0.009203617034101436,-1.7377312247554477,-0.05342911269908102,2.2291876164673035,-0.08946281393837388,-0.02408405928330005,0.03726300978977269,-0.21031692915003725,0.40625
-0.35093426621004087,0.020780580287597814,0.09212258436951337,0.06977986336231483,-0.0037041378615122844,0.04302802102388224,0.007471470991876234,-1.393454472563775,-0.04278225933755737,1.7876192765400447,-0.07172772334643808,-0.019401954444402205,0.029915465225261725,-0.1687973772489313,0.4140625
-0.07171320209715584,0.004015856559008317,0.018356046563239165,0.014158053695837277,-0.0013475207135401005,0.009771038208634899,0.0018969786191740834,-0.28564247173388807,-0.008522730453418167,0.36690114952615355,-0.014652658201385407,-0.004333368364118525,0.006273760871333916,-0.035176263135219654,0.421875
0.07890909030094384,-0.005028696065413282,-0.02143705281461919,-0.015848773450650732,-7.614044580926253e-05,-0.00817218751834251,-0.001110447051728544,0.31193238058899025,0.009958049093408404,-0.3994381117459417,0.01613761899672298,0.003795703920880645,-0.006479302203134965,0.03691382315430071,0.4296875
0.11263712358412299,-0.007055042289879493,-0.030351808581110497,-0.022572314213153442,0.00020910496676823914,-0.012193574455584402,-0.0017844513751491915,0.44574985071662004,0.014096734471697717,-0.5710885010960918,0.0230370586089247,0.005616806429413548,-0.009337519845699464,0.05306985723279117,0.4375
0.12256581127860956,-0.007651247386431612,-0.032977637829351314,-0.02455361464068657,0.00029340893695804413,-0.013377742762725634,-0.0019830902256966127,0.4851448278089947,0.015313847726109067,-0.6216540859225225,0.025071839511770264,0.0061531899636907824,-0.010181737025913918,0.0578213767784585,0.4453125
0.07062490910672925,-0.004531376116732343,-0.01924976541386108,-0.014204636378360056,-0.0001452243290777518,-0.007189383622812485,-0.0009459343368188709,0.2790301410405481,0.008937066170885681,-0.3572743087054754,0.014454746718571736,0.0033495903908483744,-0.005784165734973945,0.03294222570435925,0.453125
-0.017341443367617445,0.0007514301762137404,0.003998145100003817,0.003323654391293647,-0.0008882449556981072,0.0032908718919129457,0.0008106059419876749,-0.07000952438007395,-0.0018590013958716491,0.09043886510386379,-0.0035305412708353033,-0.0013986384938158472,0.001666664659076017,-0.00917412395857555,0.4609375
-0.03515754128970132,0.0018211937643916728,0.008704061527588099,0.006873500593072775,-0.001038613456189873,0.005413957343956979,0.0011661993226611469,-0.1406474416973692,-0.004043306693401339,0.18102835515530033,-0.007174758481788468,-0.0023601567895026195,0.0031763333741056665,-0.01769242592533684,0.46875
-0.011841457726448037,0.00042059376401159013,0.002536245876633476,0.0022247953988879356,-0.0008413385350878849,0.002635677935688523,0.0007004236195180223,-0.04805238420553299,-0.001178781024912362,0.06220779990315632,-0.0024074069031767395,-0.0011008823927150075,0.0012006872162322354,-0.006512343705831493,0.4765625
-0.01694790661207526,0.0007265123564759522,0.003881293914453816,0.0032394709329985065,-0.0008842572858847395,0.0032425350912520827,0.0008024590628382618,-0.06827658296296235,-0.0018036327760970017,0.08810959906699224,-0.0034492328025386046,-0.0013756816614205172,0.0016319964512686313,-0.008945780598614755,0.484375
0.025684307137873244,-0.0018339329554951003,-0.007380147662909347,-0.005251699695618383,-0.0005246668660607949,-0.0018352565629791953,-4.840788422150533e-05,0.10084434659970272,0.003427661825724895,-0.1287757063815795,0.0052658492033600904,0.0009250275032829789,-0.0019770356352350965,0.011455590921274218,0.4921875
0.1366273084334032,-0.008496022069182941,-0.036687974505598395,-0.02735039613293685,0.00041153054887096567,-0.015049001524163729,-0.0022633814740283227,0.5409779617835753,0.017040829845043865,-0.6932502825971203,0.027943203847554852,0.006911874845120529,-0.011369554252595802,0.0645497602881063,0.5
0.13852737914799937,-0.008610434055107745,-0.037186230803102134,-0.027727832215871922,0.0004274296107632284,-0.015275531091374972,-0.0023014066940034994,0.5484775041090247,0.017273225996423683,-0.7028957832182904,0.02832901686067472,0.007013752837521835,-0.011529029511588304,0.06545654713632101,0.5078125
-0.014573381295456031,0.0005828500460940025,0.0032672498060662184,0.0027737656736877316,-0.0008651622926850519,0.002960910843038205,0.0007556152985510083,-0.05899522820697951,-0.0015141577750994067,0.0761754635391517,-0.0029715410929160115,-0.0012497211430388974,0.0014361328973776855,-0.007825563172749647,0.515625
-0.10258326143216843,0.005868576488692521,0.026519091762608762,0.020309641216935365,-0.0016083736205229678,0.013447109676091421,0.002513371954110462,-0.40819275310255143,-0.012312984409422852,0.5240086417332364,-0.020966021044908117,-0.006000278123454223,0.00888862665369277,-0.04995589263608625,0.5234375
-0.051479947821045216,0.002801373253311205,0.013011259106912542,0.01012948971949902,-0.0011769673355159344,0.00736329560379488,0.0014932376815331885,-0.2054330043543401,-0.006041108068244938,0.2639538844220899,-0.010518918716480441,-0.0032422871399781224,0.004559579542559437,-0.025500596253802788,0.53125
-0.03571690969624296,0.0018557177420096113,0.008842529252915579,0.006985221171069846,-0.0010434730184830628,0.00548435718341887,0.0011779602564272757,-0.1428897123236098,-0.004108501911926272,0.1838191184526618,-0.0072904977977698935,-0.0023905173398620885,0.003222421790430391,-0.017959292476971592,0.5390625
-0.05010671824152202,0.0027201289612880887,0.012646031612976177,0.009846827731295268,-0.001164499060737936,0.007193666630694465,0.0014645728843015952,-0.19994560286869562,-0.005877991062788685,0.2571705996439914,-0.010225293527541387,-0.0031655817712864407,0.004440077372723356,-0.02484926150531354,0.546875
0.07074147289288882,-0.004536908432944302,-0.01928214084828494,-0.014231215905890222,-0.00014419011219834083,-0.00720433048108005,-0.0009483936345042988,0.27962154517805227,0.008950420425378336,-0.3578116544709132,0.01447978370003095,0.003357700042893715,-0.005792448731542908,0.033003910072680796,0.5546875
0.17719518310615834,-0.010931497846743236,-0.04741165450444944,-0.03543968950944869,0.0007544774284284518,-0.019886221798976523,-0.003073580065231043,0.7020430400988605,0.022017354627537348,-0.899744939104724,0.036237848386851526,0.009103196357336168,-0.014806382557037943,0.08398532785546875,0.5625
-0.01654298113892445,0.0006983889176419093,0.0037738135816246087,0.0031574416660346597,-0.0008809150165301543,0.003188247700827699,0.0007945809917366777,-0.06668507713229005,-0.0017515329115847813,0.08596314214933906,-0.0033677123225858783,-0.0013534865834072883,0.0015989452260899734,-0.008723600644756985,0.5703125
-0.311414722330666,0.018402958302320232,0.08168421175981196,0.06190424907320032,-0.0033701127958011834,0.03831050819611847,0.006681676798918947,-1.236692721932224,-0.03793345125978436,1.5865459465069007,-0.06364356340469472,-0.01726853698785845,0.026569004654389272,-0.14986835252683772,0.578125
-0.2796358807219761,0.016496277589578084,0.07328780817301948,0.05557476529493196,-0.0031019586050184127,0.034527904988293084,0.006047082042630567,-1.1105891780758135,-0.0340335181986423,1.4249557469346377,-0.05714608094046206,-0.01555360029015067,0.023879339245199617,-0.13467494273945543,0.5859375
-0.031606509993960745,0.0016053591079566395,0.007751442948711723,0.0061605203692673294,-0.0010082313995924798,0.004987933156520065,0.0010951130196826706,-0.12646397295150352,-0.0035977723018510467,0.1628017756909811,-0.006445714244933719,-0.0021671401602793923,0.002876529310270624,-0.01595874705312001,0.59375
0.02617513425867868,-0.0018621854907788146,-0.007513258886454776,-0.005350908247596446,-0.0005205134202564142,-0.0018918170013522062,-5.842538875968707e-05,0.10272449700546728,0.00348905123417706,-0.13122175675582692,0.0053630143023798375,0.0009507717597045034,-0.002017889605891426,0.01169404384000884,0.6015625
-0.01571203995475708,0.0006557569829755177,0.003566722563362677,0.0030003686498002832,-0.0008744840807285038,0.0031023366023425433,0.0007780730080905101,-0.06360452745429296,-0.0016592756075337325,0.08208840835417838,-0.0032023764390445917,-0.0013117592209250198,0.0015277666044873847,-0.00839048577684335,0.609375
0.17204281165280277,-0.010615292076563133,-0.04602800636661904,-0.034396804830957306,0.0007098804426061682,-0.019255306970285466,-0.002970041331882702,0.6812719867854834,0.021373160074453033,-0.8732213611498155,0.03517511450615451,0.008819750274152747,-0.014371104824338768,0.08143570535835394,0.6171875
0.38949649841071843,-0.02367238213960582,-0.10348124280732432,-0.07771823174744409,0.0025452603572940664,-0.045155777019363005,-0.007311039991169192,1.5440920210886562,0.04805745508527247,-1.9798553469169722,0.07962431420285457,0.020555847163488957,-0.03278373034433138,0.18551718939844472,0.625
0.2524421399625906,-0.01544618163606,-0.06727661016026631,-0.05041919224193785,0.001388495799995008,-0.028837921384289793,-0.004574645099014796,1.0004078101925011,0.031245514272724928,-1.2825286216439782,0.05160915044256302,0.013160480520867903,-0.021176055396837107,0.11994735811344076,0.6328125
-0.021403785982204774,0.0009930648361347334,0.005070024699272048,0.004134574142971163,-0.0009228579261155074,0.0037721049772729645,0.0008922203656438342,-0.0859935060589171,-0.0023523837440378994,0.11100868781458238,-0.004364441671130816,-0.0016172704841547452,0.0020151007498748754,-0.0111052104039473,0.640625
-0.018898754071630334,0.0008404308657344487,0.0043995381182304364,0.003634860876518505,-0.0009013552373665325,0.003470233862016264,0.0008415527692786839,-0.0759501767443609,-0.0020407631716739274,0.09824408994372896,-0.0038466351515910103,-0.0014805911154391104,0.001803198307736749,-0.009892087587821133,0.6484375
0.08200226072800665,-0.005218533103476703,-0.022269747101736896,-0.016471469653565753,-4.912195282733489e-05,-0.008548214520905333,-0.001173254817793969,0.32438987644404943,0.010344079987428843,-0.4153614574621136,0.01678071400651063,0.0039657325995875094,-0.00674349163425629,0.03843069413527305,0.65625
-0.052697243385797995,0.002870186043886248,0.013318534240502628,0.010358631391148171,-0.0011858476281098006,0.007496169365837092,0.0015160351542902505,-0.2101590695806838,-0.006185500632576294,0.2699910343797301,-0.010756532898052798,-0.0033045517008813458,0.004659790532550772,-0.026022799180090834,0.6640625
-0.20629535283531808,0.01209369520408023,0.05391105220737007,0.04095981899511712,-0.0024825668450287096,0.025791356546381757,0.004582673983109455,-0.8196560506093798,-0.02503863288614929,1.0516826554832184,-0.04215553229396369,-0.011595043442094163,0.01766548095774073,-0.09955906737988952,0.671875
-0.10847396214940516,0.006220373120030705,0.028070443579414395,0.02147467008366235,-0.0016571365768650924,0.014140969099794665,0.0026298027963732626,-0.43147457904105235,-0.013037301132742799,0.5539591505476021,-0.022156949334896623,-0.006315333332495553,0.009382961782534473,-0.05276460374526395,0.6796875
-0.031202971045536307,0.0015815394193531857,0.0076453916065792734,0.006078843218377895,-0.0010049215571602311,0.004940557736974985,0.0010874968492574249,-0.12481351396218904,-0.0035500699750626126,0.1606769795125993,-0.006361090306488116,-0.0021445110736332974,0.0028404693383072364,-0.01577283451036457,0.6875
-0.19461510512050076,0.011395615334529237,0.05081357955201025,0.03863198074013581,-0.0023842844173442884,0.024408910288439414,0.00435042999610346,-0.7732412895027488,-0.023597703996393053,0.9922108439048135,-0.03977011428612817,-0.010964968041977373,0.01667822676135016,-0.09396895308456651,0.6953125
-0.27651943230858866,0.016314977546157922,0.0724641954192884,0.05495336888801457,-0.003075863777925653,0.03416564147781638,0.00598556800264609,-1.0983510996163495,-0.03365382571260019,1.4091560447407203,-0.056517883164113325,-0.015387257864572089,0.02361441760467568,-0.13318480916734318,0.703125
-0.09753130314388898,0.005566505363842037,0.025190769826387367,0.019301292108514712,-0.0015653063598243472,0.012842519289152792,0.0024116381063788235,-0.3882192786409443,-0.011700129691425198,0.49848415827221765,-0.01992967210994683,-0.005727590575566157,0.008459048310722089,-0.04754598597125087,0.7109375
0.016602542868532078,-0.0012890434934590721,-0.004960163990662447,-0.0034352278946762392,-0.0006020263931082361,-0.0007553379681768663,0.0001328234393252564,0.06470346932898496,0.0023036049581255775,-0.08236329107606072,0.003403784764376063,0.00043318589067366193,-0.001205127859737146,0.00707504972120393,0.71875
-0.022353239858970475,0.0010497040182952113,0.005324647019990708,0.004324729406945645,-0.0009308201842042773,0.0038871748768449636,0.000910863062735531,-0.08983427928936526,-0.002471155514619597,0.1157452983442065,-0.004559294935379374,-0.00166927828337217,0.0020928700419053717,-0.011560408074901194,0.7265625
0.12486768953506405,-0.007787945072396224,-0.0335807087313882,-0.02500458247264509,0.0003120815386846428,-0.01364373058933651,-0.0020282800174800343,0.4942404867890217,0.015596359335419219,-0.6334142870368245,0.025534658805759686,0.00627554494131333,-0.01037498423304645,0.058903101902819915,0.734375
0.4206076569499823,-0.02554354066793491,-0.11172332327458086,-0.08392450529732558,0.0028088048304896786,-0.048869499629427555,-0.007933069290685407,1.6676560649446348,0.05188391234584669,-2.138248309214267,0.08599214300231629,0.022237581271416774,-0.03541881745690199,0.20044849195416437,0.7421875
0.4182901030605336,-0.02540428546474357,-0.11111311413288791,-0.08346753432549613,0.002789489786504614,-0.048596918977409864,-0.00788716861105279,1.6585498344528353,0.051598693276690054,-2.1263980027411864,0.0855230534902658,0.022114417348129977,-0.03522265767743279,0.19934675072190983,0.75
0.11223313284222222,-0.0070282302061667684,-0.030245040559099327,-0.022494365061042826,0.00020588142061531676,-0.012143177008728445,-0.0017766676381898569,0.4442216731927679,0.014043935323376175,-0.568965323148247,0.022960035406488447,0.00559641793830128,-0.009305555586692627,0.05286408128752352,0.7578125
-0.10343131911420775,0.0059200623387834755,0.02674315933318061,0.020475508972384107,-0.001614938034855907,0.013546196502089205,0.0025295322751175504,-0.4115440432828395,-0.012419601704585224,0.5284385995662638,-0.02112951740754323,-0.006044776639737246,0.008957467306235084,-0.050364988223853366,0.765625
-0.16904807498191565,0.009858634830293886,0.04407800593449403,0.03354802738095791,-0.0021689938330115947,0.02136128882740716,0.003840026829487279,-0.6718837870335784,-0.020469448458904138,0.8622025704101618,-0.034545837121942674,-0.009586382638933598,0.014514360342466014,-0.08176577524188211,0.7734375
-0.20767654395332985,0.012176977088292488,0.054274684099184956,0.04123890842451587,-0.002494964333633794,0.025960637301599858,0.004611308709138112,-0.8250507754895312,-0.025205007830201076,1.05861996831601,-0.0424423312714963,-0.011669859482895938,0.017785503921948914,-0.10023425013916157,0.78125
-0.06743151301875026,0.003755972447716853,0.017218481149709176,0.01329947733676586,-0.0013109553215126923,0.009256173413430213,0.0018108827084505612,-0.2685872550767222,-0.007993965370709006,0.3449811696280496,-0.013773138975246997,-0.004100834699598782,0.0059100492583795934,-0.033103278694567584,0.7890625
0.23410044058705745,-0.014348724544142205,-0.06244249972671164,-0.0467669049505185,0.001234488696602852,-0.026659413971192022,-0.004209694650577019,0.927716353883132,0.029003440338055606,-1.1892445747050298,0.04786573542128026,0.012171576060652878,-0.019622538937563692,0.11120455148476079,0.796875
0.2563428744258254,-0.01568385983908835,-0.06831600630498676,-0.05119881343515094,0.0014223147691351256,-0.029311163812173475,-0.0046537547124466385,1.0159455478548838,0.031729663295036584,-1.3023417720714254,0.052413247434439474,0.013372078618656755,-0.021505838565284388,0.12184528832690847,0.8046875
-0.08497416921965492,0.004810375870466163,0.02186224131509956,0.016792904034943785,-0.0014589419919398014,0.011341857035555852,0.002160970263263696,-0.3382608853797624,-0.01015383806506201,0.43444134748945884,-0.01735788464002768,-0.005047690135514324,0.007395201447036815,-0.041511415730799854,0.8125
-0.3134749763410018,0.018530518548738564,0.08223685840127262,0.06231469788222258,-0.0033879536571265584,0.03856094111742891,0.00672301367919831,-1.2449115839400182,-0.03819371412721206,1.597138595991765,-0.06406853715784883,-0.01738008167951651,0.026742755423534055,-0.15087891284721247,0.8203125
-0.3074607524646737,0.018168939853343634,0.08064617764310938,0.06111940412225411,-0.00333706493825482,0.03784644252723518,0.006602752816426563,-1.221071244021184,-0.03745333347138107,1.5665057267684326,-0.06283845057583841,-0.017056111000121398,0.02623306813772115,-0.14799914205852516,0.828125
-0.3764348510981632,0.02230981151656518,0.09885522571727139,0.07485678224642209,-0.003918931833271582,0.04606047512497737,0.007979994645538028,-1.4946275661640323,-0.04590919410626962,1.9174270003862237,-0.0769340691945954,-0.020777375582791784,0.03207434691809134,-0.18099368670714178,0.8359375
-0.3551620529726225,0.02103313591505003,0.09322595720685596,0.07061419384646356,-0.00373931604456004,0.04352552028745469,0.007555560370242807,-1.4101308311454335,-0.043296514533835095,1.8091881460728945,-0.07258270078432227,-0.019627828854922053,0.030273535424031935,-0.170809028704697,0.84375
0.1120992738334468,-0.007020970804892636,-0.030211703785247287,-0.02246777336316927,0.00020455760171172755,-0.01212811609588345,-0.0017736598588377933,0.4436869498283434,0.014027919116899889,-0.5683202380113239,0.022931445103864294,0.005588954112265306,-0.009293620170542012,0.052795990462925595,0.8515625
0.5528300999574022,-0.03348253593653162,-0.14663396779099216,-0.11026083900094184,0.003924598321784579,-0.06462098120899948,-0.010573466907746815,2.192171937484375,0.06809592469872552,-2.8108454808897396,0.11302030868808864,0.029372790184218508,-0.04661476631551188,0.26370766164904835,0.859375
0.33260088434090695,-0.020259482698452194,-0.08845178482158528,-0.06638806286311517,0.0020657294376376753,-0.03838731394194651,-0.00617645822254603,1.3183842330326303,0.04107700765828637,-1.6903250895592412,0.06800052629293343,0.017486858402858997,-0.027966826454377022,0.15831836850141665,0.8671875
-0.05318722887530099,0.0029036932148578908,0.013455302383966257,0.010462212687299717,-0.001190685432794251,0.0075669954026341465,0.0015265486401400239,-0.212158542523574,-0.00624721636460584,0.27250913277800726,-0.010860874826705124,-0.0033331246873518337,0.004701507470398213,-0.02629996560380981,0.875
0.16380355793032036,-0.010124692951915407,-0.04387852003174332,-0.03276407108429884,0.0006406833542076888,-0.0182768357490008,-0.002805286999509619,0.6487974701125074,0.020380801149262762,-0.8316617515358693,0.03349246501642489,0.008377204105431309,-0.0136707530384361,0.07754316616519531,0.8828125
0.5002339088236701,-0.030323724937825067,-0.13274922698179067,-0.09978053097086177,0.003480156171942137,-0.05835225436692536,-0.009522157347706403,1.9835378380904967,0.06165129637283086,-2.543325133435702,0.10225884795489662,0.026533171169730835,-0.0421566522969373,0.23853895290750915,0.890625
0.13206495508180605,-0.00821804034812177,-0.03546897632822284,-0.026436227809939643,0.0003723920171112058,-0.014506264989192583,-0.0021715629201564113,0.5227670421626349,0.016469908095858462,-0.669744424481186,0.026998291237648554,0.006664065951425981,-0.010980455284709019,0.062338908004675474,0.8984375
-0.4532202118254112,0.026921234908879228,0.11915603162989619,0.09015494641997586,-0.004567548337741223,0.05520279984702397,0.009513594829765801,-1.7993294710333332,-0.05533921506196466,2.3083078176249283,-0.0926358776124885,-0.024921632886251828,0.03857805716315602,-0.21775253544524845,0.90625
-0.318968615886854,0.018857251587156107,0.08367512607284876,0.06340608725589143,-0.003433636628306447,0.03921194620394046,0.006832479347834243,-1.2666037523844758,-0.03885832601877546,1.6249428077007784,-0.06518234314870457,-0.017675348143592003,0.027206906200333725,-0.15348556169788563,0.9140625
0.21755087997235434,-0.013357041100792813,-0.05807507374511008,-0.043475716308897676,0.0010954310904718004,-0.024691578314092914,-0.003879962628595729,0.8620873446504919,0.02697204900579965,-1.1051305405918865,0.04449512530852447,0.011280177888211562,-0.018225789123337534,0.10328473923608307,0.921875
0.2418748805757044,-0.014815660274825492,-0.06449642537850651,-0.04832025447640342,0.0013004337924947672,-0.027588166682038565,-0.004365443252742266,0.9585929136190412,0.0299515359478693,-1.228790864714642,0.04946412025924261,0.012593061127759209,-0.020284570407321623,0.11491469770729083,0.9296875
-0.18826760996530073,0.011011673968238773,0.0491504378607227,0.03737011626243041,-0.0023308301122388106,0.023645705425523165,0.004223110767323692,-0.747993724721187,-0.022826549690044946,0.9599739890905904,-0.03846878152542552,-0.010621244290316315,0.01614095999999358,-0.09094908912609148,0.9375
-0.40836976414128895,0.024226108971112076,0.10730178137860444,0.08121795196257765,-0.004188788796424534,0.04986147295444772,0.008617738386640003,-1.6212477657570372,-0.04982885116111174,2.079895615500443,-0.08346381742880228,-0.022500372416519823,0.034780238255890224,-0.19627658060508607,0.9453125
-0.3169610871277759,0.018738297651957822,0.0831512214369563,0.06300957404486972,-0.003417134664760683,0.038975137806248915,0.0067925244709455225,-1.2586441274943858,-0.03861292063918756,1.6148307992017983,-0.06477996422334502,-0.017567803917729698,0.027040225513941057,-0.15252159870841653,0.953125
-0.19500320910600252,0.011418226907366574,0.05092836797184104,0.03871560084613103,-0.002387811459731779,0.02445271634479433,0.004357586343125017,-0.7748718182818922,-0.023652125105017012,0.9943865950951117,-0.03985180889747114,-0.010986558564749121,0.016712707517097067,-0.09416372758734391,0.9609375
-0.07041700286917207,0.00393893543409686,0.018010974438788553,0.013898731145348259,-0.0013364157673995004,0.009616851217299218,0.001870516752950155,-0.2806105375665513,-0.00836575871754021,0.3604490984316396,-0.014386483066142087,-0.004263786411662157,0.006163300283117558,-0.03455796126880926,0.96875
0.09406141485924355,-0.005937909585537141,-0.025442516332731462,-0.018864018278422105,5.180146572545166e-05,-0.009973252189675768,-0.0014130832517629888,0.3719928078053343,0.011818084881161596,-0.476575234933172,0.01923407619048117,0.004611840476534242,-0.0077633970522615016,0.04414493534801769,0.9765625
0.21109178121382866,-0.012965033134517657,-0.05635827838033745,-0.04217687426738017,0.001039659898802314,-0.023912867011883464,-0.003749648328823278,0.8363401087457372,0.026176659493765145,-1.0721065365948372,0.04315738510455472,0.010927803178630046,-0.0176738010094565,0.10015036660565,0.984375
0.3267564672610897,-0.019908037734877662,-0.08691773855043554,-0.06522480519206811,0.0020162393590145876,-0.037689939589750455,-0.006059066715016351,1.295248482193497,0.04036388802926213,-1.6606501544558279,0.06680451393637338,0.017171693643079383,-0.027471362130886377,0.1555151072167459,0.9921875
0.45807425796677054,-0.02779157306861334,-0.12161683210629612,-0.09139480736356019,0.003125135103366908,-0.053333491522362476,-0.008680968965603086,1.8162783493158074,0.05647359835675995,-2.3289152756303846,0.09365190116844382,0.024260728890080595,-0.03859445017245265,0.21838259561146703,1.0
0.3092342285919793,-0.018856368066491058,-0.08229332527502257,-0.061746964475783525,0.0018689432436374725,-0.03560898072320902,-0.005709407924292531,1.225775438482907,0.038212161851454374,-1.5716254038212063,0.06322686376395271,0.016228479146328686,-0.025990664737417204,0.1471645925265104,1.0078125
-0.1654906463771604,0.009644887359193699,0.04313611321098853,0.03283106593115715,-0.002138544419964038,0.020933772132507616,0.003768490973250891,-0.6577261888498261,-0.02003400267602938,0.8440323675500092,-0.03381694453948245,-0.009392898661243525,0.014211404302943615,-0.08003822618989645,1.015625
-0.3770749150661752,0.02234783400229389,0.09904095807521933,0.07498815952508946,-0.003924846245465781,0.04613630328549708,0.007992648504073647,-1.4972178439874761,-0.04599368654814414,1.9207905137661474,-0.0770682758463369,-0.02081264123002185,0.032130407879822735,-0.18131309240222188,1.0234375
-0.04748020800575672,0.0025583796544846635,0.011957121540790004,0.009328562232206824,-0.0011425957411021783,0.0068784726353667575,0.0014121110672655399,-0.18950806818310736,-0.005550889070103322,0.24372109310568726,-0.009691260266832773,-0.0030244645913539885,0.004221271054921273,-0.023574576645555817,1.03125
0.154158801601474,-0.009547826500493913,-0.04132334443357583,-0.03084260854793863,0.0005596982856906641,-0.017139187678409905,-0.002613491520092817,0.6105790010604901,0.01919238639173246,-0.7823413218687586,0.03152812763445886,0.007858358582259837,-0.01285328079105535,0.07293316601125945,1.0390625
-0.23138933788236135,0.013601944358109722,0.060535786296024165,0.045963847308765675,-0.0026947107847870868,0.028784000225505365,0.005084335673434179,-0.9190430361915918,-0.02811233928015008,1.1794500117786773,-0.04728460541747401,-0.012948979117124589,0.019794124366196125,-0.11158349332998782,1.046875
-0.5132309687527767,0.03052413959046116,0.13499904073405639,0.10210923005232506,-0.005073745793588393,0.06235415529249438,0.010711322137320739,-2.0372697203937107,-0.06269438140731863,2.6135514400802276,-0.10489654283647468,-0.028159393567479207,0.04365895217331638,-0.24646642208916575,1.0546875
-0.03851006433169585,0.0020199730779464084,0.009579612198592505,0.007535475575385325,-0.0010665010423599344,0.00580860765240534,0.0012330493757888425,-0.15385640458779337,-0.004449324995650602,0.19795304381219733,-0.007854725771424594,-0.0025392031489358336,0.003459337542966201,-0.019266961897636117,1.0625
0.5755459286136497,-0.03484947478074973,-0.1526495510373874,-0.11479115872061887,0.004116636511012143,-0.0673310031128092,-0.011026913381003933,2.2823645008156177,0.07089155602632224,-2.9266004058132054,0.11766573382251437,0.030599726675472515,-0.04853731972225798,0.27460270788984353,1.0703125
0.4698906902457923,-0.02850488916966778,-0.12472985581952893,-0.09373684824754565,0.003224389716607316,-0.05474192855233605,-0.008917273970508129,1.8631272481859902,0.05792730000857645,-2.3889552644128402,0.09606362525789093,0.024896021800170212,-0.039589407773672335,0.22401691857462225,1.078125
-0.05490296105246819,0.003005125717920288,0.013922341563823042,0.010811870550876375,-0.001205578995962818,0.007769354599379602,0.0015606967741708994,-0.2190311657519475,-0.006462077116037643,0.28136143366602934,-0.011214253533833818,-0.003427342682500896,0.0048488824790477525,-0.027148366446739517,1.0859375
-0.23857081908313746,0.014032298763545949,0.062444220392529316,0.047397146948274196,-0.0027557033922072107,0.029643868850328204,0.005227902869003294,-0.9477464392712469,-0.028996543425711306,1.2158499446877287,-0.04875800967525637,-0.013339302830195908,0.020400219874379347,-0.11503471225566392,1.09375
-0.15103670710413894,0.008776862827500266,0.039313443248982415,0.029954975052028265,-0.0020166843086629367,0.01921441427277701,0.003480389107758205,-0.60043984737115,-0.01825748035292294,0.7704518082788431,-0.03086508334900977,-0.00861422908665343,0.01298788306903364,-0.07312776758101557,1.1015625
-0.24024536292183254,0.014135053346106865,0.06288017266276318,0.047725914800830375,-0.0027698329507679464,0.029840488381137682,0.005261441857091281,-0.9543454719620286,-0.029205197715972443,1.2244951189425675,-0.04910275477232356,-0.013427807694156692,0.020542965168871993,-0.1158167425989172,1.109375
-0.34041460261688977,0.020151032427208428,0.08934504179930412,0.06768171017260434,-0.003615412522296996,0.04177396435249196,0.007261155250978418,-1.351741829609682,-0.04149638572641424,1.7342641590901684,-0.06957978405700645,-0.018833407117217767,0.029025424989991,-0.1637514314019755,1.1171875
-0.12036279857227775,0.006938396955499892,0.031207209856066155,0.02384462021699304,-0.00175772172263072,0.015563995134742603,0.002867608678633423,-0.47866748696051176,-0.01449489565242059,0.6145100302829634,-0.024596400207936762,-0.006957738962403939,0.010391248294821506,-0.05843341234893896,1.125
0.16281965096199508,-0.01006609312697437,-0.04361278307216512,-0.0325697429400448,0.000632867040208722,-0.01816746816625367,-0.002786225469315285,0.6448877050328398,0.02025438964533602,-0.8265026067758094,0.03329416030666764,0.008325036740363901,-0.013588417070070321,0.07708829087415336,1.1328125
0.18569809788881952,-0.011441723271179786,-0.04965960347592169,-0.03712923795030821,0.0008260173611361458,-0.020894405085009105,-0.003243149516900451,0.7356863784843637,0.023063684271793047,-0.942936202284017,0.03797701478384492,0.009560305528141876,-0.015525919823617097,0.08802359524663578,1.140625
0.16530674388278288,-0.01021885066123132,-0.04426624011814262,-0.03306807077618521,0.0006537898367068011,-0.01846699084392272,-0.0028363858024198496,0.6547739088295911,0.020558932707879805,-0.8391487638787973,0.03381431490312034,0.008460418807018751,-0.01379996619047829,0.07824926552793281,1.1484375
0.3012224500516173,-0.01837939298764949,-0.08016478573721987,-0.06014197082298824,0.0018009650458724916,-0.034656446656024624,-0.005550111593740579,1.193981289352676,0.037229911802913934,-1.5306871656459773,0.06159738769148154,0.015795232871610485,-0.025309281408910807,0.14328638559967719,1.15625
0.309090447668753,-0.01885001949289883,-0.0822427101990184,-0.06170611823028404,0.0018673870801183855,-0.035593213596002954,-0.005706855350025381,1.2251927668863822,0.03819387930428997,-1.570683612982256,0.06319939726823125,0.01621912734472871,-0.02597421663992001,0.1470575774698544,1.1640625
0.012395921195976734,-0.001034117561339629,-0.003866304821209253,-0.0026004648959731063,-0.0006369685619173013,-0.0002529207136541359,0.00021714482930801493,0.04809334850531317,0.0017942268973195389,-0.061001147731454784,0.0025437491696685263,0.00020694399544498332,-0.0008491284798299457,0.0050863812973108635,1.171875
-0.27396189641842433,0.01615988329472538,0.07178353835234515,0.054444850751059995,-0.0030542423266613477,0.033857036319456836,0.005934426213492595,-1.088024818024498,-0.0333382306767391,1.396072774428729,-0.055994994980978256,-0.015247160199860844,0.023399239085618438,-0.13194470526551821,1.1796875
-0.2738637617110003,0.016153847328921556,0.07176360558068008,0.0544264349082982,-0.0030536944700516174,0.03384758506504295,0.005932318833258663,-1.0876875882259025,-0.03332835066645982,1.3956015861658189,-0.05597428499420337,-0.015242288273946476,0.023389818429297174,-0.13190741767046987,1.1875
-0.060935588263618404,0.0033689382189471518,0.015514441362293727,0.012008206456414545,-0.0012563755469182107,0.008485673384175142,0.0016809946406829634,-0.24293857033757388,-0.007205971071959223,0.3121629479891565,-0.012445568067074324,-0.003751185146503941,0.005357866069091148,-0.03001910830904446,1.1953125
0.21915599383248,-0.013449471731010432,-0.05848913093254419,-0.0437945027496738,0.0011083585300094671,-0.024879486455096144,-0.003911323160315329,0.8683503272392331,0.027161132388508508,-1.11314416130882,0.04481397896068189,0.011365666210673147,-0.018361357092027394,0.10403431620258424,1.203125
0.39154116780770243,-0.02380187841007921,-0.1040420267031593,-0.07814032957721317,0.002563919726254126,-0.04541558659544923,-0.0073531997070664795,1.5523527927385432,0.048317372958804464,-1.9904596187336079,0.08005538275136706,0.02066997664453708,-0.032958702268520886,0.1865567092112184,1.2109375
0.21054437773802265,-0.012935808275734269,-0.056227615249203125,-0.042081016347993674,0.0010359529396996878,-0.02385636566490778,-0.0037393013879756013,0.8342817722560336,0.026115391588590352,-1.069524697335082,0.04305534483023828,0.010901655649618718,-0.017629530253321892,0.09994359571085601,1.21875
-0.2513305276482402,0.014796674789284711,0.06580289855345092,0.04993840568603969,-0.002863406099060631,0.031161141158851234,0.005482773300711847,-0.9982302411270033,-0.03055404598827233,1.2807699792976828,-0.051364753259563425,-0.014026365200397215,0.02148488365429191,-0.1211177980233398,1.2265625
-0.5369245960317572,0.0319463121101895,0.1412676837625346,0.10684014946159893,-0.005274691942941231,0.0651813760989463,0.011185191033055222,-2.1313842807121777,-0.06560135906923834,2.734119669382822,-0.1097506799982605,-0.029440988343462,0.04566992567100911,-0.2578279198301787,1.234375
-0.4610851553302646,0.027394811954822275,0.1212424178467176,0.09173492370218457,-0.004634704116342612,0.056149479037094406,0.009671020061599134,-1.8305580247521047,-0.056304219577395245,2.348318815639479,-0.09425077578154013,-0.025348993323377988,0.039246644372328277,-0.22155530719580707,1.2421875
-0.30406415366567935,0.01796786014418926,0.07975887078220885,0.060449812859418264,-0.003309026603405587,0.037445942197670515,0.006535731817212969,-1.2076258197381824,-0.03704109606076074,1.5493680463956259,-0.062151199441194016,-0.016874526904512376,0.025948044926186964,-0.14640499028237114,1.25
-0.19065762044540463,0.011157983650788841,0.04978687768714864,0.037847628168011356,-0.002351178145312105,0.023935069241154804,0.0042710905613772,-0.7576840580724988,-0.023123112762806913,0.9722500785306368,-0.03896325463488691,-0.010752575636125267,0.016342778891895345,-0.09210253752240637,1.2578125
0.03917106490751868,-0.002642836657744165,-0.010943523582735818,-0.007944345662289446,-0.0004106731396867871,-0.0034428660000391164,-0.00031799938822606936,0.15422309585327226,0.005079891381797847,-0.1973144977799081,0.008022602057078542,0.0016526755179434734,-0.003120206672606532,0.017916546252891647,1.265625
0.3229813416991285,-0.01968388665699708,-0.08592664525131619,-0.06448085223173604,0.0019850210711289504,-0.03724727046936525,-0.005984654565934442,1.280309104136405,0.03990297243289587,-1.641482858804078,0.0660385445316701,0.016969977879185173,-0.02715287162424185,0.15374501295738438,1.2734375
0.447709833742512,-0.027172243160188046,-0.11887610505098893,-0.08932290569452372,0.003037648193743039,-0.05210109442193025,-0.008474859241790523,1.7751840877773446,0.05520599845181441,-2.2761102657415466,0.09153332638201216,0.02370072761885804,-0.03771423934557164,0.2134230451113355,1.28125
0.49477468990263207,-0.02999812103711115,-0.1313120915419482,-0.09870042228702049,0.00343508332853447,-0.05770685560917251,-0.009414465346680508,1.9619143822515832,0.060981646125588485,-2.5156286799952206,0.10115652779824554,0.026240666940207866,-0.04170064662005749,0.2359427745404658,1.2890625
0.5800495288015028,-0.03511947318715832,-0.15384929856352675,-0.11569626369521502,0.004155414260855421,-0.06786772559277564,-0.011117188672814297,2.300314883937043,0.07144706094219781,-2.9496526112108117,0.1185955001245489,0.030844369952361873,-0.04892343437356248,0.2767650936868617,1.296875
0.47719145425184073,-0.028944321580074667,-0.12668001372014226,-0.09520952128390839,0.003287325151476312,-0.05561959228743191,-0.009063627696180096,1.8923302174725949,0.0588283157960618,-2.4262632767572856,0.09757418240073633,0.025295016544291747,-0.04021285214686617,0.22754702887960773,1.3046875
0.06362279321595642,-0.004111380891242786,-0.01741222942876046,-0.01281578730361949,-0.0002042408027298137,-0.006358358530952764,-0.0008060114486730151,0.2514981083479011,0.008083797610975052,-0.3216715077598493,0.013028412299976831,0.002974960166186429,-0.005188040877883374,0.02961345350563812,1.3125
-0.3478811986167987,0.020597955678449447,0.09131696940161585,0.06917068301453547,-0.003678607827314654,0.04265953712087396,0.007410656623904367,-1.3812613533677935,-0.04240882223750519,1.772384509178645,-0.07110234018387314,-0.019235813081628975,0.02966251609872299,-0.1673350365182864,1.3203125
-0.5550789604043781,0.033038352515734136,0.14606768302766956,0.1104542416665969,-0.005428065271324602,0.06734162625249854,0.011547863497305874,-2.203440199064701,-0.06783266122870146,2.8266504701771544,-0.11346718365746707,-0.030420502203842178,0.04720971164211498,-0.26649884738411606,1.328125
-0.7147279029160525,0.04262269784208405,0.18825141006302343,0.14226261089805045,-0.006775849987595255,0.08635954238046166,0.014735300531140735,-2.8369198586946,-0.08742137663868317,3.6388753048540377,-0.1461054947046928,-0.039037875276933635,0.060727035436242666,-0.34290998504971976,1.3359375
-0.782670905028405,0.04670199639193909,0.20620336484937826,0.15579988773214212,-0.007349389077015205,0.09445506119806378,0.016091735173491422,-3.106533515636378,-0.09575874252683604,3.9845233218559595,-0.15999295537753574,-0.04270524996361051,0.0664770771247975,-0.37544248532558655,1.34375
-0.4451974120126383,0.026440325694717534,0.11704144189049898,0.08856826553734419,-0.004500451224053295,0.054260015278715455,0.0093537343120804,-1.7676161832375328,-0.05435295626756887,2.267308281989728,-0.09100352028361945,-0.024492111186607567,0.037897027547564514,-0.21394224883986643,1.3515625
0.22308305434742512,-0.013684211467325388,-0.059522903883267836,-0.04456933959655731,0.0011412244962716832,-0.025341128170191143,-0.003989353339080593,0.8838464758041357,0.027643035535993732,-1.1331646128254322,0.04561156043618289,0.011575359882231817,-0.018694315045855902,0.10589554021434129,1.359375
0.7228769197474716,-0.043693316199969474,-0.1915715715285992,-0.14414112273873889,0.005360608777615904,-0.0848753466250614,-0.013968614597622227,2.866852235304385,0.08896629462336833,-3.676281126609264,0.14778562198028253,0.038550046362609405,-0.061017075588081664,0.345097750049721,1.3671875
0.782289581767585,-0.047261511907328545,-0.20726623043118972,-0.1559778389421133,0.005862221734418889,-0.09195426852641754,-0.015155066476602147,3.102610746475193,0.09625539931198353,-3.9785742863284654,0.15993442135827388,0.041757017645323205,-0.06604751147341102,0.3735260775723301,1.375
0.5008991140738407,-0.030367731771987524,-0.1329216558332054,-0.09992049405387024,0.0034867684444408326,-0.05843946047402033,-0.009536873689417458,1.9862314349050794,0.06173105411870029,-2.5467899865093346,0.10241256492814307,0.026571038331370415,-0.04221792087122879,0.2388591223619767,1.3828125
0.043991179982481726,-0.0029352257486540993,-0.012213687170323239,-0.00890039659900267,-0.00037022357738084185,-0.004019404282459596,-0.0004142726851076357,0.17349418353620255,0.005674544636860317,-0.22190244417376692,0.009009557603056552,0.0019132846672853775,-0.003525163316853294,0.02021617114099278,1.390625
-0.35462873410207124,0.020998767311451068,0.09309065733475395,0.07050714653566705,-0.003735049833277677,0.04345835946314693,0.007544675740928072,-1.408026249375854,-0.043230645422482644,1.806448629410951,-0.07247822261805244,-0.01959879862493668,0.030230986893824786,-0.1705295537805655,1.3984375
-0.4383353641575755,0.026024603142462247,0.11519992397352673,0.08718108924808779,-0.004441421923763808,0.05342714370678754,0.009216053140373768,-1.7401622321652324,-0.05350018771727688,2.2323609596919467,-0.08958936382553705,-0.024116181620431557,0.03731846683854383,-0.21058053015303346,1.40625
-0.2839321854221091,0.016753134119466783,0.07440649884190004,0.05642067706951173,-0.003137665825336922,0.03503491188688678,0.0061328932996318995,-1.1275848821083378,-0.03455650393890281,1.4466228774834722,-0.05802322639337627,-0.015783322006189655,0.024241094737905533,-0.13668532527272131,1.4140625
-0.18716141697036806,0.010944785161182174,0.04884267877453861,0.03714340208247948,-0.002320635909775647,0.02351199383493126,0.004200307974919667,-0.7436687845150025,-0.022686026096225696,0.954273343690166,-0.03823964164763927,-0.010561111726034078,0.016044146303611975,-0.09038448638946416,1.421875
-0.10841796362266226,0.006223163023262002,0.028045617102409798,0.02146285503497083,-0.0016564985642779984,0.014143642806645535,0.0026285071840619124,-0.4312958824477173,-0.013030024646134562,0.5538396551253159,-0.02214729135054729,-0.006312800973709791,0.009376365842344272,-0.052739307304743396,1.4296875
0.19440855185206016,-0.011954510099628517,-0.05195140873475389,-0.03885625320538572,0.0008987584934469244,-0.021916561841531946,-0.0034165165910909063,0.7701719043394717,0.0241212439544944,-0.9868957835669343,0.039749134956126496,0.010028950613721435,-0.01626362424462341,0.09214456430355644,1.4375
0.529879888569416,-0.03209951639731918,-0.1405762189848645,-0.10568413568238312,0.003730006579220288,-0.061876827662417595,-0.010113694999348867,2.101217070167898,0.06528316852476719,-2.6940002407987347,0.10832250176170488,0.028133887175829632,-0.044667335280180694,0.25269402029817195,1.4453125
0.45529659202748163,-0.02762725835174795,-0.12086860010667562,-0.09082747674239036,0.003100552316015754,-0.05300283423311568,-0.008624640811245103,1.8053226752215508,0.0561350734536023,-2.3146578819132193,0.09307597459808707,0.02410898181568524,-0.03834990154112208,0.21702942569371036,1.453125
0.030376342104692304,-0.0021163754141339864,-0.008600842921463849,-0.006175957603660443,-0.0004860238532718481,-0.0023949039426399117,-0.00014111993482620702,0.11937209154168318,0.003998461728161123,-0.15253602311137604,0.0062134050559947045,0.0011754328521835055,-0.0023688484750810012,0.01367797658486553,1.4609375
-0.2507484761773631,0.014763595046352744,0.06567624761959871,0.049830223543614306,-0.0028588837282201764,0.03109231021636873,0.005471338354593583,-0.9960641613000522,-0.030497012259254035,1.2779293204996707,-0.05125241196547905,-0.013997665184429898,0.021433752127759418,-0.1208793280957968,1.46875
-0.2014031887121932,0.011799808845592482,0.05263505772949101,0.0399948357102494,-0.0024419916632758055,0.025215256021923448,0.004485428063204708,-0.8002790717237674,-0.02444162381032526,1.026733248987543,-0.04115838878016596,-0.01133341153198228,0.017251679651242666,-0.09725791042389675,1.4765625
-0.09343927928162606,0.00531544885824163,0.02409901464211014,0.018477221957045722,-0.0015301281159715353,0.012351638174489407,0.002329253235593675,-0.37189109013511534,-0.011190615191869757,0.4772687996293238,-0.019081879658343112,-0.005504406496285495,0.008107313947162088,-0.04555585049561933,1.484375
-0.12612639770790493,0.007278335553868692,0.03272705769843811,0.024986478669729802,-0.0018058541886782345,0.0162423747906365,0.0029819469834809864,-0.5015602661344261,-0.0151984317883824,0.643648034199805,-0.025764723520584922,-0.007267873147489062,0.01087642731135616,-0.061182433877118504,1.4921875
-0.16578085384180138,0.009661197425344287,0.043204705724368596,0.032892349526412776,-0.0021407891660793245,0.0209670868846725,0.003774103798746554,-0.6588865126592773,-0.020063852770296275,0.8455701905719679,-0.03387611634326765,-0.00940906187455736,0.014237245094336005,-0.08017125166358512,1.5
-0.05222334178602459,0.0028438641881776182,0.01320150982449754,0.010272785825946738,-0.0011822570226184355,0.007443008818369429,0.0015069425536851373,-0.20832365132749217,-0.006129742955415195,0.26779880928393696,-0.01066328877264322,-0.003280752487421749,0.004622352394926209,-0.025829248377931945,1.5078125
0.08278797210252581,-0.0052628905168501635,-0.022478965875819507,-0.01662969795713695,-4.224535041747872e-05,-0.008638930062015016,-0.001188847499492452,0.3273894242219173,0.010439387705388273,-0.41926679147803936,0.0169406732101713,0.004007039051021164,-0.006811419132527062,0.038801043211254965,1.515625
-0.02980032440047351,0.0014969174006189813,0.007260143087471118,0.005794652678994313,-0.0009925318101231275,0.004770585871421467,0.0010590654217431659,-0.11925938738283229,-0.003372836525365667,0.1535675023793792,-0.006072165517922768,-0.0020682539617937145,0.002722375596805379,-0.015075455063291394,1.5234375
-0.31347629802350546,0.01853038803392777,0.0822181928406007,0.06231276096492965,-0.0033877362935851685,0.03856210151579027,0.006723154772538766,-1.244783120115457,-0.03818359035958888,1.5970891228806103,-0.0640660489977392,-0.01737910111534485,0.026745537115632458,-0.1508653388283456,1.53125
-0.28999710870313533,0.017122729697471736,0.07603346396686793,0.057644239614222395,-0.0031903162460437495,0.035771596006261265,0.00625469548093095,-1.1517361202505394,-0.035310965811019945,1.4777190638511404,-0.05927321470953396,-0.016114036739661695,0.02475753692907418,-0.13966587626886467,1.5390625
0.23202635440983746,-0.014219179414924461,-0.06187966549367546,-0.04635044816084688,0.0012161335338272464,-0.026403307401628048,-0.004167729639270671,0.9193539339305115,0.02873629046596215,-1.1785478074373585,0.04743804880838879,0.012058583363395934,-0.01944943453721234,0.11015763514757107,1.546875
0.7206232785824647,-0.04355639274195822,-0.19097530808890903,-0.14369299844337746,0.005341013746766139,-0.08460396552262721,-0.013923000565449555,2.8579522363337095,0.088688834092984,-3.664785892299056,0.14732193167633983,0.03842926114850304,-0.06082496696225559,0.3440143518813805,1.5546875
0.605845242492829,-0.036666697872588506,-0.16065696341359156,-0.12083098215126763,0.004372529016410112,-0.07093971699423829,-0.011631604721860738,2.402662811710263,0.074608769403523,-3.0807313120230924,0.12386241950518123,0.03223630935928391,-0.051104327935346465,0.28910476501736526,1.5625
0.09361580695657915,-0.005911495522151235,-0.02532376426853141,-0.01878533385274073,4.869135605969533e-05,-0.009930357809666066,-0.0014047267490958232,0.37037370358573846,0.011758294136919967,-0.47423599526775173,0.01915114744374067,0.004591640965597537,-0.007727754915809553,0.04396249891018828,1.5703125
-0.23073100795362952,0.013563982830999608,0.06037140406100905,0.045831953556734625,-0.0026893153613135345,0.02870592288016469,0.005071156443967272,-0.9165411129659509,-0.02803935940558513,1.176153861893199,-0.047154562895915096,-0.012914132426652444,0.01973743509086964,-0.11126995578578289,1.578125
-0.2852958161559705,0.01683966788053225,0.07478796973494756,0.056704697262066346,-0.0031500978928516725,0.03520845536497003,0.00616075725492903,-1.1330515557266112,-0.03473173979951066,1.453721639356521,-0.05831031071151101,-0.015859816564711797,0.024358376110365336,-0.13738483878736704,1.5859375
-0.3632939189546704,0.021521071214632946,0.09539679708292155,0.07224663539095072,-0.003808731164126311,0.04449899179189653,0.0077181571805360685,-1.4425139076812863,-0.04429890562403177,1.8505756744496895,-0.0742559190502735,-0.02006986854026652,0.03096487367939917,-0.17471341552987116,1.59375
-0.415182001107716,0.024635943658295786,0.10910602066204728,0.08258366433759097,-0.004246675412773166,0.05067812776212954,0.008754101238583653,-1.6484130347718078,-0.050665514816783844,2.1146008874331605,-0.08486290844296987,-0.022870523830405026,0.035358312243837973,-0.19954805618032898,1.6015625
-0.13169504071678642,0.00761545074832805,0.03420417057650586,0.026103505653078857,-0.0018532619254113336,0.016910985028606388,0.0030938793756683253,-0.5237019150163907,-0.015883941183193084,0.672062945623824,-0.026909513800596696,-0.007570670567178689,0.011349648712885308,-0.06387628297006866,1.609375
0.37309050256198456,-0.02269285913845004,-0.09916413005851922,-0.07446150687911851,0.0024080226768727346,-0.04321453943465868,-0.0069847714665155596,1.4790643976303055,0.046051285989438834,-1.8965249992445459,0.07628234693319251,0.0196728987074645,-0.0313971405462497,0.17770564495842742,1.6171875
0.5458216588306061,-0.03306470234577002,-0.14479729793744833,-0.10887046099362253,0.0038658451399348585,-0.06378827998904607,-0.010433553612957157,2.164417132636163,0.06724487299105196,-2.7754275704689504,0.11159236520344672,0.028995480081933603,-0.04602255007021347,0.2603690421674652,1.625
0.15075543839327232,-0.00934429014011807,-0.040417158630284035,-0.0301644769508023,0.0005306699023115088,-0.016731444913542667,-0.002545637793844307,0.5969891242198181,0.018771111945887077,-0.7651367873082326,0.03083094133801166,0.007674072371735557,-0.012566856009196367,0.07129469143964168,1.6328125
-0.35206972133465825,0.02084693712926021,0.09242802376903939,0.07000593581700573,-0.0037137856715087217,0.04315926979726235,0.007493795080987735,-1.3979969814055617,-0.04292416275957188,1.7934737814129935,-0.0719575934791201,-0.019463019563216055,0.030012493691426393,-0.16934726374910145,1.640625
-0.38692350470422515,0.022940137858645085,0.10163345518563177,0.07694965173822534,-0.004007881460686675,0.04730919403126205,0.008189698540446749,-1.5362681120322748,-0.04720010641804463,1.9709060871473179,-0.07908246501725585,-0.021343934016865643,0.032964636551958,-0.18602487334300952,1.6484375
-0.014281458363573987,0.0005661679928803405,0.0031804377261784593,0.002715111730591778,-0.0008623863661437148,0.0029242252733641806,0.0007495410472236372,-0.05775001970251421,-0.0014765893492467259,0.0748212909954269,-0.0029072234961991478,-0.001232530908464616,0.0014107202514029734,-0.007682280522780643,1.65625
0.1927158566965428,-0.011861908511783157,-0.051510364472630236,-0.03852392865380802,0.0008849143863536239,-0.02172880616075961,-0.003383350916184914,0.7635652746261772,0.02392340260280095,-0.9785253598370038,0.03940760078031656,0.009939297716340481,-0.016118123681675103,0.09138772086273453,1.6640625
-0.009733666261109653,0.0002946340346117215,0.001972620789037439,0.001802015288908596,-0.0008237657515159961,0.002385947645769491,0.0006587853622424809,-0.03965540081506716,-0.0009161421694131765,0.05151783867575974,-0.001976213430964821,-0.0009864093810514354,0.0010235679578197102,-0.005495542141347856,1.671875
-0.22607655407480332,0.013285254529925159,0.059129929227255656,0.04489931738184063,-0.0026497482512376504,0.02815245931682367,0.004978322704220598,-0.8980352384655934,-0.027463342742307908,1.1523951217063706,-0.04620165448123752,-0.01266228015274538,0.019343200391272908,-0.1090308916655618,1.6796875
-0.09473905785188234,0.005398851756669419,0.024436314287257007,0.018738416433169196,-0.0015411905643835505,0.012506579399463107,0.002356031798295536,-0.3769823836120727,-0.011351257322475125,0.4841932215175312,-0.01935496831999334,-0.005574493580090128,0.008222646052704723,-0.04617656609056042,1.6875
0.18960584023839544,-0.011676075827061901,-0.0506812594080578,-0.03790462975887164,0.0008587962030423476,-0.021360806936555253,-0.0033212334181912592,0.7511466033554572,0.023537611177730254,-0.962745321599275,0.038771862673621336,0.009770831581814922,-0.01585625351968401,0.08989959585213922,1.6953125
0.29844087878082415,-0.018212207655914785,-0.07943398476952811,-0.05958714940017703,0.0017774393620068087,-0.03432077482479533,-0.005494220536923639,1.1829282931108878,0.036893140211475835,-1.516741292256201,0.06102251834982202,0.01564404978377914,-0.02507529075408414,0.1419762300831032,1.703125
0.2565793380649184,-0.015697460096219428,-0.06837641432173668,-0.05124931565167665,0.0014242110204039716,-0.02933255493285503,-0.004658367072256016,1.0167948933486701,0.031755791607097815,-1.303766497980153,0.052465497744382514,0.01338448540937222,-0.02153261735758017,0.12193567401434414,1.7109375
0.1690975444589533,-0.010442738765403496,-0.045265552201043016,-0.03382111500656002,0.0006858540104096909,-0.01891378544049972,-0.0029117081926453587,0.6696687272560545,0.021019117582638233,-0.858449724349244,0.0345802639765164,0.008663143441142421,-0.01412373094225186,0.08006936064198486,1.71875
-0.06059419291221876,0.0033483817117418687,0.015419570330445552,0.011939281576026126,-0.0012531214102548273,0.008442269675901835,0.0016742778883896746,-0.24162245994759773,-0.007163908372685343,0.3104309007067642,-0.012374956945251531,-0.003732977543706436,0.005329481307313926,-0.02985576918641184,1.7265625
-0.37431885816565597,0.022183624755842898,0.09830757336761634,0.07444063048424081,-0.0039015759346910242,0.04580955910114187,0.007938087385309612,-1.486258603822291,-0.045654943086674046,1.9067331519587347,-0.07650708323627198,-0.020664251796729396,0.03189789961993155,-0.18000140894017674,1.734375
-0.3932915283775068,0.023323003044740727,0.10332193213614957,0.0782218885627131,-0.004061975720364696,0.04807162404040785,0.008316938103679427,-1.5614707752832797,-0.04798205121471175,2.003236476558211,-0.08038717192068019,-0.021687979736435384,0.0335050685555518,-0.18908181108147162,1.7421875
0.024343702197573265,-0.0017510178550632673,-0.007015785527046006,-0.004977130909494333,-0.0005368128312831841,-0.0016711126351434103,-2.1368324606921244e-05,0.09550090934899458,0.003258778662116465,-0.12176878689021935,0.00498277731820719,0.0008514664178399481,-0.0018599365326714217,0.010793997832641889,1.75
0.4565486365094916,-0.027701550140159643,-0.12120367263600385,-0.09107969152092345,0.003111508923534051,-0.05315276009455867,-0.008650458508098978,1.8102478235178765,0.056288063392824696,-2.3209445146771333,0.09333288034515584,0.02417696294932029,-0.038458022110240894,0.21764181513578404,1.7578125
0.4526149421378657,-0.027467787810291636,-0.12016791894787972,-0.09029900592469683,0.003078653377884546,-0.05268859422899882,-0.008571942514702953,1.7946458347727179,0.05580812642133049,-2.3010268349440994,0.09253239633498543,0.023964903759649502,-0.038125046071228054,0.21576728108934998,1.765625
0.06068060373281765,-0.0039371078984899496,-0.016627647912680458,-0.012225612722498995,-0.00022911987231443055,-0.006008430185666409,-0.0007472408619681854,0.239670535039195,0.007723424249184381,-0.30682503326877936,0.012420597551001835,0.0028137535784699343,-0.0049390015122103325,0.02821370704810402,1.7734375
-0.3691154389023409,0.02186933387605491,0.09691747459092188,0.07339210365067787,-0.0038567596534573177,0.045185196384390156,0.00783338563291013,-1.4655662960664926,-0.04500961796219323,1.8801683317435287,-0.07543313649234754,-0.020381021051712123,0.03145269081047632,-0.1774680534460983,1.78125
-0.568117993272242,0.033819543421520375,0.14949696931632356,0.11303990869084977,-0.005536902606634741,0.0688915552317326,0.011806810458564564,-2.2551735943078164,-0.06942939584258623,2.89287289426203,-0.11611559477328645,-0.03112183435974786,0.04830415390950411,-0.27272455077953817,1.7890625
-0.4374067031346018,0.02597203151177876,0.1149730946011175,0.0870084543243338,-0.00443417670001812,0.053325187477613306,0.009197751547197864,-1.73660828497052,-0.053395102189684844,2.2278041353610014,-0.08940264733152457,-0.024069253416985324,0.03723861370039994,-0.21019644300733106,1.796875
-0.08487607254999655,0.004804543991796894,0.021839865467250585,0.01678250467794615,-0.0014586251574453958,0.011335740123079384,0.002159478348627137,-0.3379021517196315,-0.010140385281256041,0.4339292381844669,-0.017341748372965173,-0.005044193942973044,0.0073888074161662315,-0.041487530780881576,1.8046875
0.19060450635566442,-0.011737139158705459,-0.05094703172848892,-0.03810118139920235,0.0008670812143212851,-0.021477527350524522,-0.003340972871916178,0.7551383821008174,0.023664490023939506,-0.9679478573456425,0.038974890134949876,0.009823937726333179,-0.01593914514127902,0.09036738049923036,1.8125
0.2218456854953601,-0.013613103499762544,-0.05921006469634619,-0.04432984133072398,0.001131223335706502,-0.025198793246329714,-0.003964928903112684,0.8791301861575035,0.027501084894804545,-1.1270308234018582,0.04536499363504737,0.011510806024467996,-0.018586733575507067,0.10533020493720244,1.8203125
0.1980318580433251,-0.012181693790710822,-0.05292255789683776,-0.039588327238081394,0.0009304281002266345,-0.02236124719058486,-0.003489512598571384,0.7846401114799139,0.024577507978619396,-1.005876850233406,0.04049783697332627,0.010226031852275774,-0.01657273542697413,0.09393457230831154,1.828125
0.30069244818008944,-0.0183434085030364,-0.08004117963790922,-0.0600415577435245,0.0017970280109681925,-0.03458803847705227,-0.005539447198672043,1.1918995738065314,0.037167760675071035,-1.528152499748017,0.06148338793244437,0.015766900551052065,-0.025267992379741634,0.14306488062713074,1.8359375
0.34173047908773874,-0.0208060792787719,-0.09087388978165252,-0.06821642026670643,0.002143231369994079,-0.03947607642121876,-0.0063589893130789775,1.3546611966393312,0.042197144192291945,-1.7368086070332345,0.0698710699677796,0.017981574045008754,-0.02874285020908466,0.16269889946749808,1.84375
0.12355695865770364,-0.007706199512206945,-0.03322331884411165,-0.02474700269506771,0.0003010855665123542,-0.013490204504790637,-0.002002596128659812,0.48901159841815234,0.015424825959360542,-0.6264930696563303,0.02526740058476371,0.00620586316840439,-0.01026488026455711,0.058269905093213274,1.8515625
-0.13243325787318228,0.00766351732692117,0.034413727978006986,0.026257425014339187,-0.0018603154173911505,0.016999997838372517,0.003109106067825976,-0.5266497509356131,-0.01598434861843155,0.6762002866518269,-0.02706700358793329,-0.007610776500134908,0.011415974491473435,-0.06425471667199538,1.859375
-0.14374560058680655,0.008340947325436625,0.03740041735873564,0.028511324842921775,-0.0019559148836384094,0.018346451019843727,0.0033350857518319424,-0.5715058781635701,-0.01736902124573211,0.7337256885928726,-0.029377902089172007,-0.008221005708127237,0.012375144354459907,-0.06966362742681627,1.8671875
-0.05028295730050313,0.0027266323020826624,0.012699998246606586,0.009885999653045404,-0.0011665875493685096,0.007212865895295925,0.0014686075836273902,-0.20062876515645442,-0.005895640471498366,0.25794287331067123,-0.010266186903532974,-0.0031757455874096034,0.00445954434527247,-0.02491527067959953,1.875
-0.09067022816673402,0.005150544915086898,0.023361288999824995,0.017928408322732018,-0.0015070763214948331,0.012022934951448249,0.002274762332478053,-0.36081923826714285,-0.010846060283563773,0.46326033916764975,-0.01852115895292977,-0.005355069734357983,0.007878364327480443,-0.044226654847960484,1.8828125
-0.13527894058024206,0.007830248056635748,0.03514140112923309,0.026817765227059795,-0.0018835475386201794,0.017337379067827504,0.0031656750908402157,-0.5378070417794905,-0.016317708906864466,0.690238039240215,-0.027645413825906396,-0.007763251393649456,0.01165600258020783,-0.06556835518149111,1.890625
-0.023723153254422487,0.0011328997177731538,0.005667166496611535,0.004595540761445504,-0.0009419836305646318,0.0040510003108391686,0.000938538267555747,-0.09520997637059694,-0.002629701961749641,0.12264684047805358,-0.004842793946847058,-0.0017428452142087495,0.0022098009300668066,-0.012179045581891937,1.8984375
0.03481436942054498,-0.002383593457664008,-0.009797212860678113,-0.007069594164130794,-0.00044781222293882177,-0.0029224311779546264,-0.00023054387479313422,0.13706706420415923,0.00455359572443897,-0.17525985851785103,0.007130007385295723,0.0014172691787803337,-0.0027480159315891907,0.01583246283844702,1.90625
-0.10984383186276589,0.0063004693734350515,0.028426837455742232,0.021746824267644637,-0.001668799028937155,0.014306052009502974,0.0026572295534448387,-0.43688135837757575,-0.013197925806312696,0.5607955544272714,-0.0224350066480236,-0.006389476451486012,0.009499971371814053,-0.05341320625319268,1.9140625
-0.19619019530591683,0.011486525129578002,0.051250252641028955,0.03895273432155216,-0.0023977514809397464,0.0245912478870978,0.0043811273497568375,-0.7795654942025958,-0.023800675555235067,1.0002906454694982,-0.0400876068989912,-0.011050721528807119,0.016810440575298843,-0.09476348343332644,1.921875
-0.09380726297171042,0.005342361406299236,0.02420792305575,0.01855927352551638,-0.0015336208104120934,0.012398533118416846,0.002337094539793099,-0.37344221551792034,-0.01124602409515702,0.47946720426094747,-0.01916256194304205,-0.005526178359897768,0.008140048949370505,-0.04578041088300677,1.9296875
-0.09566053856621763,0.00545476869414439,0.024690117019013618,0.018922853395451352,-0.0015490454980746037,0.012619358571490871,0.002374016074484216,-0.38073838309977426,-0.011471250992640847,0.48887451049886743,-0.01954050832747918,-0.00562500844079852,0.008297118378806916,-0.04665024865682116,1.9375
-0.22307620599846467,0.013103899082046714,0.05833624511170774,0.04429892472985745,-0.0026242067499636715,0.02779356461142958,0.00491780095549502,-0.8861216972285124,-0.02709553631742898,1.1371042608656585,-0.04558324273566254,-0.012499342091280764,0.019087656841879918,-0.10759523174028174,1.9453125
-0.030904634490148842,0.0015644060500147909,0.007555686953837596,0.0060168834851172595,-0.001002025572121263,0.004903606880285585,0.0010811369484265848,-0.12359539421377336,-0.0035105901775359933,0.1592135508871802,-0.006299834484340352,-0.002127548971141342,0.00281611995407046,-0.015612133698420029,1.953125
0.4554613702836937,-0.027637590075730883,-0.12093591968395138,-0.09086717215593144,0.003103066023565038,-0.0530241418411537,-0.008628985347429572,1.8060479854319298,0.05616423065908669,-2.3155689670387942,0.09311834048035673,0.02411957874246863,-0.03836791087522188,0.21714040162513476,1.9609375
0.5793783124996358,-0.03507646938305287,-0.15366393191352604,-0.11554919794389153,0.004148670114821919,-0.067780577483193,-0.011102696130901916,2.2976152499202387,0.07136523302150287,-2.9460305423246846,0.1184447265373372,0.030805606076625185,-0.048860452687429626,0.27643265790489346,1.96875
0.21608015912882533,-0.01326260942547725,-0.05767471895559849,-0.04317583583953295,0.0010819559289986594,-0.024508107360413166,-0.003849290148777832,0.8561461285166934,0.026786960222822325,-1.0973802593388053,0.044177761285264704,0.011198278395788384,-0.018097000835825605,0.10256703566160057,1.9765625
-0.013394110800404256,0.0005146806777392976,0.0029549570816719754,0.002537057036879954,-0.0008549167179026583,0.0028229392518149313,0.0007319863443683778,-0.05435713478904235,-0.0013719956229605807,0.07020934719724203,-0.0027300830202600756,-0.0011861842563061318,0.001332627960025287,-0.007255885638610469,1.984375
0.06427541867159191,-0.004150187996358501,-0.017562512465059875,-0.012936423003620837,-0.0001992676694185553,-0.006428946234073877,-0.0008188364636339282,0.25376248438343546,0.008154917083646447,-0.32513341348275077,0.01314891115332971,0.003005321003888267,-0.005246478362307288,0.029901313121678274,1.9921875
0.0028058346312088028,-0.0004601019373676109,-0.0013205194246791675,-0.0006907269481887505,-0.0007183616327790915,0.0008923977780468941,0.0004086728697307426,0.009884604751387095,0.0006127332164730114,-0.012370884616925754,0.0005834996939004933,-0.00031227218652703714,-4.049270271463614e-05,0.00047213037932689186,2.0
-0.19425286341729917,0.01137165432691397,0.050741777133710135,0.03856697512592716,-0.0023820112199185554,0.024362609058910488,0.004343219717489549,-0.7718944879502729,-0.023563676615697905,0.9904590675482612,-0.03969998351326937,-0.010946652487286384,0.016649358243592823,-0.0938303584669931,2.0078125
-0.16282087634460396,0.009483999361294675,0.04243450396300287,0.03230583472108194,-0.002116658934889328,0.020616484396469622,0.0037154381515527015,-0.6471154179247591,-0.019705501543450223,0.830609113284463,-0.03327370680502099,-0.009249045421308583,0.01398937117957826,-0.07877337282537399,2.015625
-0.11466190168811206,0.00659189527479112,0.029703273246589675,0.02271032566917408,-0.001709777854095552,0.014878211985165911,0.002753630222868035,-0.4560104498715881,-0.013794504800969047,0.5855493055232548,-0.02342588093390115,-0.006649085466118608,0.009910662151153693,-0.05571599382380791,2.0234375
-0.35625608509615286,0.02109795268897637,0.09352040333713695,0.07083631351263373,-0.0037486389140239692,0.043653497345790104,0.007577193312423057,-1.4145298410098535,-0.04343247849473342,1.8148473799173201,-0.0728097038170199,-0.01968756711402792,0.030368213157270688,-0.17133212998851235,2.03125
-0.43733208249197253,0.025966598055268828,0.11493364299192547,0.08698634162199492,-0.004432729565049624,0.05331169743614072,0.009195971325364158,-1.7361580915668042,-0.05337580766643363,2.2273432459075138,-0.08938250334447474,-0.02406334774763819,0.037233735753020025,-0.21012735133803626,2.0390625
-0.03365317783489433,0.0017290495824103388,0.008288961104217375,0.006569473495820528,-0.0010253194617401535,0.00523277075107617,0.0011361545646763063,-0.1345246159631831,-0.0038480170970489726,0.1731692400286465,-0.006863323354932874,-0.0022775046576354653,0.00304918636802797,-0.016938196418933116,2.046875
0.2447198272668347,-0.014985287182153275,-0.06524153536726679,-0.04888271225620608,0.0013240380433591152,-0.02792191963118044,-0.004421748711904385,0.9698557434020693,0.0302995883925677,-1.2433309406041104,0.05003998496247271,0.012745311989111635,-0.020525069272130658,0.11626648740035629,2.0546875
0.04275436835409815,-0.0028590062547316475,-0.011874703002487831,-0.008645683879166246,-0.00038110546275510145,-0.0038665131652718724,-0.0003891662064109693,0.16845321132513363,0.00551494629368488,-0.21556127021289975,0.008752589805982185,0.0018446307953563015,-0.0034225379174992825,0.0195932022367476,2.0625
-0.015555080342405285,0.0006421939639927298,0.0035236382654227467,0.002969094283547708,-0.000873112424820711,0.0030775427478774834,0.0007750390408400828,-0.06287814871290297,-0.0016355706226856646,0.08118429881013273,-0.003166840588459085,-0.0013023370812545298,0.001516191007831341,-0.008306880115635372,2.0703125
0.30062208923997974,-0.018340684983218194,-0.08002197407609203,-0.06002286048812691,0.0017962595365517372,-0.03458078514852788,-0.005537958809523253,1.191646287152795,0.037163124813630634,-1.5277271232504464,0.06146804037732184,0.015762220972857392,-0.025258648653273992,0.14302699823606288,2.078125
0.31461749243516923,-0.019178871677324426,-0.08372360317225859,-0.06281509814903277,0.0019145053066287254,-0.03624518187854174,-0.005817483260074755,1.2471740318310105,0.03887863796877783,-1.5989607776359707,0.06432939196940855,0.016518272273145704,-0.02644611817704932,0.149730455450885,2.0859375
-0.044558600179176455,0.002388272158755602,0.011175961525609936,0.008738547628468964,-0.0011177426611222625,0.00653609473149449,0.0013541204154995411,-0.17794406491029544,-0.005196293317813552,0.22879305026040708,-0.009096618268401578,-0.0028661640098945475,0.003969075401950984,-0.022171043821600747,2.09375
0.007547789871455204,-0.0007415627814553694,-0.002582379244020153,-0.0016378678952448675,-0.0006782477438975166,0.00032682007629650743,0.00031415971666898663,0.028754516075432605,0.0011955945497715951,-0.036262252032579476,0.0015512176762115767,-5.471860254396123e-05,-0.0004402624271761201,0.0027646654602795032,2.1015625
0.4548338197848202,-0.027600659166357778,-0.12075036017095395,-0.09074110624660696,0.003097417409297285,-0.052951813591634644,-0.008616356577919796,1.803389734725588,0.05607910372193758,-2.3123038883459373,0.09298568716472101,0.024084191258235063,-0.03831442751276884,0.21683251430719125,2.109375
0.39570243109316044,-0.024052315200576588,-0.1051275203714454,-0.0789617432106882,0.0025984625835748162,-0.045909564881356425,-0.007436104562284847,1.5687833845250936,0.048826192589665064,-2.011507144724474,0.08090167877855073,0.020892750374420007,-0.033307789304989975,0.18853214478514851,2.1171875
-0.2356617951975647,0.013856396241583155,0.06167726286835656,0.046814273289412775,-0.00273102248300472,0.029291764801962942,0.005169495253280564,-0.9361745710467311,-0.028640597158280174,1.2011494182857707,-0.04816000087785092,-0.013181116553471582,0.020155628059667585,-0.11363530301725533,2.125
-0.5768819477675914,0.0343453495972146,0.15182689455499576,0.11479176467975291,-0.005611547418254242,0.06993508908901204,0.011982438093050243,-2.289945538779605,-0.07050804746435217,2.937482855177652,-0.11791502140902362,-0.03159637364781999,0.04905144635393902,-0.27694150646474897,2.1328125
-0.3704709142549635,0.02195302198532476,0.09729282163164614,0.07367509487605238,-0.0038694057762467212,0.045352395595550876,0.007861457286901434,-1.4709823422949426,-0.045181398751021354,1.8871950599075755,-0.07572462192119415,-0.020456970523120715,0.031573673397867284,-0.17815585356394611,2.140625
-0.11812499065297181,0.006801692600373553,0.030621443879303982,0.02340691931768013,-0.0017393852469634865,0.015298712634290597,0.0028232328055311858,-0.46979783845473555,-0.014217957180577504,0.6031097812486508,-0.024140924684684296,-0.0068384274235052745,0.010204348207047114,-0.057387781531690496,2.1484375
-0.03978221893421477,0.0020969786612221094,0.009920792075782019,0.007800164307806035,-0.0010779949019616912,0.005967178790170881,0.001259145138826472,-0.15895147325147402,-0.004604814586665001,0.20440443035007982,-0.008123261190774795,-0.002610042535887032,0.0035690986600025966,-0.019896743607454588,2.15625
-0.020780519576144386,0.0009554072194319791,0.004897575805832581,0.00401179139402559,-0.000917338066539719,0.0037007391739429735,0.0008797692434196344,-0.0835157592755254,-0.002273578562330314,0.10768592091027866,-0.004234933882824477,-0.0015837397100978729,0.001959275903682283,-0.010802646865470023,2.1640625
-0.07836915510653883,0.00441386885042154,0.020107017365117743,0.015478105522819016,-0.0014030312846808866,0.010557920046637387,0.0020292155645125075,-0.3119848978937108,-0.009339989531137322,0.4007410767950906,-0.01600304843246173,-0.0046906320048216476,0.0068342449861155015,-0.0383569846270799,2.171875
-0.11987233130760838,0.006907185730728625,0.031064936554621055,0.02373861567789482,-0.0017528954863771495,0.015501226243204637,0.0028572420327990736,-0.47666041580420393,-0.01443239704219127,0.6119386016614055,-0.024483134133970488,-0.006929164797272928,0.010346055068632225,-0.0582062908030526,2.1796875
0.10106675699364759,-0.0063583489058054,-0.02730839434781358,-0.02027949933057292,0.00011233494127983355,-0.010815545064425433,-0.001554322202585953,0.3999256440062046,0.012675854365640907,-0.5123172343520163,0.020682109656787608,0.0049954292492625455,-0.008364002624641454,0.04754454053864035,2.1875
0.40405689694054564,-0.02455160980402777,-0.10734844820948923,-0.0806354983934586,0.0026696982133172864,-0.04690616740262517,-0.007603529954595087,1.602033581889494,0.049850461692156935,-2.0540441349273384,0.08261458199854911,0.02134643053812366,-0.03401876764751803,0.1925506373288602,2.1953125
0.343599821298885,-0.020921924376927754,-0.0913628833788337,-0.06858293513278353,0.0021588191900185102,-0.03970398580225178,-0.006395975629594157,1.3621059959430675,0.042431126937255335,-1.746322815587734,0.07024910320003978,0.018081366258368606,-0.028896008588121753,0.1636027078158686,2.203125
0.02818513662799424,-0.0019827914161190444,-0.008027703288788324,-0.00574326095092589,-0.0005040344097410795,-0.0021311982486457754,-9.817055040740675e-05,0.11065350904937946,0.003731092053698717,-0.1413060760851302,0.005769584493241194,0.001057624962919019,-0.002185747376237895,0.012638080102708789,2.2109375
-0.0761964089390161,0.004284907233969054,0.019542872237758514,0.015048239040834351,-0.0013851426443385456,0.010303252130093025,0.001985986216427512,-0.3034391689972355,-0.009074675254906463,0.3897707956735592,-0.015565431442772455,-0.004574889499024421,0.006652331441681069,-0.037317603546523415,2.21875
0.013848990783097887,-0.001122524311762627,-0.00425087783463464,-0.002893882778628129,-0.0006249659789298844,-0.00042419916833377974,0.00018820722352344535,0.05384708028890847,0.0019734428909020875,-0.06849021774632603,0.002844247243178241,0.00028571564422629034,-0.0009735940761122529,0.005777585848413562,2.2265625
0.008845249347673896,-0.0008229821910101435,-0.0029235353215890936,-0.0018959340668577675,-0.0006672400366437009,0.0001703097880363983,0.0002880666860001557,0.033914841678406256,0.001357280663917921,-0.04301682851689441,0.0018206909789885784,1.4936137965582922e-05,-0.0005504960392554364,0.0033752772932229345,2.234375
0.02731897084753023,-0.0019321246023308945,-0.007797755184217139,-0.005572268956312087,-0.0005113186207154272,-0.0020283443985355293,-8.097007167885048e-05,0.10710249988403975,0.0036226026977825712,-0.13698552017747923,0.005594664344372997,0.0010103215590252469,-0.002115468759103961,0.012208107974526414,2.2421875
0.20448197596594372,-0.012568844383821188,-0.05460444208442984,-0.0408631299394196,0.0009841707204082883,-0.02312779975682425,-0.0036182640281150016,0.810004034971178,0.025361307901765034,-1.0384683097006002,0.04180850305217292,0.010570980941331562,-0.017117019129406368,0.09699410982700195,2.25
0.12966070529127346,-0.008075910234476317,-0.03484233829374448,-0.025956313206012552,0.00035242363060756675,-0.014214885131822128,-0.002124132578347555,0.5132583388015336,0.016184162663896624,-0.6577277027553138,0.026513245141835746,0.006533722224649701,-0.010778786793098705,0.06118777406107035,2.2578125
-0.4056682072273097,0.024066749701476372,0.10658511077498349,0.08068927879864643,-0.004166648958314242,0.049547838803771754,0.008564532346983149,-1.6105644628099278,-0.049495734703518694,2.066303357739456,-0.08291730179001601,-0.022356133853185387,0.03455492783043815,-0.1950071156800921,2.265625
-0.6986410504749909,0.04165739205974177,0.18398386389612395,0.1390507259319356,-0.006639554781676417,0.08444145110402075,0.01441398950556193,-2.7728923715480347,-0.08544149221812997,3.557076249548329,-0.14280471012576226,-0.03816643959388112,0.05936367014930681,-0.33520517961899604,2.2734375
-0.18721524782740806,0.010949859908482523,0.04886374142218639,0.03716176744057324,-0.002321923482417956,0.02352109715960854,0.004202503805292873,-0.743790434252708,-0.022693768308281386,0.9546757077597988,-0.03825752866919609,-0.010564493180784045,0.016054299689278625,-0.09042820993090303,2.28125
0.42443371706546923,-0.025775128231543994,-0.11273230924235209,-0.08469071223173588,0.002841564375271314,-0.04933454821640797,-0.00801005789978236,1.6829219231579586,0.052350196775158064,-2.1576900808834467,0.08677715426519927,0.02244586050410539,-0.03574215378274296,0.20230143074683396,2.2890625
0.22861051648476596,-0.014017890447946319,-0.060993959393877625,-0.04567932961613363,0.0011884850182830261,-0.02600735260459913,-0.004100421251523265,0.9059376448015263,0.028323663448676713,-1.161309681846563,0.046748741782580025,0.01187709364051612,-0.01916158690057214,0.10857686023906382,2.296875
-0.322393321060808,0.0190646380828423,0.08458213274348418,0.0640890178563077,-0.0034629646704588783,0.039625509658326806,0.00690100344844973,-1.2802422299286078,-0.03928038347268095,1.6423326316970217,-0.06588754221998473,-0.017860666308273536,0.0274964537333126,-0.15512834802059566,2.3046875
-0.2137909278697751,0.012543754850273611,0.055890884024345014,0.042452915583210245,-0.0025463344150688507,0.02668867423657875,0.004732877791849758,-0.8493828712903032,-0.02595665229120568,1.0896932866858353,-0.043690016194398856,-0.011999851646982404,0.018300462093759875,-0.10315381816527068,2.3125
0.3517663043415743,-0.021411771819173513,-0.0935272319695849,-0.07021343526663314,0.0022277681922778458,-0.04067632214761459,-0.006558910851549068,1.3944888772183999,0.043431130392876736,-1.7879532317580902,0.07191947865006888,0.018522560561579433,-0.029589975128639933,0.16750385313279587,2.3203125
0.41191499954189953,-0.025021349640748067,-0.10941720327876517,-0.08219331431047464,0.0027356247258079045,-0.04783870473768534,-0.007760002155609298,1.6331216176988503,0.05081028216659406,-2.0938391926791864,0.0842179433739211,0.021768412137423365,-0.03468354850332431,0.19627686120615617,2.328125
-0.014184950297108522,0.0005623547763929098,0.0031601384963010543,0.002692580096416636,-0.0008611953533272706,0.002915937304827059,0.000747285565213401,-0.0574721813991962,-0.0014684841239843132,0.074356788634792,-0.0028821387126101673,-0.0012279947014873797,0.0013979219341669227,-0.00765111395335307,2.3359375
-0.12613708101389715,0.0072830285439878985,0.03274075758856613,0.02499396100513205,-0.0018064534870046501,0.01624977933534571,0.0029826944459826286,-0.5016298870671797,-0.015204286785527193,0.6439279682682623,-0.025769260155519523,-0.007269610494655723,0.010878998711916665,-0.061224262830498005,2.34375
0.1353871279085989,-0.008419233051056354,-0.036353318040542766,-0.027103721508159904,0.00040078478695243806,-0.014900031958175191,-0.0022383537643313714,0.5360526279443198,0.016883096989944342,-0.6868729483353165,0.027686411154424478,0.006844876134296311,-0.01126433356961618,0.06393815708201106,2.3515625
0.20000456603796304,-0.012298585783902275,-0.05342836757279116,-0.03997202357595245,0.0009461242460191271,-0.02259398258953455,-0.0035282186153874715,0.7924655545209665,0.024814146498301576,-1.0157008589155823,0.04089282336733563,0.010331527672608956,-0.016734394673129,0.09485969967584237,2.359375
0.07964266660882369,-0.005073641307073899,-0.02163205517624322,-0.015993285488923037,-6.962880745351236e-05,-0.008258133065661883,-0.0011254102035617305,0.31487244911363316,0.010050773995750648,-0.4033105991389516,0.016289549005096243,0.003834752503788475,-0.006542350438941741,0.03726150796358682,2.3671875
0.12622806335143297,-0.007873490633503127,-0.03394218446039397,-0.02527864322003908,0.00032390680229842084,-0.013811878121757963,-0.002056039031359553,0.4996475431229211,0.015768343988979836,-0.6404092752577164,0.02581509492874348,0.00634930384581167,-0.01048821235061684,0.05957225617452423,2.375
0.08070382497154166,-0.005140151200629077,-0.021917601989884777,-0.016213264557799534,-6.038794077977473e-05,-0.00839229053081617,-0.0011471287454444456,0.3190624671359652,0.010181156959954621,-0.4087185852633579,0.016510766390732737,0.0038937504467471025,-0.006633691888761,0.037793343605326185,2.3828125
-0.384496573849629,0.02279447866647223,0.1009882708248824,0.0764655898696324,-0.003987562132123991,0.047020645558265205,0.008141499244850884,-1.5265830424501665,-0.04690023795318304,1.9585519750196172,-0.07858650875646615,-0.02121250861840056,0.03275982808293381,-0.1848585984509511,2.390625
-0.7444296659895706,0.04440817424489242,0.19608909721042114,0.14817733021680646,-0.007026116306212499,0.08989605458758963,0.015328257733408164,-2.954647802304282,-0.09106645904762276,3.7901572615917316,-0.1521674611671008,-0.04063907960900747,0.06323947432109055,-0.35713969739024554,2.3984375
-0.40335241206672223,0.023928849249709033,0.10598230442481016,0.08023071693818573,-0.004146929204866428,0.049270828414115495,0.008518146186569382,-1.601459763402368,-0.04921930231619175,2.054583315888962,-0.08244563507985612,-0.022232120422378165,0.03435634913525879,-0.19390659392694415,2.40625
0.2007102316052703,-0.012342278026571594,-0.053614663433178805,-0.040115874323541,0.0009525570485316796,-0.022680335025444184,-0.003543102287107802,0.795167019360025,0.02489952015411898,-1.0193074490036005,0.04104119598977717,0.010369584719855218,-0.016798287441641954,0.09521216831121793,2.4140625
0.3220836689508546,-0.019630688701076926,-0.08568888054333888,-0.06430441785638434,0.0019775826069566844,-0.037138515095349496,-0.005966894490849114,1.2767239606574767,0.039794311418991334,-1.6370341961255848,0.06585771031085254,0.01692121641690749,-0.02707887733435082,0.15331805393192083,2.421875
0.1057049143363968,-0.006637668560183171,-0.028522335248947702,-0.021200292479693936,0.00015114973843345541,-0.011367184629562044,-0.0016466348992398886,0.4182351724293196,0.013243314926901732,-0.535951612156283,0.021625082662943006,0.005243705050276573,-0.008755883179788308,0.04975686128344712,2.4296875
0.09675774458082459,-0.006098155414550925,-0.026154848015800366,-0.019413185477055707,7.522090583675851e-05,-0.010301013078581656,-0.0014674399787303022,0.38274791558324345,0.012141835137954327,-0.49025609236713696,0.01979027684303841,0.004760419366185732,-0.007995656036037156,0.045460853608397286,2.4375
0.19822967940095554,-0.012189203818837759,-0.052962710339114476,-0.03962238844559121,0.00093130335091007,-0.0223835314468982,-0.00349281987088801,0.7853317836435041,0.024592190137163975,-1.0064881324018284,0.04052878225941294,0.01023603313722998,-0.016586368684755846,0.09401710823520003,2.4453125
0.05015228420107361,-0.0032994247652294107,-0.013840736684748643,-0.010120694518770016,-0.0003187427168093899,-0.004744018239753261,-0.0005362197307005672,0.19780002571634153,0.006425981869734716,-0.2530620009721548,0.010260694427778855,0.0022438802288163753,-0.0040475388963582045,0.023145386821219402,2.453125
-0.12135931257000669,0.006994527870620312,0.031473708681129184,0.024044749016740963,-0.001766212038647433,0.015679910916233736,0.002887671825379044,-0.4826277193662865,-0.014616273293296204,0.6194948429090077,-0.024792816795396508,-0.00701161144525107,0.010475267950858796,-0.058938985994118356,2.4609375
0.06331146863934638,-0.00409743888240697,-0.01731767036581593,-0.012749427476418489,-0.0002070592016227913,-0.0063229643918343344,-0.0008000101353735322,0.250192041808269,0.008044623492008431,-0.3203364222674928,0.012963376443440845,0.0029567357486952016,-0.005161952342638554,0.029451876414927247,2.46875
0.3254096733699947,-0.019834578256596527,-0.08656678035434232,-0.06496461546585332,0.002005350227324735,-0.037541441374197196,-0.00603311917941309,1.2900992924019887,0.0402061332266991,-1.6539784989057826,0.06654058711520969,0.017102052219167708,-0.027355093989314502,0.15489875933866326,2.4765625
0.19414522596041747,-0.011949846544042656,-0.05188454806256616,-0.038809257764381974,0.000897092209353031,-0.021900564887737093,-0.003412004192815041,0.7691575402590416,0.024099753077641315,-0.9858722823248833,0.03970123164200044,0.010015439608774084,-0.01623938534173403,0.09206881561120284,2.484375
-0.14074941473973676,0.008160769170020317,0.03659908388815196,0.027912265827407082,-0.0019298858481152424,0.017992564362030786,0.00327465159836476,-0.559640761457333,-0.0169940701952694,0.718302037555217,-0.028762771014251766,-0.008060317741340736,0.012118754968736075,-0.06822063740668595,2.4921875
-0.22426293086890625,0.013175298174168385,0.05866221947487565,0.04454806060777433,-0.00263471621106265,0.027939291812716142,0.004942024832324823,-0.8909116715032008,-0.0272417843070728,1.143150227341246,-0.04583529603664482,-0.012566768857516529,0.019190123157498237,-0.1081814869146067,2.5
-0.14293767759840462,0.008292097824695407,0.037173090897130195,0.0283433605899499,-0.001948287222084007,0.018252246772714868,0.003318325232046508,-0.5682161898360869,-0.0172632864548805,0.7292699373701548,-0.029210803445395225,-0.008176783719752284,0.012303152698830738,-0.06924728045518737,2.5078125
-0.18196216347721958,0.010636246808509567,0.04748618671535171,0.036118870821783194,-0.002277962389120396,0.02290170670729023,0.0040976355442489945,-0.7231417431189686,-0.02205488563209455,0.9279804189199625,-0.037188300503514043,-0.01028329217873042,0.015606889999726857,-0.08793477963804469,2.515625
-0.1589876993201902,0.009257495613711081,0.041418118825710004,0.031543468553384066,-0.0020840117250535447,0.020164825250865638,0.00363888571671246,-0.6319979166912736,-0.0192388023194367,0.8111941264639058,-0.03248851986377103,-0.009043032571340094,0.01366038626855234,-0.07695474242003361,2.5234375
0.11333927028244574,-0.00709483612572131,-0.030538942019041115,-0.022713269441062122,0.00021519880190586153,-0.012275212387551943,-0.001798607442467113,0.448622191761258,0.014179150460251606,-0.5746174928782068,0.023185857175602547,0.005656218605906558,-0.009400170062267354,0.05339469694884181,2.53125
0.22988407002340655,-0.01409432552356733,-0.06133807817733319,-0.04593627914507251,0.001199240108280162,-0.026160071992448616,-0.004125580208552626,0.9110792705025904,0.028485049738037338,-1.1677676108457935,0.047010121034965734,0.011946848875386478,-0.01926748049208727,0.10920183890767825,2.5390625
-0.1130440734039069,0.006494977251627425,0.029270253234763163,0.022384319438067807,-0.0016958733164402016,0.014685564659890418,0.0027215564606060216,-0.4496446527330573,-0.013591887306912818,0.577253464612948,-0.02309755692964576,-0.006562778707161233,0.00977399803161925,-0.05492423282632943,2.546875
-0.39311544787233166,0.023311022085226507,0.10327911002266008,0.0781887673060749,-0.004060655200902583,0.04804764244010148,0.008313761495075954,-1.5609652166757901,-0.04796024720319697,2.0024499450409077,-0.08035566961990685,-0.02168061916007321,0.03349177998269605,-0.18899896920769624,2.5546875
-0.08518741671920951,0.0048222975339441065,0.021928929881359478,0.016848561593536128,-0.0014616108002154433,0.011374560405932503,0.002165912653462033,-0.3392209833113025,-0.010178887502751274,0.43547379491098154,-0.017409478767925413,-0.005062666046555366,0.0074157136070817035,-0.04165107967644389,2.5625
0.37641113368202345,-0.022892815766280578,-0.10003095463135808,-0.07511402810990336,0.0024351044564866605,-0.04360470812349989,-0.007050273876368077,1.4922523296154715,0.046458928426505584,-1.9134885669606168,0.07695433283707567,0.019850573380498827,-0.03167495954091947,0.1792690867544735,2.5703125
0.33265786888485493,-0.020264425535708435,-0.08847698891698458,-0.06640474486443801,0.002066242980447185,-0.038395614163284644,-0.006177005584809092,1.3186915272035564,0.041087788080889656,-1.6908245200421845,0.06801559299957931,0.0174912035607308,-0.02797258426007495,0.1583430587210439,2.578125
-0.01040263324569846,0.0003356966890956771,0.0021556065460362037,0.0019335666929584318,-0.0008291711825404098,0.0024636624881894022,0.0006718488972536662,-0.042358223580679456,-0.0010071756962296808,0.05496817424651591,-0.0021086860781719765,-0.0010216842072993536,0.0010765602413898994,-0.0058263445273009406,2.5859375
-0.10468525745299771,0.0059974902549588096,0.0270606344578235,0.020713623082435614,-0.0016247914560884034,0.013693915389818612,0.0025537889764962666,-0.41638919931287355,-0.012572307215002472,0.5347751039366078,-0.021381580528770174,-0.006109637447713527,0.009060592523251821,-0.050930885893691574,2.59375
-0.013231480175577183,0.0005048177254038825,0.0028965548501276813,0.0024945738673719953,-0.0008528565375570026,0.002801083951657702,0.0007279390675035016,-0.05357910303380112,-0.0013470235806721737,0.06931882566499716,-0.0026891101374483654,-0.0011747754553902772,0.0013169405759704724,-0.007152255477506593,2.6015625
0.0007298529873573549,-0.0003360912925384161,-0.0007903249942818216,-0.00028391785389660085,-0.0007351898747115422,0.0011352258763617804,0.00044960454883495886,0.0018070104953436328,0.0003659838526088454,-0.0018243455989770108,0.00016397688102779155,-0.0004214359171230415,0.00013575670803542934,-0.00047522585400713033,2.609375
0.0956034141929544,-0.006033542275566777,-0.025853719835841206,-0.019180506443024856,6.557774110244684e-05,-0.010168044223501213,-0.0014444821909045942,0.37830113755759465,0.012005612683921063,-0.4845316970087976,0.019559823050803577,0.004699486329982501,-0.007896333054549289,0.04492097719766972,2.6171875
0.2856330251790603,-0.017442439978750342,-0.07605682938393213,-0.057034711953138494,0.0016696330227511371,-0.03280141460098076,-0.0052387127944652214,1.1322518084086273,0.03532299271505636,-1.4513138469914089,0.05840617117304447,0.014954513406031494,-0.023986291477915013,0.13585835603609142,2.625
0.11366487803720932,-0.007116268729363542,-0.030618927902931813,-0.0227742421454181,0.00021783450389609502,-0.01231540722168554,-0.001805181181596611,0.44982437574201833,0.014224046040625812,-0.5761548470196233,0.023250179527729602,0.00567142782480123,-0.00942341460578677,0.05354362927513323,2.6328125
-0.38753838587932593,0.022977027578283994,0.10179946571829288,0.07707484116892666,-0.004013210936908816,0.047384560122738874,0.008202087938755055,-1.5387775376902635,-0.04727305304222564,1.974124498187339,-0.0792077139351813,-0.021378824968916983,0.0330182576103398,-0.18633804366122472,2.640625
-0.43829493490708726,0.026024585857397527,0.11520631427185674,0.08718819598233549,-0.004441856970938964,0.053432067717280665,0.00921579716170997,-1.740055917810822,-0.05350156811371511,2.232244933856051,-0.08958437434931114,-0.024117188875808,0.03731589287858027,-0.21063051500469243,2.6484375
0.10348994161955077,-0.006505215070890116,-0.027930202452957475,-0.02074186985901684,0.00013130684393199154,-0.011096838612950827,-0.0016012715551759586,0.409507881875166,0.012972550311158659,-0.5246938787093377,0.02116397339390628,0.0051222026255622385,-0.008563538003243274,0.048664847281072045,2.65625
0.30943885937313953,-0.018871120932396037,-0.08233136499715128,-0.061769564361279596,0.0018695787089462253,-0.03562633645366269,-0.005713232802571905,1.226435324846593,0.03823823623040402,-1.5726584551231966,0.06325878324010122,0.016235208960554543,-0.026004841626750926,0.1472287140442409,2.6640625
-0.19936574402375978,0.011678909979080391,0.05209849369967874,0.03959028204724953,-0.002425337717053535,0.024975087468840744,0.0044453567996584455,-0.7923667395989191,-0.024193092660587324,1.0164268669004457,-0.04075295425034119,-0.011225021744686686,0.017080636396710754,-0.0962771599058796,2.671875
-0.5271597140770299,0.03136219062319007,0.1386909805677633,0.10488831566050158,-0.005191907757646078,0.06401623369343193,0.01098983356806482,-2.0927386420778142,-0.06440985350446882,2.684483926755015,-0.10775654192366005,-0.028913758900074776,0.044839955648306756,-0.2531437475935375,2.6796875
-0.08783827019382763,0.004985895989476194,0.022608450588150537,0.017363478865736137,-0.0014829210787897272,0.011687561121463928,0.002218204955027935,-0.349514976622574,-0.010502237843684167,0.44906562399543914,-0.017943961016283694,-0.005201543451411205,0.00763867920483365,-0.04287390905746881,2.6875
0.4417132996033536,-0.026810477386567392,-0.1173056224590413,-0.0881390585764374,0.002987547229463084,-0.0513895486309691,-0.00835493665497851,1.751497149424007,0.054473043844784366,-2.2456125299358876,0.09031154417690157,0.023379275150335707,-0.037206565862234975,0.21057984048878492,2.6953125
0.4172910254671422,-0.025346269321616627,-0.11085378811172059,-0.08327969537610604,0.0027815392434277914,-0.04848345320840989,-0.007867550947396733,1.6544931669217429,0.05147571338575063,-2.121464668052301,0.08532078670977258,0.02206165247094814,-0.03514156359607457,0.1989045684937202,2.703125
0.15671501170561075,-0.009701422410075385,-0.04200420238399839,-0.031364752380914365,0.0005818045195634312,-0.017445641750774028,-0.0026650093836843736,0.6206295590854314,0.019503880309278816,-0.7955208375277428,0.0320535412678816,0.007997673436343512,-0.013075232946883907,0.07418449792461186,2.7109375
0.032283999909592055,-0.002229577070400719,-0.009116543691659923,-0.006562407992476256,-0.0004690641644412748,-0.0026206984983958947,-0.00018033951086539579,0.1270068560550793,0.004235400746046255,-0.16220162509617142,0.006616002183652961,0.0012801278945647762,-0.0025345787329033704,0.014590105092523979,2.71875
-0.11123732360814981,0.00638804865179604,0.028812971135159505,0.02203943257559117,-0.0016811609743520393,0.014476462252774866,0.002685651532180933,-0.4423887150793928,-0.013377154694328033,0.5682062532887128,-0.022724447862294706,-0.0064668772399193285,0.009621476598360374,-0.05413387225322722,2.7265625
-0.2551326597863026,0.015027133765420078,0.06682811989991498,0.05070306274436127,-0.0028959652842786006,0.03161454332330685,0.005558731301671739,-1.0133356014212376,-0.031033391482252023,1.300358016132187,-0.05214118522705111,-0.014232148670362559,0.02180597366614765,-0.12299081583944231,2.734375
-0.08394560991944669,0.004747915377089212,0.02159027028434564,0.016591562067134333,-0.0014505677640471754,0.01122283378525326,0.00214046101771267,-0.33421115092113113,-0.010026497641641484,0.4291649202131039,-0.017147902880124907,-0.004992480038737783,0.007307764985400016,-0.041026990774070154,2.7421875
0.23114768808599867,-0.014171109077275717,-0.06166453189978568,-0.04618362296613934,0.0012095981793523135,-0.02630749740663245,-0.004150913793239875,0.9159068342197891,0.02863767473654755,-1.174240551489608,0.04726400788498587,0.012012681758024557,-0.019375548886556453,0.1097902985456134,2.75
0.16986211639143348,-0.010490835519900082,-0.045477068840559354,-0.03397419563163604,0.0006923537265132518,-0.019006955156740297,-0.0029271061226696597,0.6728233499104043,0.021120386070261458,-0.8624070323326938,0.03473742336527858,0.00870535883176623,-0.014185526343375417,0.08045754120670832,2.7578125
-0.20249707695656263,0.011867084753153512,0.052896697741109534,0.040204575205546614,-0.0024508946685926863,0.025343928390958736,0.004507624440398756,-0.8044168362734544,-0.02456534586991915,1.0323398905633208,-0.04137916190291865,-0.01138926068682977,0.017346951781846785,-0.09774640880349197,2.765625
-0.3452321137385508,0.020436990187630698,0.09061094010560504,0.06863890538619823,-0.0036558210900427246,0.042343453209732033,0.007357380172314555,-1.370714950642698,-0.042079448854015884,1.758673062372405,-0.07055744410020365,-0.01909213416781961,0.029434457921746836,-0.16605453480295834,2.7734375
-0.13281475440800578,0.007682074707055266,0.03450201610177733,0.026326089197342882,-0.0018628594353170761,0.01704249529809884,0.0031161244334373,-0.5280610495689347,-0.016020553535824836,0.6778144354554171,-0.027137427160635635,-0.007629949234618503,0.011446800723060221,-0.06440886186797683,2.78125
0.09897006213771292,-0.0062344466411079335,-0.02672829552863379,-0.019843316678953792,9.357564087731489e-05,-0.01056270068558517,-0.0015115627984055606,0.39143843905336007,0.012415177551803156,-0.5016071859616157,0.020240456130007946,0.004877110329782445,-0.00818129111240021,0.04650121816040041,2.7890625
0.15801811154523351,-0.009777199029525846,-0.04233238473824033,-0.031606227812710275,0.0005920228667284091,-0.01759315267272112,-0.002690345541103518,0.6256991004484355,0.019658970543345047,-0.8019995310066932,0.032308340178607634,0.008063696245723251,-0.01318165062275866,0.07476335032098695,2.796875
0.11362663156285707,-0.00710922103051165,-0.030609091831707493,-0.02276763941322783,0.00021738123984970027,-0.012305885314775965,-0.0018040589366350886,0.44961071243774064,0.014211240945828882,-0.5759816004778792,0.023233607012971082,0.005669316605326674,-0.009422162841105563,0.053536268336696495,2.8046875
0.05272787435111111,-0.003453273053645481,-0.014518981744461529,-0.010638655261030259,-0.00029673304531236425,-0.005054332501997328,-0.0005881860108418979,0.20800871062689313,0.00673869618190149,-0.2660809993278739,0.010786226833009737,0.0023835149679581136,-0.004265018671900231,0.024397411050970694,2.8125
0.027059185818175388,-0.0019155482810794355,-0.007735870040676684,-0.005522987378357884,-0.0005135614406454101,-0.0019973952961771587,-7.558599775187337e-05,0.10616944629836984,0.003592042194668974,-0.13566521033644102,0.005540842789089264,0.000997797691436661,-0.002092385172819192,0.012102145366715642,2.8203125
0.051212592099916764,-0.003368773326339464,-0.014118561225891212,-0.010332774799734547,-0.00030965285357862477,-0.00487322187315112,-0.0005579361639073205,0.2020177904203522,0.006559477200180993,-0.2588049444379704,0.010480692011356207,0.0023009311863259993,-0.004139742403263821,0.023652739160319795,2.828125
0.08120101164935897,-0.005169541909413595,-0.02204317780509671,-0.016309713599871014,-5.622755400294512e-05,-0.008445745735416127,-0.0011570736026398137,0.3210334931144713,0.010239405231376394,-0.4114355998831686,0.016614527345771173,0.003919955766348727,-0.006680448770296101,0.03800748557840912,2.8359375
0.09143589947233588,-0.005782431864309632,-0.024748937170930876,-0.018352635336712365,3.040952437822535e-05,-0.009667106722711831,-0.0013615583868289102,0.36167887915949565,0.01149354015172248,-0.4633692565134675,0.01870953213581663,0.004473227787248165,-0.007546207790660897,0.04290943284925084,2.84375
0.03947056334407569,-0.002660837906861852,-0.011021831556348102,-0.007999800284052797,-0.0004083528912074663,-0.0034784908129687547,-0.0003236572752578393,0.15553049990743,0.005117248990224154,-0.1987884122286225,0.008086183922198802,0.0016689910789677847,-0.003143432752580485,0.01803472764064792,2.8515625
-0.18904284698874332,0.011060592687208062,0.04935274272542972,0.03752732301050828,-0.0023376240584469465,0.023740034933918557,0.0042391600505532505,-0.7510976993590529,-0.022921414608380337,0.9641088984842836,-0.03862965959514355,-0.010663702724406648,0.016208991330780874,-0.09133370048055303,2.859375
-0.49888848662620844,0.029665316321211065,0.13121805378680496,0.09925457755025087,-0.004953259721938349,0.06064506492295027,0.010425468944816314,-1.9804140398562113,-0.06094090979716866,2.540833009702243,-0.10197065917894224,-0.02738540072251307,0.042447536726595694,-0.2396135516142288,2.8671875
-0.4710682799914031,0.027994856804225147,0.12386557254603767,0.09371013765399078,-0.004718248450389072,0.057330682337264516,0.00986992828861916,-1.8700071323613106,-0.057526004654410864,2.399237300708358,-0.09628348121143988,-0.025883448684514865,0.040091813227413564,-0.2262809576998792,2.875
0.04423406330672893,-0.0029472167887819537,-0.01228757238350173,-0.008947614670252967,-0.00036817025359243044,-0.004045614073875706,-0.0004185401236234786,0.17449917994773295,0.005707440690627638,-0.22306748959898115,0.009056430906299633,0.0019267815086168377,-0.0035446636869600817,0.020347223045217716,2.8828125
0.5628005457854076,-0.03408596083199069,-0.14929771589083168,-0.11225293163901927,0.00400938476352122,-0.06581039777241612,-0.010772488406345964,2.231900454549742,0.06933893181965435,-2.861978610978281,0.11506343973897237,0.029912426831697016,-0.047458424968255815,0.26852160173410733,2.890625
0.6386816146372115,-0.03864248418682333,-0.169337171641278,-0.1273673715493362,0.004650026840021229,-0.07484875021199167,-0.012288059044373323,2.532865582262021,0.0786450928620532,-3.248078997226285,0.13057495731058363,0.03400645373058702,-0.05388564454839585,0.30482297753392507,2.8984375
0.40110057438225716,-0.024375064145703135,-0.10655687545507826,-0.0800354498166,0.002644481697048879,-0.04655003282419584,-0.00754454180390349,1.590145490927102,0.049487123169128074,-2.038977517392744,0.08200625622227996,0.02118317711580014,-0.03376785951838012,0.19110539499918977,2.90625
0.052422137240015855,-0.0034371500496467576,-0.014432598210868014,-0.01057175990826456,-0.0002991246199028172,-0.005016107174187667,-0.0005822026077003711,0.20670630568247353,0.006703035633114585,-0.26465317626121454,0.0107263195558077,0.0023645567153724877,-0.004241172619737251,0.02422351448592632,2.9140625
-0.43100275161460383,0.025588635624779803,0.11328672610494762,0.0857333437791155,-0.004380237104560007,0.052566025779843956,0.009070223041867276,-1.7112451219127873,-0.052610320701558064,2.195148120443065,-0.08809664987371649,-0.023724815501272527,0.036696211245798124,-0.20713633560286276,2.921875
-0.7619238042632457,0.045456337450570365,0.20071601102148492,0.15165449982904985,-0.007173822142464231,0.09197930058249316,0.01567709757958665,-3.024092364879403,-0.0932141074405753,3.8789271160150105,-0.15574288016666712,-0.041582508584799595,0.0647190219743663,-0.3655002392722855,2.9296875
-0.4364347993212216,0.025913216285160728,0.11472221819480499,0.08680915767320974,-0.004426277628240972,0.05320800151533589,0.009178242922390903,-1.7326792786876006,-0.05328042448159371,2.2227182314562968,-0.08920662962954634,-0.024015066896586244,0.03715622308752785,-0.20971635963633298,2.9375
0.2795843659816181,-0.017076328817478205,-0.07445111942735837,-0.05583148193742539,0.0016178897427986986,-0.03207477694588911,-0.005117328601235569,1.1080881185649434,0.03457206657414678,-1.4206134054692898,0.05715996754244853,0.014626961392635352,-0.02347688061093671,0.13295781693773023,2.9453125
0.47747259634746647,-0.0289568980483113,-0.12673415468080151,-0.09525003047647711,0.003288461980051521,-0.05564242280495167,-0.009068099667236285,1.893174241420526,0.05885438560291818,-2.427515674403409,0.09761171642978902,0.02530539627669678,-0.040234215320091665,0.2276551470890206,2.953125
0.041325035964476925,-0.0027709934183045293,-0.01150589618693107,-0.008362254212689402,-0.00039291200004819895,-0.0036946044401967,-0.0003604777037473494,0.16279028706552615,0.005343657848071228,-0.20823904554504213,0.008457920387337208,0.001767060524002225,-0.0033011372409490745,0.018920270586113827,2.9609375
-0.1529456771389354,0.008891484614515605,0.039814749221766706,0.03033551048754663,-0.0020325877398507147,0.019441220972814876,0.003517816984833519,-0.6079299035668236,-0.018489671054238575,0.7802684531845424,-0.03125029625476926,-0.008716243144265704,0.013149680093640885,-0.07404576146206684,2.96875
0.2307627012945852,-0.014147328342680817,-0.06156749099643015,-0.04610809738882597,0.0012064959300800877,-0.026263525318642213,-0.004143157255313245,0.9144429029384347,0.02859216912188897,-1.1721599311788524,0.04718914634684305,0.011992744303703796,-0.019342439439305414,0.1095980716060335,2.9765625
0.4474260775700019,-0.02715537855999208,-0.11881294984894544,-0.08926993549232982,0.003035563482132723,-0.052070580057869985,-0.008468797450303068,1.7740849656540478,0.055177055408227184,-2.2745733970945596,0.09147981494498625,0.02368584159666671,-0.03768825714574468,0.21329062938343046,2.984375
0.03451906564928337,-0.0023640825613974858,-0.009723933917027678,-0.007011730882923802,-0.0004497198995488931,-0.0028917003297370815,-0.00022489438080684654,0.13598283579567016,0.004515794914267803,-0.17355243250845118,0.0070752418874182686,0.0014025179447068495,-0.0027217039518983785,0.015684203304373794,2.9921875
-0.4305297694066387,0.02555684154610916,0.11314391371661928,0.08563187524333558,-0.004375506983536714,0.05249809149493885,0.00906007977707294,-1.7090222482068251,-0.0525442266910975,2.1927306162287787,-0.08798898733837578,-0.023694493273083747,0.03665939692516511,-0.20687486093011298,3.0
-0.41010118866377726,0.024329963941635214,0.10775937374362318,0.0815638775913036,-0.004203703987540582,0.0500666412770607,0.008652461626355606,-1.6280589752483976,-0.050042788801456,2.0887906499341744,-0.08381666529561091,-0.022592640353263943,0.03492921027112767,-0.19710888055011627,3.0078125
-0.2082733726947019,0.012212924775992881,0.05445647113895875,0.041363300252838055,-0.0025005818741415035,0.02603084714774254,0.004623022546270115,-0.8274900083105377,-0.02528764623403954,1.0618984059657162,-0.04256533734589505,-0.01170275496542679,0.01783769401166897,-0.10054426640960838,3.015625
-0.16790515170125203,0.009789742106423579,0.043797534836554186,0.033325239250801796,-0.0021597767074876075,0.02122527448953859,0.0038169159564317022,-0.6674363188165775,-0.02033712751187405,0.8564541563297812,-0.034317136700570454,-0.009526189238520307,0.0144182902209406,-0.08123610059178384,3.0234375
-0.004387939385900294,-2.8284012404159936e-05,0.0005794826893798068,0.0007458617797465144,-0.0007789643083740869,0.001751250914087288,0.0005520208224883751,-0.018686479517511206,-0.0002667128379883446,0.02419165059846692,-0.0008915062219670046,-0.0007017481148336036,0.0005698162838738718,-0.0029579942877868116,3.03125
0.4598704321045245,-0.027902460689058075,-0.12209872387051066,-0.09174784440294219,0.003140424976122504,-0.05354244747903034,-0.008717232567667547,1.8232835693307987,0.05670477666155784,-2.3383140253509445,0.094013654957136,0.024354302093606808,-0.038746167515093195,0.21925591520773272,3.0390625
0.7031587073584029,-0.042508025602016664,-0.18638327231683455,-0.14021671913187728,0.0051942298058899865,-0.08251774222636565,-0.013574657102607994,2.7885998218263475,0.08655688439021685,-3.5762061561248757,0.14375090128662502,0.037485606023319004,-0.05934963417168501,0.33569382056470753,3.046875
0.32324552903139314,-0.01969621826318188,-0.08601067146136387,-0.06453308619502543,0.001987264239370078,-0.037268983771279615,-0.005989402015067696,1.2814251444014806,0.03994062674200968,-1.6428880401186006,0.06609506226318815,0.016984215959991566,-0.027177909477973588,0.15386394209058507,3.0546875
-0.2202695907221468,0.01293635820428572,0.057586449594911625,0.04374197363320257,-0.002600719332676808,0.027462142176948603,0.004862361893075158,-0.874915874631249,-0.026747826028649124,1.1228606448935616,-0.04500772296100714,-0.012347509358417304,0.01884975068129996,-0.10625674339932824,3.0625
-0.3620330948364445,0.021445808327930416,0.09505115064815697,0.07198705179745493,-0.0037975281689461566,0.04434192155195138,0.007692706276354326,-1.4374798627829137,-0.044144891945650605,1.8443170740504848,-0.07399012327542417,-0.019999545958748328,0.03085678820890103,-0.17410665517752805,3.0703125
-0.29544139000516806,0.017446244164750133,0.0774786997769419,0.0587295722783807,-0.003235762238961583,0.036409254265821485,0.006362896579214394,-1.1734116122822176,-0.03598164746774696,1.5055716687980334,-0.06038176549576445,-0.01640760856471411,0.02521852149869864,-0.1422556300572816,3.078125
-0.38033730186088827,0.022544352298958157,0.09991945842500982,0.07564518480465804,-0.003952719223007453,0.04652315933782869,0.00805790282819442,-1.5102142718696128,-0.04640290244897229,1.9375600459463895,-0.0777380565317647,-0.02098960631303309,0.03240753668694558,-0.18290496672816572,3.0859375
