AF3,AF4,F3,F4,F7,F8,FC5,FC6,O1,O2,P7,P8,T7,T8,time
-0.341416988480515,-0.21822118399681834,0.17077590864125358,0.8149238044525985,0.38026766598641826,0.1575988263943944,-0.22796803263395057,-0.9979387755722448,0.10947091235377888,0.07980500172753383,-0.032578880427264145,-0.019931452175665963,0.13425514432905758,-0.009313216897580823,0.0
-0.36624081558596905,-0.11323834535772728,-0.059353556226744986,0.7584416628262638,-0.46286330939648024,0.24929215532720922,1.3497559118789508,-1.5876546580780055,0.056511145326201724,0.09214059128144082,-0.010849926272363789,6.481770959352455e-05,0.07329001034632396,0.020010840366736667,0.0078125
0.20262050814383317,0.272302466617553,-0.38884052548849923,-0.6174626181837305,-1.2631163550982634,0.002015345799714733,2.0390602899619084,-0.029578010258051582,-0.13766875305287096,-0.039224249053113454,0.047265933888138024,0.03721146704352255,-0.16408846505664415,0.039960273872240264,0.015625
0.03373767298795468,0.02972122980579369,-0.03366773606144932,-0.08560720418464103,-0.10148069482146044,-0.00968119727164266,0.14406524805637083,0.05646435930382358,-0.01530060080637502,-0.007135856256019783,0.004508486465194518,0.003419392674531663,-0.01859477599158372,0.0022281584362828836,0.0234375
-0.5914185459959106,-0.5070830904254066,0.5556313820089389,1.5352771995982213,1.5939758503397246,0.18685768239409134,-2.106894491280033,-1.1708407948721433,0.2553650820135181,0.13112970876758395,-0.08187344858813192,-0.05750889387733677,0.30843738324982956,-0.04779245269794755,0.03125
-0.2645755997391831,-0.31846712790108783,0.43205758857528087,0.7753063582796224,1.3706612002233105,0.02293272608540977,-2.146271158854074,-0.1339577687495343,0.16048684747938885,0.05386390909515963,-0.05505548702172368,-0.041986577993770396,0.19118273726250593,-0.044445260280631164,0.0390625
0.6899187661795722,0.32549449900375643,-0.11558131182003228,-1.5320973277433905,0.046991215174243164,-0.3937010133402296,-1.0270585424526897,2.492594319325082,-0.16399406222291138,-0.16672160105710415,0.041842201999488016,0.019882394392980677,-0.2055026351915923,-0.01157266733949529,0.046875
0.6959245916217562,0.3486281875274647,-0.15768652930127042,-1.5653005421992081,-0.10010211035343461,-0.3834411350626903,-0.7652839703009097,2.4263430566606075,-0.1758043764581759,-0.1670612771489741,0.04625891282452739,0.023684787172619872,-0.2191763524804631,-0.006567173041202227,0.0546875
-0.20350674186002093,-0.1695792188250375,0.18020057454541502,0.5233869238597729,0.5075348629495557,0.0681120583378678,-0.6495057891445144,-0.4286240033420465,0.08512789361734528,0.0455823014949663,-0.027404354102895725,-0.01887092519479279,0.10274090988234581,-0.015508864290504543,0.0625
-0.6669576730525139,-0.36121485310319906,0.20342514548739668,1.5275291448492676,0.27860109890339085,0.35060327647085376,0.4017824686293893,-2.2217645690537418,0.1815166048681083,0.15918264480880925,-0.050357446467318365,-0.027444833073699885,0.2245397926632651,-0.0014794139458347729,0.0703125
-0.5614824055421747,-0.263124693467757,0.08931168723021264,1.2467179214795918,-0.060071492661036736,0.3222083786385047,0.8783273915904528,-2.046424919629315,0.13199265846664252,0.1362199141139134,-0.03429087916054393,-0.015839602963129185,0.16497594464161386,0.008779683205575517,0.078125
-0.6019841686812327,-0.36967709999303217,0.2716855375143384,1.420142861885054,0.5684592692197311,0.287169106452243,-0.21562384397035425,-1.8183642004707512,0.1857926919481613,0.14129032057953644,-0.054174055179290206,-0.03250864638388578,0.22814233962376612,-0.012273865327720913,0.0859375
-0.4480755608287498,-0.29520311478173944,0.24237062068058116,1.0762816105604027,0.5677070309320029,0.20040560374400532,-0.42412169259225263,-1.2684816985213248,0.14846813760318506,0.10413667223995006,-0.04438151229993613,-0.027738090741261226,0.18136673729404448,-0.014286626924829508,0.09375
0.4202973765974238,0.396040784148177,-0.46701312060372463,-1.1224915944538083,-1.3952451835279331,-0.10875622672692246,1.9833364881786966,0.6702643239451878,-0.19985471884473796,-0.09086376317262802,0.06478201131866429,0.047221350424617885,-0.2410614552865487,0.04165090991461051,0.1015625
1.0855956120455978,0.9341225065822848,-1.0275376240274832,-2.8146609495695953,-2.9611916933930615,-0.33987471279724274,3.9419196664727587,2.1186422708530994,-0.4711485518496404,-0.2397994745699686,0.1500989679838209,0.10615418449477196,-0.5696464304812113,0.08661254754495307,0.109375
0.6459557893069917,0.5294362621067563,-0.5586227519988113,-1.6481282038026877,-1.5741788086758939,-0.2195645132940216,2.002586382950995,1.371326115933721,-0.2671347401309394,-0.14400835218773103,0.08391811650205365,0.05848343946641661,-0.3237435290336767,0.044723802234823806,0.1171875
-0.04297222809524521,-0.16314024182749387,0.2933682694514005,0.23478321546480516,1.0207514825195316,-0.06991903655351991,-1.8092262756137714,0.4508101368337237,0.08217262496826966,0.002954592899422631,-0.03142205405427895,-0.026583241833915663,0.09572487032183004,-0.03535491847262128,0.125
0.05072239607548202,-0.19208915118235176,0.42446102013207077,0.09644222253629332,1.5535780289471026,-0.17187075199671706,-2.913245986170847,1.1024643342353562,0.09680376917538695,-0.02362203128286912,-0.040271340601855415,-0.036869705575785776,0.11070560212369086,-0.05490926679842906,0.1328125
0.358396494546016,0.13256307110660143,0.013049340501354909,-0.759162881476091,0.28290304433871466,-0.22831693981586484,-1.0048870831416654,1.4465404362325518,-0.06710857921670126,-0.08837588021277815,0.014308577166881714,0.00384929874102959,-0.0855787924940183,-0.015304046928013886,0.140625
0.11462262249813364,0.0850316469143153,-0.08193981416082954,-0.282385467158664,-0.22120064010647264,-0.044247378632402606,0.2522411671905094,0.2750046504476693,-0.04330876082462387,-0.025741018193805334,0.012876647686113851,0.00881364812554392,-0.05271642610540328,0.005268014123160425,0.1484375
-0.1914110343200787,-0.16580782693198903,0.1823253423028772,0.49862380081012597,0.5235114759583265,0.059758352570388355,-0.6951662851647656,-0.37574811287999577,0.08333243534271446,0.042535901514065465,-0.027025873088374234,-0.018893060203447602,0.10026235340713456,-0.016251322110649915,0.15625
-0.15085090621316163,-0.200915729095773,0.28439687181971096,0.45962778148341626,0.917979781980251,0.00040817305711242727,-1.4740751495258089,0.004326570331102436,0.10117587403159667,0.02973656664497537,-0.03536624961330674,-0.027364149563501496,0.11986666031562339,-0.030325722607470514,0.1640625
-0.3708426397505789,-0.23678062334916267,0.18515623471169101,0.8838488169338762,0.41294780468679476,0.17105447958653472,-0.2467315592987894,-1.0832912806719788,0.11898000659367694,0.08663272067250652,-0.03530396396683005,-0.02165011186913327,0.14553474652035253,-0.010032463337330877,0.171875
-0.8904747180443832,-0.42150626569009597,0.15079807119023814,1.9817068525799548,-0.06053524436812034,0.5079619027718547,1.3318426425842929,-3.223753152960326,0.2117867276341191,0.21568348170291296,-0.05503586797297238,-0.025880049696567396,0.264581120867494,0.013140054456721577,0.1796875
-0.6523632884332882,-0.3008495836520205,0.09432777446678463,1.4447463805446084,-0.10265261678113068,0.3775140706049,1.0816999159035219,-2.3970352169745333,0.15113071306679896,0.15851052407263713,-0.03881126803612083,-0.0175387040627535,0.1890121592887013,0.011422463361637165,0.1875
0.3690966848377706,0.19858435580851888,-0.1112317426901678,-0.842758698267139,-0.15312594624493953,-0.194260877392158,-0.22400884833526336,1.2263139880108673,-0.10025521604573241,-0.08778766268980247,0.027133935665747465,0.014985324339432228,-0.12459500655457756,-0.0003982671418013697,0.1953125
0.6581971371126215,0.3386423859875454,-0.16672253160903622,-1.4892484751415973,-0.1581164636503856,-0.3569530271584902,-0.6092946779953027,2.2568975058876526,-0.17085610545426147,-0.15756036965283382,0.045537363118637555,0.02397015732505619,-0.21258538183565187,-0.004045917101377444,0.203125
-0.16469420288544992,-0.11493728027800348,0.10150342279865786,0.402374819498558,0.2515464811416973,0.06971589055947469,-0.232916425185663,-0.4431411634745471,0.05755687765550226,0.03812045661706955,-0.017795399244542442,-0.011296455025515805,0.07006250501526752,-0.00718898429003537,0.2109375
-0.47242019854881645,-0.2939829145279449,0.2204241618382628,1.1193520156509658,0.4725794378987881,0.22309187484224288,-0.2164534336662323,-1.4125279802999708,0.147886583666238,0.11080180038331,-0.043364728147416584,-0.026149236514916973,0.18135638324451653,-0.010722374767487634,0.21875
0.42725124732849734,0.24891557753795257,-0.16726781302466134,-0.99304506063525,-0.313933549484519,-0.21212094460462239,-0.006079018020457378,1.337678328989233,-0.1255324649533363,-0.10058612476293564,0.03522717239319985,0.020762345999750912,-0.15503460761017449,0.004326438629582238,0.2265625
0.955478868586244,0.6320503342694271,-0.5235609327571256,-2.2953207434807354,-1.2395690718178125,-0.4250338798356251,0.9667092250194753,2.677114795001889,-0.3187884211945905,-0.22125681265920027,0.09420804721904476,0.05970445578193752,-0.3903384535656405,0.02911980610010636,0.234375
0.167244192252015,0.19642959659899037,-0.26384720452242755,-0.4830165889672117,-0.8392840357185746,-0.01723163970936137,1.3106782835909034,0.09681277944213239,-0.09955521684428756,-0.03392145834417006,0.03333072618277783,0.02566928544940097,-0.11917006338042896,0.025850423766911414,0.2421875
-0.5537616368444087,-0.28663422120456256,0.14298344389534295,1.2559899512278287,0.1363451688791645,0.299734891995704,0.5096288717836739,-1.9013539353494566,0.14394734338722323,0.13290270131434245,-0.039229050203604475,-0.02046003760706696,0.17849904499087094,0.0018934365267142558,0.25
-0.14232337985550797,-0.054782117761711664,-0.0014525572987276328,0.3062315245557249,-0.10454030700246855,0.08981239792874353,0.389259023881229,-0.5734631213960318,0.02735584921858415,0.035367779938803974,-0.006587741256181187,-0.0019148654910534633,0.03443670056518069,0.004679307656899269,0.2578125
0.3484697206489809,0.27747380267865185,-0.2850862143771646,-0.879736506760484,-0.7929544910501979,-0.12367279976871867,0.9791758950344694,0.7717651889610382,-0.14006994064149944,-0.07797833960119001,0.043464980562803526,0.03009143564214185,-0.1700288333393915,0.0217997608571315,0.265625
0.03585706764504421,0.009244853597373264,0.009419289489485215,-0.06922463049386497,0.05350637608979733,-0.025231198224964137,-0.14525544670669763,0.15662552337807434,-0.004942614834108221,-0.00879800851580705,0.0003162917787685226,-0.00033422294193014707,-0.006575169716926619,-0.003136235101273277,0.2734375
-0.22220034161974475,-0.29408864144899616,0.41640604822187405,0.6766632800038307,1.3423183604616957,0.0016376404026149484,-2.1539578282480467,0.00023778217734415886,0.14810494264190055,0.043859481821417294,-0.05160615251603683,-0.039990303571362275,0.1761413593186507,-0.04397665001042399,0.28125
0.1288543977477105,-0.03166887171718172,0.16322183842600244,-0.1978840231800046,0.6717188841148356,-0.13474053612524994,-1.4049275816487168,0.8574862068029958,0.0159459383523065,-0.035965469582767084,-0.010834073245971187,-0.01270362174018001,0.015136136391832249,-0.025550031791901993,0.2890625
0.18476082718015144,0.17387126558567662,-0.20577782109948572,-0.4937658213955644,-0.6151787122358585,-0.04774752385088105,0.8764743814804412,0.29242409497837646,-0.08792804912605848,-0.039878119235202444,0.028301485520100207,0.02072436744947149,-0.1063824126972472,0.017951118358433358,0.296875
-0.4067431001446111,-0.2480154213754689,0.17919346939606726,0.9587471025179765,0.3670609447635764,0.19564647523790182,-0.11435089251652027,-1.239181813550329,0.12444401660576648,0.09566670692382086,-0.03630055453448527,-0.021608028088437283,0.15273753540247456,-0.007996873155729861,0.3046875
-0.6174365638916279,-0.6011410839457433,0.7232815430457225,1.6705582663079586,2.177295378123309,0.147869791514825,-3.1425959881502115,-0.9164832494386647,0.30258249450897456,0.13308272035453989,-0.0997385301039768,-0.07268236243078924,0.36372720663083347,-0.06746330423441377,0.3125
-0.04492835055608197,-0.21121646459325366,0.387811380238022,0.2829522079509971,1.3587740611399177,-0.09982978560936188,-2.4258277516272257,0.6444255197357223,0.10630032788270687,0.0009548211535122063,-0.040888569658751164,-0.034973137550047516,0.12370792461078266,-0.046909791911557114,0.3203125
0.3996494321818587,0.3497473472974504,-0.39048493464307066,-1.0417296106316007,-1.1348929918388908,-0.12103810541909367,1.5350402880439866,0.7515725804713043,-0.17649542801853016,-0.08779843349162313,0.05623733105633305,0.04010950213604571,-0.21362111122295055,0.03295120613339746,0.328125
0.24929343387458838,0.3690093679463954,-0.5464974065189577,-0.793395811291568,-1.795606243891708,0.0247519028761039,2.9522969384217,-0.17951338249395202,-0.18636441448330784,-0.046555336454865745,0.06498077094435137,0.051798496202901,-0.22155798692235062,0.05766157749519704,0.3359375
0.006230462107736953,0.1007105822432319,-0.19807163440823464,-0.10578779952591542,-0.7085974447303746,0.06182797813719595,1.2939902959768383,-0.4026816568085045,-0.05115348757933524,0.0040226734437306105,0.019490611955835433,0.017573104900982704,-0.059443837582909366,0.023501789945931273,0.34375
-0.12110799410868081,-0.010022278369058593,-0.07487768863006611,0.22501980867332674,-0.3526481225295026,0.10071407217205984,0.8144965025342855,-0.6458650143716983,0.004629894555480384,0.03207374922917691,0.0016387341195903567,0.004902653139647742,0.007830274773087073,0.012975287860281758,0.3515625
-0.31101877293209546,-0.04740454337222754,-0.14737849689153795,0.5965579069581176,-0.7413001617733607,0.24348183159859813,1.7840971252486038,-1.5555629571764094,0.023370955456545214,0.08079836591366657,0.00047953186260112757,0.008660844859244458,0.03346838598632,0.02889024059217941,0.359375
-0.2652048352339282,-0.06619291467863991,-0.07406331156694869,0.5342484310764773,-0.4475148816121578,0.1906721272856151,1.1833070785163746,-1.2173942756999752,0.03290789495547215,0.06757703684914156,-0.004775487930376386,0.0028230218300411194,0.043581897120137304,0.0181633458273503,0.3671875
0.2767888247104684,0.11187033104582142,-0.009169481472709129,-0.5948483394438376,0.1501843808826437,-0.16999535300267554,-0.6517410907333094,1.0757247915700514,-0.05656994989203475,-0.06770155094058249,0.012836260243458835,0.004691482924090389,-0.0716876897312477,-0.00963133833562621,0.375
0.6980429479256768,0.31460012621447586,-0.08739880464437519,-1.535167990854135,0.1526717398978351,-0.407971213974948,-1.232843224934077,2.5841145171987083,-0.15858309717790767,-0.16944841045223358,0.039375348120326954,0.017513908281562494,-0.19911738571835,-0.015323665059392226,0.3828125
0.40949885792347196,0.18409002409126518,-0.05028036757152593,-0.9003116148038173,0.09138483791197492,-0.23969619587402324,-0.7268864630596683,1.516612760970504,-0.09290700256047953,-0.09936426456726877,0.022903986445326586,0.010158804628880106,-0.11696620253994042,-0.00936580224558763,0.390625
-0.09158170818050765,-0.11608296019106358,0.16099698664359702,0.2746199918597807,0.5124804665289736,0.004328867201543596,-0.8119968293349195,-0.025123566631946745,0.058223886556290676,0.018497590760624596,-0.020420964605389034,-0.015572075371436858,0.06911528816914161,-0.017197922807524413,0.3984375
-0.10289761870953204,-0.18537816985242705,0.29080409894374387,0.3624051785017986,0.971210538493898,-0.0313135323218013,-1.6348410951021193,0.20628898236665014,0.09320927923974894,0.017852973784947875,-0.03389410682197486,-0.02720508853552878,0.11014815187210313,-0.03286430049541112,0.40625
0.08569696893157075,-0.11229947590175893,0.29134708296828404,-0.041299667490291014,1.1009617745561238,-0.14971332360999498,-2.129450155002908,0.9576759240586564,0.056575576681621095,-0.02867679465430441,-0.025527698327647185,-0.024616415660668287,0.0635100414880891,-0.03985252919143276,0.4140625
-0.17150821732804286,-0.18965573489250942,0.24616924075086966,0.48652762894762863,0.7666219028708988,0.025978037654162334,-1.1650073498131588,-0.16041084071298914,0.0954870717036996,0.03585081254368878,-0.03241293048359573,-0.024265428908784067,0.11385135813280489,-0.024903722900429377,0.421875
-0.6877714102148623,-0.31010020602719013,0.08494588689874773,1.514629042742538,-0.15956271103868117,0.40254728134037915,1.2371890522023,-2.5571120709309194,0.15573202749023424,0.16741839877702966,-0.03939398984714684,-0.017260004530722465,0.19483518879996775,0.0138598557587237,0.4296875
-0.7804937268838399,-0.25812904210341453,-0.09192112312413592,1.6295444112067092,-0.8578941426234394,0.5193316060052589,2.6409224902363593,-3.3040528934517717,0.1292568604293954,0.19508974400342258,-0.026019537413211124,-0.002879695672087153,0.16636277918453174,0.039132580869879294,0.4375
-0.33716876080664204,-0.12202171477215057,-0.019032663773429066,0.7151901290104808,-0.2983699166933512,0.21768605328395416,1.0069711293063786,-1.3859406880483427,0.06098983385141964,0.08389658141256437,-0.013519245143675755,-0.0030695106484908263,0.0775919458456076,0.014000549440537897,0.4453125
0.21884126906491613,0.04724928966122869,0.07532332061823478,-0.4317013919768394,0.4154444602192194,-0.16185083797311398,-1.0609413447462717,1.026895408352941,-0.023877440149921558,-0.05572523820807978,0.0019100353897579874,-0.0036057888681486116,-0.03295672254806473,-0.017932765435492857,0.453125
0.6503128153435133,0.3987054174878803,-0.2932296104595509,-1.5330345033976616,-0.61657666041267,-0.31022791691002566,0.24157093863474077,1.9560658442881638,-0.2011128707671029,-0.15223038061911862,0.05773419929069815,0.0350609712886088,-0.24749584459942045,0.01182812040663084,0.4609375
0.8819227003881951,0.737161609126367,-0.7915326802928407,-2.2669764873603775,-2.250430783496854,-0.29036298815733086,2.9184662692147705,1.812677905341268,-0.3720386512863606,-0.19594003185201037,0.11752649884737465,0.08241086039339585,-0.4502288186465542,0.06492727525188091,0.46875
0.6531390250015999,0.5302070505315276,-0.5545806117150154,-1.6626703178176363,-1.5545407645011915,-0.22534873710462716,1.9561567229628707,1.4080420967232044,-0.2676466073697063,-0.14586972098403586,0.08379473499054146,0.05822602497907288,-0.32423229993453234,0.04402055200664564,0.4765625
-0.01819378938394673,-0.15855451540090287,0.30344895954123,0.18605982730200563,1.0746488862614536,-0.08866308051814535,-1.941007471333221,0.5700911396426062,0.07984822588971463,-0.0033844621849290824,-0.03136088671200315,-0.027145842912077858,0.09283482888406355,-0.03748385276321214,0.484375
-0.45580263921555086,-0.5255937415234643,0.6981118838672358,1.3121339653729858,2.197370394978339,0.05485893929890785,-3.397878230751272,-0.32715227970705907,0.2648802414686861,0.09390087441790401,-0.09008181341081865,-0.06822171678298075,0.3165993485323037,-0.07029625333746038,0.4921875
-0.2542803471961792,-0.24083246652596105,0.28416037228866425,0.6824762525215196,0.845466554931687,0.06547712379572258,-1.19777779318215,-0.4091511160676818,0.12112679429080662,0.05530888919602221,-0.039949689652776545,-0.028747769194803006,0.1455442457647728,-0.02651450915440627,0.5
-0.033272288731841786,0.031311685204238694,-0.08892964435031163,0.030854050312769783,-0.3464122543663812,0.0503687663239817,0.6820556585743555,-0.32685662416396,-0.016151790303035124,0.010814720790449395,0.00700480512360467,0.007381494761607949,-0.018349972086986608,0.011523265270311825,0.5078125
-0.33366803806393897,-0.1758165047447202,0.09221848800579023,0.7613529859899679,0.1027648579703192,0.17862702082104281,0.2707263133979613,-1.134910965919366,0.08824134010568115,0.08000835916272264,-0.024397604161485356,-0.012874513771438554,0.10926678198624867,8.613186638183386e-05,0.515625
-0.5424055567742105,-0.32904218331468793,0.2362434169405644,1.2773828934323634,0.4808236852549717,0.26178641621899434,-0.13545354503933624,-1.6571442479841265,0.16543359045676576,0.12760496974733715,-0.04803338399898623,-0.02856684645043949,0.20325416018125653,-0.010126770907576625,0.5234375
-0.06417112925993551,0.030914984799566305,-0.1129044237206969,0.08528759699743127,-0.4509774727520438,0.07763710215816606,0.9163572199689973,-0.49994847336719195,-0.01595855220557065,0.019051117104322206,0.008023354502481842,0.009037077390061519,-0.01761683158233502,0.015557308814795341,0.53125
0.37708141470406425,0.3320566363022065,-0.37243449827064407,-0.9846257408022826,-1.0863645375054858,-0.11302498125515546,1.475469180083776,0.7007341641015936,-0.16761774406081853,-0.08277966752193519,0.05353104034505723,0.03820820381271215,-0.20310701501676642,0.03155544034897875,0.5390625
0.0061820484714459846,0.0013613371600956353,0.0015587901884493787,-0.011019044744445322,0.007476911323987939,-0.0043264310503092355,-0.020686282870564947,0.023280563597538845,-0.0009138631775031855,-0.001332820374967635,-0.00021000417726830585,-7.649125352432578e-05,-0.0016123802472316625,-0.0010909305289462429,0.546875
-0.4183190463213701,-0.37193016600072987,0.41866656697224347,1.0979833380381405,1.2204381826986228,0.12378727561309986,-1.6612669263825686,-0.7747395596010754,0.1871824798619635,0.09217797144770092,-0.060660624919262524,-0.04294340763592388,0.2258204623079774,-0.03713554418687616,0.5546875
0.11526810162409905,-0.003657034172095575,0.09602754547415983,-0.2000053561351947,0.421047908974161,-0.10370670962992201,-0.926762576140765,0.6591016236248254,0.0016137706450126638,-0.03072979014943779,-0.004817774463452345,-0.00691950874206972,-0.0009225564483626498,-0.016753142862544278,0.5625
0.9230431107120896,0.6257638211815183,-0.5357993189636141,-2.232995878621066,-1.3049256970023038,-0.40078768546345017,1.1299296529534095,2.5227992892133018,-0.31556459624798655,-0.2129703506043721,0.09401992145830021,0.060320195276464,-0.3860926771188079,0.03183441773346294,0.5703125
0.6762494251415866,0.49675879044346316,-0.4689689115551101,-1.6715683148513838,-1.232164226778343,-0.2682797674541841,1.334199777546314,1.68318656257552,-0.25064206249656235,-0.15392082762852924,0.07638006731611155,0.05095585177078977,-0.30527859799840507,0.03259818545586216,0.578125
-0.33301262456740616,-0.24115001051029486,0.22376690126477786,0.8226081648286591,0.5752225390057124,0.1348680061381344,-0.596502162179018,-0.8519488548339247,0.12114557135317781,0.07634812319212754,-0.037477283236116286,-0.02449841203706602,0.14756422749359283,-0.01614139957256687,0.5859375
-0.6893855460786579,-0.5288443721312602,0.5223178844352816,1.7284052646580985,1.4074981854447,0.2593233865076446,-1.6335889664136172,-1.6310658531503595,0.26615911701527545,0.15620712994842934,-0.08303632089097907,-0.05593029629219006,0.3231130118732715,-0.040022796132834874,0.59375
-0.12536898127897145,-0.09538323765681415,0.09252405403081773,0.3138354832287643,0.2448343250472211,0.048096099128047104,-0.2741707582321743,-0.3050966040810663,0.04772105863006329,0.028668035242277963,-0.015173551680403248,-0.009995747637811506,0.05762613925673463,-0.007533471792569063,0.6015625
0.2926888495816478,0.27553737589516764,-0.32523141693282015,-0.7813040516110732,-0.9729743297951772,-0.07562642181561938,1.3854080899668466,0.4651971296197015,-0.13929568771481612,-0.06320705997830689,0.044977540181054994,0.032844532187137745,-0.1679761681025845,0.028789954487077662,0.609375
0.013717725680333108,0.09939981338068521,-0.18916232147390566,-0.11781157990232133,-0.672155701253669,0.054110844196921006,1.2148367264677238,-0.3540362124421255,-0.05053488788507927,0.001911151426313373,0.019026904616145802,0.0169014992957222,-0.05897190007412309,0.02215169871704924,0.6171875
-0.3542449492970947,-0.21813480866198054,0.16098356375006403,0.8381572013901258,0.33717189625916066,0.16876981192313414,-0.13191434153564344,-1.0696436730840315,0.10965539919764128,0.08323628705568104,-0.03215169117949789,-0.019241663626937324,0.1344876569388124,-0.0076631545671229356,0.625
-0.2642192545938556,-0.2255668717089931,0.2460128408517592,0.6856864873624195,0.7031876481309751,0.08429240085078733,-0.9250285719461505,-0.5302290110161482,0.11353669215441517,0.05878852395017419,-0.03658149513843884,-0.025498586666130352,0.13695738119659312,-0.021435059675468097,0.6328125
0.04000806240005225,-0.028129737560963836,0.08695625847337296,-0.04235661959496161,0.3369970072229961,-0.053575553752747467,-0.6692687001408821,0.3396189274835942,0.013986211805401876,-0.011915957072179049,-0.007230605176160204,-0.007153279667409785,0.015106677929508532,-0.012878505188580974,0.640625
0.1988424038662284,0.12129848698216167,-0.08909782539787801,-0.46701773663338203,-0.18850016432366404,-0.09483415631143592,0.07623156525875317,0.5956578768943148,-0.06143092783258312,-0.04636492456106319,0.017329517914213877,0.010642065208293765,-0.0757218418962672,0.0030734147928008515,0.6484375
0.2700142288540712,0.20649333679227685,-0.20437356491761322,-0.6748491926815128,-0.5549959009619966,-0.10140545733140406,0.6497202082936607,0.6334285073010274,-0.10436241956293858,-0.060867639668318776,0.031968680509043834,0.021829505943634697,-0.1272069837299174,0.014709616726969852,0.65625
0.32805593343531514,0.23818641052034553,-0.22239761048653123,-0.8077424652111209,-0.5810190912870747,-0.13189459630634606,0.6176842837446215,0.8260452670460192,-0.12023793394911354,-0.0747128924961587,0.03637439088440266,0.02424803314207373,-0.1470229860581309,0.014810954766974563,0.6640625
0.20544659868231727,0.12485257441527835,-0.09053656094761225,-0.4815465835725205,-0.19021124202703582,-0.09866482850681277,0.06972137283296158,0.6194003049022717,-0.0630845877062261,-0.04799649255127899,0.017808350817398413,0.010871601652276713,-0.07805351917858293,0.0029898860070738473,0.671875
-0.10114501638086053,-0.08945251823588672,0.10011096286736978,0.2667998640691013,0.2881313089428317,0.030443258464544907,-0.38625195936912526,-0.19347149023230617,0.04480932154345322,0.02249601124279371,-0.014837167152216005,-0.010311020866933727,0.053901534600690575,-0.00937889406567546,0.6796875
-0.32014637269621415,-0.2228065278145006,0.19662670880508112,0.7819181960097055,0.4875318930781004,0.13576596100783442,-0.45123459067327365,-0.8585931981618198,0.11184542173298351,0.0738878097123391,-0.03420330861463595,-0.02193952233936923,0.1365509219532342,-0.013302689093310336,0.6875
-0.37259409183297,-0.2617982117153627,0.23395433208134123,0.9115331594014399,0.5862894968274353,0.15622208914930688,-0.5615894917557985,-0.9873390772204994,0.13145123828423044,0.08580146473287611,-0.040195892468865305,-0.025973612577135832,0.16031160942380185,-0.01597167889623352,0.6953125
-0.3696905150687166,-0.2835521377143891,0.2799722979911487,0.9268795523476246,0.7535259992567849,0.13907701771429817,-0.874588245395228,-0.8768912623541122,0.14256498477703655,0.08384863852602843,-0.04458527087811895,-0.030000374740806413,0.17278332459011228,-0.021742786772038503,0.703125
-0.14820544882461642,-0.1302536895312255,0.1450609323848259,0.38788462919803274,0.41879483159343167,0.04492040112108492,-0.5654193375819807,-0.28315969663817175,0.06548149600478892,0.03286186662826833,-0.021353800879817936,-0.014968793122990091,0.07844174197880381,-0.01318364331447865,0.7109375
0.39156463227265376,0.2818925515083972,-0.2611087992567041,-0.9623942395847646,-0.6754849179221454,-0.1587833836834314,0.7026885115802445,0.9965580937115404,-0.14223754864181448,-0.08931174073686832,0.04295738920442811,0.02854313347562123,-0.17383335938606975,0.017250174908064884,0.71875
0.6441315390818695,0.4872598832780107,-0.47626330030749386,-1.6060233891672497,-1.2780464234763893,-0.24573427874174325,1.4633158304505127,1.5407636711878725,-0.24588926505353287,-0.14578013265282272,0.07555620947620235,0.051151538718805144,-0.29913022721313504,0.034605092490450504,0.7265625
0.0877436900848922,0.08524854559388004,-0.10345870474822609,-0.2355864504413287,-0.31494861964603926,-0.020474311676342203,0.46055542924380893,0.12289889934448099,-0.04336972708168683,-0.01857760294305345,0.01376767582701781,0.010370273002457513,-0.0522296010659875,0.008889403482495319,0.734375
-0.5692207437754101,-0.40053138328506144,0.3591370617797542,1.3929723643119407,0.9028737295200732,0.2380424645192544,-0.8725033010433222,-1.5023445008327896,0.20150008571067665,0.13097992847898846,-0.061423457653059295,-0.0398027039407669,0.2457180641830262,-0.024250193292000493,0.7421875
-0.3738166015597839,-0.25198474861952214,0.21384526356560832,0.9045400866315964,0.512496671726231,0.16366304598439368,-0.4254176970800442,-1.0349875524481569,0.12667417778228804,0.08667218020063074,-0.03825879841007135,-0.02421484324258864,0.15464018405779292,-0.013421451357320644,0.75
0.22835443184429383,0.2133638989482962,-0.2500121845145387,-0.6073833607795994,-0.7473358468080383,-0.06017956563803319,1.0585162998683373,0.36949913221543573,-0.10791463850855587,-0.049366197119761826,0.03467978282055699,0.02531065857145227,-0.13027251005135157,0.021901886113452746,0.7578125
0.29511759554477995,0.2773155472875452,-0.32644671711685613,-0.7863978626609124,-0.9763089417369529,-0.07675611907519374,1.3871793889434116,0.4713773297836877,-0.1401983269289753,-0.06377167858277472,0.045242639258503026,0.03303646456424795,-0.1689638779055968,0.028883729940697333,0.765625
0.15330646757312846,0.12887897543035695,-0.13959274344088898,-0.3927834024043888,-0.4003547663763259,-0.04968191386283548,0.5270228999386014,0.30636588739221204,-0.06528389097396782,-0.0338060444149481,0.0203121631619236,0.014490604988049844,-0.07896504448072396,0.010939891413751127,0.7734375
0.4968459894248166,0.268524168707866,-0.152045294975917,-1.135198382683858,-0.21354143431166606,-0.26069031853886304,-0.2848288690045123,1.6467271810207211,-0.1354334575201629,-0.11815675245318989,0.03682682768567891,0.0203787377862452,-0.1678837069663714,-6.937419553169346e-05,0.78125
0.7433000994371345,0.35211640241651887,-0.12752782766030366,-1.652154714479266,0.04020474338847326,-0.4231854158235248,-1.0871247477259676,2.6795378391123075,-0.17741515903208155,-0.17957133625121532,0.04540094926951159,0.021670845412401385,-0.22215356565328928,-0.012067662457437869,0.7890625
0.13410064835238827,-0.062137121098983956,0.2286541660300411,-0.17642213046416008,0.9083815714042655,-0.15944754144067239,-1.8442820592250921,1.0166586803477486,0.03126735739268769,-0.03894044142359839,-0.017085774777377733,-0.018368645036023677,0.03286887170076006,-0.033814962343472414,0.796875
-0.703502392814993,-0.508249153745283,0.4706312468432475,1.7343865203718427,1.2128676640823026,0.2851412574811422,-1.2566837899605008,-1.7981390119067915,0.25582115933107424,0.16104424157629482,-0.07843456980853848,-0.05153499962368237,0.3114042189391361,-0.03314425477162828,0.8046875
-0.9253659349987682,-0.5074054341347959,0.29574642386547967,2.1256709871134345,0.4359157200616809,0.48187996723828763,0.46833979577607426,-3.0527539881392234,0.2551592236305586,0.22038808070851326,-0.07096384491242658,-0.03921351600250603,0.3153723863700931,-0.0034588965053627798,0.8125
-0.8038782080543638,-0.396283840630524,0.1669852786087833,1.8028222211603313,0.05624801331240009,0.44825169557532896,0.9957432284346903,-2.8428548703973173,0.19915518547647762,0.19385761026213363,-0.052792442552176945,-0.026152879754497878,0.24753428364003985,0.007998067361339454,0.8203125
-0.670657183161574,-0.4068854868776368,0.2919085593010762,1.5770750324599347,0.5946057631316034,0.32345390941344476,-0.1726970490489459,-2.046072786672282,0.2047090577519739,0.15767823384781973,-0.05928645006425363,-0.03532799214565112,0.25095385719004265,-0.012302570631353297,0.828125
-0.19892851171001305,-0.18185779078244058,0.20887518119996976,0.5275581791364335,0.6131201637830657,0.05556831986753847,-0.8501025716634002,-0.34886390506009046,0.09147836404757255,0.043660400438684126,-0.02998659095769644,-0.02131212149493912,0.10974448401797934,-0.019240084246535824,0.8359375
0.4681895986768336,0.2667394107175873,-0.17031180393332415,-1.082474205817553,-0.2998185880027853,-0.23669320117979686,-0.08821005436761792,1.4929015221388364,-0.13466149995985108,-0.11059793148563582,0.03745847216905403,0.021635161472962634,-0.16640682828613865,0.0032856401582489108,0.84375
0.676758530328732,0.4592560195993345,-0.3940060096724898,-1.636224822314035,-0.9620337410427826,-0.29323951415528493,0.8408847809282586,1.844324769532025,-0.2318458367738226,-0.15601290350920335,0.0689626496091833,0.04434477067303171,-0.2833292796812547,0.023304000486541552,0.8515625
0.5947175124298798,0.43664519295459264,-0.41266891685551155,-1.4692595888399813,-1.0839446907444288,-0.23564892822892655,1.176185623550861,1.4787361774974137,-0.22040169148753427,-0.13527926358038936,0.06710167289279485,0.04483046104665205,-0.26831139842510676,0.028587864221896287,0.859375
0.7685667856868744,0.5320055267171718,-0.4678283749576882,-1.868016501591426,-1.1658072164897415,-0.32627167740602325,1.086726430981802,2.052468741493038,-0.26823757326576975,-0.17662501237899608,0.08030993957998485,0.05217122320566805,-0.3276173514773243,0.029086654900160023,0.8671875
0.7542001939924636,0.48331063767300525,-0.3811210965080654,-1.7960690421322318,-0.8646968406037162,-0.34593664610264874,0.5540603300078857,2.179812277693795,-0.2437104980768641,-0.1753903700661671,0.07107961970709173,0.044318299706862053,-0.2988030940066081,0.018941187935924367,0.875
0.03397874740508225,0.022625988660523857,-0.019340579195441177,-0.08058650208321332,-0.049274094595912483,-0.014582773489935643,0.04681817457846001,0.08787273814848877,-0.011864938255534453,-0.007583469391662554,0.0030392766982098246,0.0021740253904547657,-0.014310318869881725,0.0005045180256383997,0.8828125
-0.6179621921795379,-0.3468716628132099,0.21282410027319268,1.4265312445250107,0.34743756424687355,0.3167322058356833,0.21267467773618207,-2.007838196702694,0.17421710855984646,0.1468362849182453,-0.04910200555288152,-0.027563015187902322,0.21538574419481546,-0.004455331938829257,0.890625
-0.4250918004061888,-0.23685335239300562,0.14265481496399496,0.9792949325051664,0.2257854573501622,0.21897085326524904,0.17014092217993212,-1.3893069016844257,0.11906836808885056,0.10115265949921061,-0.03352006322316335,-0.018655862111601945,0.14687417979453404,-0.0028386362566626537,0.8984375
-0.011503869991683895,-0.08650409298464085,0.1636893913729605,0.10364474185459947,0.5782580730944122,-0.04690081677091645,-1.0425321601896191,0.299910228279877,0.043518941132366734,-0.0013151402110568278,-0.017144049318872003,-0.01468603533456755,0.05013452193269777,-0.02048151611586998,0.90625
-0.09916859354664626,-0.21588190673948868,0.35451320281035,0.3838646893177192,1.2025773987660602,-0.054832675336584785,-2.0650737035911573,0.3572933802398289,0.10851769610463387,0.015222513817841917,-0.040010181671193204,-0.032782301066909054,0.12755608526844603,-0.04083119603570219,0.9140625
-0.3139381374482818,-0.29438086994221224,0.3445570162818796,0.8399213827925479,1.0214833487373591,0.08299720560834026,-1.4385507401957327,-0.5179195142403439,0.1479129300021109,0.06839916341455918,-0.04859754114883778,-0.0349205757334921,0.17790060716117181,-0.031792061682054736,0.921875
-0.2973696329863936,-0.19248877605309292,0.15384555834172192,0.7130004892190909,0.34814111229835537,0.13542280519404537,-0.22919702736229572,-0.8574597202723436,0.09680341111304613,0.06935960294998822,-0.02886830615824108,-0.017827124779694243,0.11785313975276569,-0.008876886355444927,0.9296875
-0.35345725409022716,-0.18069702380184122,0.08691545706637956,0.8010415360286389,0.07051977609852675,0.1925083614269269,0.3548525632532153,-1.222610453573603,0.09103183752639706,0.08495843322291731,-0.024669556071949927,-0.012701487752249175,0.1120728702191234,0.001413300663146973,0.9375
-0.4332924780158898,-0.19129287385673177,0.045558073466344245,0.9525189620504265,-0.13135551786391733,0.2562990421684722,0.8352134532711627,-1.6295469283186093,0.0960855099895354,0.10577496114700609,-0.024138948465861374,-0.010161378095660074,0.12005681807462065,0.009437384760070298,0.9453125
-0.11881520811452637,0.013142740099003491,-0.11972661962438678,0.19916697518753068,-0.5123691877144206,0.11416419055438475,1.104391528824347,-0.7330074869640028,-0.0071757616071781456,0.03271389913819359,0.006227159270686313,0.008888249725908496,-0.005848338310087906,0.018422794146100013,0.953125
0.32687011004101435,0.21081264506526848,-0.16858688487321838,-0.7802524516087918,-0.3867576029061013,-0.14879515300963678,0.26346455980749184,0.935219284238187,-0.10652300074066796,-0.0758209747090095,0.03090323609452838,0.019474637979906576,-0.13056926533865187,0.008250299208235612,0.9609375
0.3830907883293791,0.1827457382432252,-0.06813629438384675,-0.8528606878980651,0.011910167726312358,-0.21722103324164152,-0.5453856283142756,1.3735805837358537,-0.09209539345302961,-0.09234671286037105,0.023444192379684235,0.011371534558447345,-0.11525352259096062,-0.0061967220598885524,0.96875
0.2762410893270839,0.1824970227948718,-0.150975988629685,-0.6625858742579354,-0.35860042372919576,-0.12278044084977979,0.2801759810871371,0.771084984363648,-0.09220282413880548,-0.06376304585349332,0.026940066328345207,0.017197767763999894,-0.11294550168596575,0.007918959840530232,0.9765625
0.32788563425843503,0.28180185873229113,-0.3102669587303575,-0.8489025617498818,-0.89691654448138,-0.10232607208351895,1.19745163585184,0.6354839661647609,-0.1426171618483309,-0.07221525336367525,0.04506142054753449,0.03202310228030071,-0.17222359947093854,0.025716421017599904,0.984375
0.27408110327051305,0.17847514562517044,-0.14522191724115988,-0.6550448819693228,-0.3406078610491769,-0.12323211064598168,0.2523907750069457,0.7740315748786307,-0.09049671893620555,-0.06338182480076783,0.02623505689723764,0.016669855636162308,-0.1106869778484122,0.007304277296952341,0.9921875
0.1582581885749148,0.032946595051615526,0.05661015329977279,-0.31029192778222875,0.306438650746406,-0.11754073399855319,-0.7750929548998804,0.745083158543184,-0.01687370750239168,-0.04026147452892053,0.0010107017072708583,-0.002815368975108646,-0.023088785326548827,-0.01342534929066741,1.0
0.4598225915883405,0.2885080067469527,-0.2204476633369674,-1.0882366822138312,-0.485261883326361,-0.21485654115186462,0.2627323966819776,1.3531967532567801,-0.14558680713164682,-0.10720520707153103,0.04199654642134811,0.025936456140122733,-0.17888828694822115,0.009756782012219847,1.0078125
0.7381765527620289,0.5422026803905676,-0.5124164254772341,-1.8243941248699171,-1.3455576312548139,-0.2927022620380538,1.4584434850008283,1.837109728479958,-0.27353015668986447,-0.16801955333326396,0.08341546893465554,0.05568573317565885,-0.333231133811975,0.035652303144615254,1.015625
0.015495044250236449,0.0328945351227105,-0.054993320184514846,-0.058401039921690885,-0.18816377355259892,0.008518344379616835,0.32647476461236946,-0.059358862424817235,-0.016874763733727184,-0.0021399960707452303,0.005741898621751071,0.005056871518758597,-0.020337942708501783,0.005506206356262624,1.0234375
-1.1661926512525507,-0.8091769758088563,0.7123928044159242,2.839874563412413,1.7722496191148311,0.49473525752255754,-1.6494547197016465,-3.119604638425388,0.4075543936523775,0.2685856453159201,-0.12315413097594613,-0.07946052828771626,0.4969000594603093,-0.0461938701364999,1.03125
-1.237255162936071,-0.86570324602271,0.7708742417684813,3.02080836425383,1.9328730591467915,0.5199438599862329,-1.8471165866880626,-3.277944525490418,0.43604902348919633,0.28453545138504455,-0.1320691617151797,-0.08564377655235475,0.5314727366399544,-0.05081580604279969,1.0390625
-0.2644738061721343,-0.20933066959580968,0.2134033923963149,0.6706632022440664,0.5842882024019281,0.09516483544351732,-0.7067954531409466,-0.6009327275777261,0.10521399196899338,0.05968503497792143,-0.03327800555061383,-0.022635667777842577,0.1272155357451533,-0.01739258725894305,1.046875
0.18493586880086574,0.10300234809470382,-0.06256159489637046,-0.42434635765047807,-0.10397203622458943,-0.09499826172605728,-0.05966902426904104,0.5965630586379136,-0.052226521007338,-0.04369314603325981,0.014159295866856707,0.008117584471893454,-0.06481041831812638,0.00032583361680554423,1.0546875
-0.2151213776256549,-0.12588259404406327,0.08441923251309148,0.5028838326155531,0.15565416031669815,0.10693280166289265,0.012350901193002826,-0.6801098181606661,0.0631325033127733,0.05099721440055868,-0.018308796612771593,-0.010513711377144621,0.07753924053694611,-0.0032660913925745133,1.0625
-0.283096582197909,-0.13642500110599212,0.052401878748698005,0.6335204761361889,-0.004980733175920389,0.1601574029956181,0.39868422030287787,-1.01844554961219,0.06846341694516547,0.06863939099452569,-0.01818080151393201,-0.008656567060312518,0.08513440034126224,0.0031516186494670137,1.0703125
0.31771976370226895,0.2621505526536358,-0.27867700508149096,-0.8118829634943817,-0.7904192885017615,-0.10652060908237233,1.014221167959978,0.6638309002387331,-0.13244323359054824,-0.07056927810271563,0.041464299847152,0.029081212860030507,-0.16066197485843783,0.02216943345913738,1.078125
0.6487429502805745,0.4605136672995479,-0.4184336311848771,-1.5881743672851811,-1.0698802989925154,-0.26759457670173525,1.0730459204964184,1.6817466093257782,-0.23245953413022832,-0.14843661153564575,0.07006894562222553,0.0461142312434141,-0.283619020910997,0.0273871419471998,1.0859375
0.3400837028064125,0.21776924226795935,-0.17215258457196556,-0.8092108394108435,-0.392475557338812,-0.1558080186462786,0.2556123150374355,0.9802391748874766,-0.11005043246452129,-0.07898242747864645,0.031836253255209584,0.019977839750390074,-0.13503786551796582,0.008194528046200788,1.09375
0.06345835361923448,-0.030932227848297585,0.11099719920257034,-0.08107305314405747,0.4389077506288927,-0.07624886531960827,-0.887779384372688,0.48459020940659225,0.015433089134210327,-0.01838904087915641,-0.008589541896682588,-0.008980657961635755,0.016297172500568367,-0.016720062197419082,1.1015625
0.21618354485957272,0.03385672493517363,0.10018214371046215,-0.4137717306107309,0.5027427066348388,-0.1683273425869176,-1.2140432250951032,1.0685199368758416,-0.01722556133290259,-0.055746127719715106,-0.0006661635605669063,-0.005860939864460451,-0.024906310044759242,-0.02092541841730616,1.109375
0.428283122848902,0.2462918087442539,-0.1604911166553628,-0.9934664324238084,-0.290599274520516,-0.2150181146448206,-0.05205208917584038,1.355726858518953,-0.12446382695440589,-0.10106783943891395,0.034685165077223745,0.02021005275769274,-0.15375100441107611,0.003565188140477224,1.1171875
0.3123221820171273,0.3029931740252146,-0.36506837553129906,-0.8431056531538669,-1.1019334299400922,-0.07483192031731462,1.5928133908562545,0.45892640892855996,-0.15314099356723915,-0.06701271912154445,0.04978523066268805,0.03665299322713364,-0.18449983433944053,0.03301486789838131,1.125
-0.07230079983808378,0.09551473896768704,-0.24952518328078926,0.036583401471996374,-0.9445413976090996,0.12786699518859196,1.8319127661515724,-0.8232456919562189,-0.04850855648232533,0.02474652683768248,0.021101852255542116,0.02096942102158068,-0.054981360526703944,0.03269473031035414,1.1328125
-0.39498174878906567,-0.2007181489174577,0.09321972393491203,0.8926883020442352,0.06774658417010329,0.21676192026372396,0.42001047213276,-1.3756426794631424,0.10085384683116742,0.09515373896760455,-0.02731481742779017,-0.01388285811638924,0.12515897907373078,0.002125598694438664,1.140625
-0.3861744869926979,-0.2896744686431717,0.27975430752889097,0.9639088796363638,0.7402627603949723,0.14964670925553933,-0.82393294455458,-0.9440117882383031,0.1456741727997267,0.08796727589730971,-0.04535246298027716,-0.030196062212656437,0.17702651926065072,-0.02117211313296418,1.1484375
-0.1507873041115382,-0.14961225000565337,0.1830543973249604,0.4133694400202033,0.5502750333504816,0.03412053651782576,-0.7984421166188301,-0.21473034905493926,0.07510654157660884,0.03248621479572815,-0.02517225128862792,-0.018298938042050353,0.09005195569712615,-0.017769332101128764,1.15625
-0.09272804427721568,-0.09760669316157942,0.12327716552694162,0.259228701604257,0.3767277267169067,0.017384825431238395,-0.5610623099154389,-0.11031553896418984,0.0489733080925531,0.019771784741103245,-0.016663958978619123,-0.012220143979509778,0.058238295497223744,-0.012505083684173737,1.1640625
-0.32464151138392333,-0.26450186959054356,0.2764126554139735,0.8283452848231745,0.7721343313526688,0.1119434746245433,-0.9698318429813718,-0.7047073694781,0.13309831280877357,0.07285800800710822,-0.04227998576360916,-0.029051948825375703,0.16065691143452684,-0.022969636296834208,1.171875
-0.4430788020342732,-0.33973605374860194,0.3352619999473811,1.1107571361523993,0.9026875513576421,0.16672993192842403,-1.0475503855265302,-1.0502779518772396,0.17093316108816325,0.10046826537142552,-0.05343630176098417,-0.03592027606544912,0.20725136974301983,-0.025922765351855136,1.1796875
-0.16423107893313568,-0.11099580140901331,0.09425323580176988,0.39918875123954084,0.22378795563567444,0.07191295398335579,-0.18319122007512012,-0.45661400800840357,0.055568820355141844,0.0381761896208137,-0.017071095487204143,-0.010680582271083216,0.06775185821602638,-0.006335774932388007,1.1875
0.18989457242255178,0.13796340996956608,-0.12950098505551771,-0.46646559866919335,-0.34036397509388755,-0.07578307207009626,0.3685170948135111,0.47342519939711325,-0.06992952905611913,-0.0430903554799334,0.020920826063989338,0.014084771706193922,-0.08522765238821192,0.008386086453345697,1.1953125
0.19657704229378972,0.10639942284816559,-0.061431962739191014,-0.44893000326849597,-0.0901743600827492,-0.10249439846562824,-0.09973178975918974,0.6451839332352096,-0.054003509140906444,-0.046527952829372034,0.014446925343770442,0.008168801226947405,-0.06690816070608926,-0.00024397166182601538,1.203125
0.02553632178735499,-0.008401203154308198,0.03598747257226661,-0.0361010848122134,0.14422435769863487,-0.027722062044645716,-0.298542431125582,0.17350856810147894,0.0039051930423151648,-0.007006596529993121,-0.0028247505893205737,-0.002837902548750952,0.00378247727441086,-0.006034689684146492,1.2109375
0.17730205246125508,0.13810815706089874,-0.13887623406739943,-0.44479059692906786,-0.38209905989688747,-0.06505739919874161,0.4570941630810832,0.4045860080347583,-0.06985635951745227,-0.03979215124129568,0.02134374654246197,0.014753867849987161,-0.08513411185172211,0.01000131052570738,1.21875
0.620258266672342,0.4325922587874162,-0.38420248040709976,-1.511520928940318,-0.9643799031586235,-0.2613370542799911,0.9201497051637382,1.6426115611589003,-0.2181781043715718,-0.1424186529195639,0.0654572743387011,0.042661213591892524,-0.26663294752574807,0.02413516947226868,1.2265625
0.7208864558313752,0.46921588946885895,-0.3794346833865674,-1.7251465413598774,-0.8789991649447703,-0.3258850376353034,0.6269425499780352,2.052686231979371,-0.23656179397964175,-0.1673133376074188,0.06945171123406717,0.043650653186603286,-0.2901017748650276,0.019893008330095913,1.234375
0.2062273137067777,0.18583806238773032,-0.21229223737704533,-0.5419466471993026,-0.6256912677374338,-0.05882673404288399,0.8651747106746359,0.3629358511640307,-0.09380006383892223,-0.044900343026546816,0.02989709300244894,0.021634574887071822,-0.11360423424819396,0.01801554397231016,1.2421875
-0.34732997593131376,-0.07823698304049945,-0.11441235187499647,0.6918100293147706,-0.6475369514724723,0.2555318688760361,1.6626192321311104,-1.6294278760140466,0.039048100253250104,0.08893253327730768,-0.004506497692883457,0.005187157917776313,0.052354149819208814,0.02608155876368001,1.25
-0.35592039076558774,-0.12238643521230812,-0.03313729373508813,0.749242299516536,-0.3615253400647809,0.2341387775776115,1.1536294863196752,-1.4909932837398476,0.061093330013940635,0.0888766635139019,-0.01296253249757871,-0.0021308816661827533,0.07835271748034058,0.016345684866177577,1.2578125
-0.051434741006286866,-0.0985901674350654,0.1562200137599549,0.18681953595633988,0.5239131543390166,-0.019160453805929012,-0.8837613382789851,0.12337039155806527,0.049222381822971055,0.008752118589337428,-0.018192173441827754,-0.014597050988372723,0.058109888239961535,-0.018125330346088445,1.265625
-0.012577842638254864,-0.1766851220250697,0.34342190563985137,0.1925384830904062,1.2226519163996201,-0.10551171248678853,-2.2196604918184435,0.6782813857501214,0.08888216779129533,-0.005849707466212065,-0.035053501131069136,-0.030603969402363065,0.10292793031402066,-0.04265210362223611,1.2734375
-0.31179081059937297,-0.31957982861926204,0.39721678304233565,0.8592849134698087,1.2137771097271446,0.06406269574164027,-1.7960942709208387,-0.3960470354300211,0.16091686843939423,0.06645744304359924,-0.05372927911407654,-0.03955965974791526,0.19270100680427474,-0.038376455184320875,1.28125
-0.54682310776667,-0.3878544384465029,0.35133191097927535,1.3412051749273786,0.8894616869861467,0.2265429860279038,-0.8792879684952877,-1.4296187268533302,0.19504462109380932,0.12562521786983405,-0.059618426200523995,-0.038782370890671984,0.23765294633373593,-0.024105138097771872,1.2890625
-0.40787500753955713,-0.2522710186325065,0.1880234568135145,0.9656098644775132,0.3963750280377465,0.1935232805733873,-0.16517890563272328,-1.2264178424562948,0.12662946247166146,0.09574060887173785,-0.03717818859672262,-0.022363454148261647,0.15560002998034944,-0.008985995809357172,1.296875
0.01734210752631026,0.07213680020834264,-0.13117026679994293,-0.09841200883015204,-0.46212457976999854,0.032558385876579346,0.824080133036106,-0.21532119398225924,-0.03661418371397516,-0.0005557236540385724,0.01346210127807132,0.01184200825827801,-0.043126539212383214,0.014894869456376357,1.3046875
0.33026026425316374,0.29111431165636786,-0.32673343425410906,-0.8630064502697261,-0.9532314788384764,-0.09886706212324607,1.2938059922865854,0.6130693747145505,-0.14684319957934916,-0.07246609759422888,0.04681087312831781,0.033525455760802146,-0.17803208830770406,0.0276248688826161,1.3125
0.26245501404721433,0.14262347726870467,-0.08187248804223678,-0.6005297211677736,-0.12144693696766512,-0.13719508103124792,-0.13653485418503078,0.8648050720734628,-0.07215004383750424,-0.06227817447984221,0.019483459870157305,0.010921533425778854,-0.08982620397086775,-8.825529541030493e-05,1.3203125
0.058180167655612736,-0.12061562861824864,0.286945254426667,0.014734377183869827,1.0646245206052183,-0.13100202129202626,-2.027378969979295,0.8377872395836519,0.06052454922396897,-0.021759629586241426,-0.026256552137281577,-0.02457054869706359,0.06873918191049694,-0.03818403211388394,1.328125
0.07788831158997565,-0.04888059171974368,0.15812802637962314,-0.08806735925650379,0.6182532528339358,-0.10077813120283757,-1.23463598037167,0.6418595149684836,0.024584349356683192,-0.023167906628743063,-0.012659994985402167,-0.01293939107260264,0.026727360346353438,-0.023111610776085416,1.3359375
0.1709136325158397,0.24787698869298277,-0.3651790064351161,-0.5381329496684599,-1.195284681220832,0.013864047042201587,1.9602361402777644,-0.10344998469397391,-0.12511376808488892,-0.032114203138454485,0.04339453496760841,0.03461648073856486,-0.14880945883708935,0.03804427802175758,1.34375
0.05489796965413083,0.29865493666708876,-0.557580868525008,-0.3829016294660228,-1.9657225125207263,0.15016556284309257,3.528646866079535,-0.9758295769353342,-0.15122216034592073,0.0016301367519791809,0.057369924310497145,0.050029220980985285,-0.17640444712177286,0.06613229868760526,1.3515625
-0.01697642443833114,0.10328472404509394,-0.22126413704192743,-0.06865931308771744,-0.8097252560476943,0.08408146784742948,1.5084962696527846,-0.5452203751410972,-0.05286567526707519,0.010361657079393802,0.020847874066156163,0.019321878874663648,-0.060868841838256,0.027344216471087618,1.359375
0.21817891929625433,0.029744300317271787,0.10980877696304207,-0.413994375279159,0.537439480597569,-0.17270583203057407,-1.280160446924004,1.0969469024559617,-0.015254701552120716,-0.05646678344059132,-0.001522400949291155,-0.006667108018726997,-0.022786860146366963,-0.022143695212030145,1.3671875
0.35736103186624707,0.07939885695195623,0.11847199155754581,-0.7080963549737467,0.6645228376737111,-0.2628878905396169,-1.703221718547522,1.670365325535762,-0.039887368477376284,-0.09102853424044728,0.003811361211862889,-0.005530022224188643,-0.054699748104402895,-0.028373208091504596,1.375
0.06708963148140072,0.0072164601694873496,0.03694111675187748,-0.12521325957836765,0.17643744935650565,-0.05418492745407403,-0.4137838332486256,0.34206339064122,-0.0037344729371078414,-0.017305964037514658,-0.0010221150273337848,-0.0024052061455210084,-0.006399953222958933,-0.007708028176693888,1.3828125
-0.20797389418427178,-0.1046664978464565,0.04741338896310855,0.4698745228420916,0.027044438808918447,0.11467318146062344,0.23540325071025056,-0.7303332721328961,0.05240499936253468,0.05021631146211985,-0.01431250142331211,-0.007158409320429006,0.06486339376545266,0.0010612915592832905,1.390625
-0.10653987909738363,-0.07735130678298213,0.07209227786456025,0.26526641102178694,0.18339456647575147,0.043005912302959776,-0.18811776460153923,-0.2743077976385028,0.03879556033282461,0.024546534916740942,-0.012249341084357265,-0.0079018762927487,0.04686448762525649,-0.00573393512758456,1.3984375
-0.03681410819707747,-0.06575716669920047,0.10311464920580256,0.13055777778885752,0.3421303848967044,-0.010913470365230132,-0.5734899704512947,0.06952232905222347,0.033054600060477134,0.0065322347215612175,-0.012218666231400374,-0.009676538825717635,0.03860404419700491,-0.012131509984282772,1.40625
-0.2817576753784518,-0.2014945091646875,0.1842728626756327,0.6933220838820355,0.46813507251980574,0.11571232584655487,-0.47083106492878896,-0.7318750568078924,0.10120882090092571,0.06475887249148685,-0.031182790929566263,-0.020277709276664602,0.12304886017797077,-0.013142897114384463,1.4140625
-0.4191846953738794,-0.2655310368478616,0.2056168607888737,0.9978824302116106,0.45196752543266083,0.1947546383737412,-0.25357364694992424,-1.2334858030044076,0.1333043061199318,0.09806816147542684,-0.03944934217740156,-0.024062926520900058,0.16347754543424978,-0.010725770777474112,1.421875
-0.20447115398469326,-0.12777475373648103,0.09659544775652056,0.4865678968968359,0.20615324855108308,0.09632477774392156,-0.09453012388550944,-0.6121645203268675,0.0640156477483007,0.04804680020673473,-0.01910935012167223,-0.011412204115310609,0.0786306656505931,-0.005168043886097351,1.4296875
-0.022961668161698784,-0.004450307384512901,-0.009646588218848994,0.04741266246843279,-0.052694439881478615,0.017861956278738215,0.13255537321755226,-0.11694880066623554,0.001922733036938751,0.006166386301658703,-0.0005104398899513148,0.0004970124784346448,0.0027421573529818693,0.001293305698809968,1.4375
-0.0830098587062042,-0.019589290987210115,-0.026421450317887892,0.16747136467571624,-0.15451485313253815,0.06112692637472085,0.399022819438364,-0.3917786582136588,0.009365977845742505,0.02145575393424365,-0.0015215983488182112,0.0011249344919234572,0.012642494110509621,0.005634396125423433,1.4453125
-0.08597265093729477,-0.01644911918234622,-0.035098369728732995,0.16848722291512605,-0.1876159446126936,0.06573455456633258,0.4618797340629083,-0.42163657055462345,0.007731906258662887,0.02240136231273885,-0.0007625990739814031,0.001862355206937986,0.010646009458733638,0.006862441010375193,1.453125
0.11052863503066816,0.07898675593150586,-0.07329031915900214,-0.27159470232971333,-0.19001916309911435,-0.044993583700423556,0.1985973667653929,0.27942318773266583,-0.0401236755701215,-0.02508228788006561,0.01182877915765355,0.008001019478554701,-0.04933153982944611,0.004342600395659709,1.4609375
0.2768734621341759,0.15532150324250887,-0.09664737440950334,-0.6391204612299771,-0.16021150002236834,-0.14154573591904354,-0.08216777464600708,0.891427123159972,-0.07839260585536759,-0.06548362721204672,0.021586481860252152,0.012394565510873853,-0.09737679521779946,0.001099471286439914,1.46875
0.28858043738903055,0.16745137014381056,-0.1117385497668401,-0.6707898294637342,-0.2075963783952108,-0.14371098062281873,-0.011878813684128959,0.9050914846650595,-0.08452911973768552,-0.06791680447872928,0.023593120267986656,0.013892067427239706,-0.10463992717294845,0.0025666990568424925,1.4765625
0.2509750043862101,0.15494006797045579,-0.11596804073070202,-0.5916232270107383,-0.2499358960337063,-0.1186163394438088,0.11644510559496897,0.7461039481391515,-0.07828700627279489,-0.05849288037647782,0.022310114571558983,0.013736002205217139,-0.09656812577366436,0.004496378097243142,1.484375
0.24774586749073307,0.1351067435497744,-0.07881003781455274,-0.5666355763236189,-0.11951124668968222,-0.1289041645972254,-0.11770913400243195,0.8126719742384695,-0.06829055113004201,-0.05869810009242953,0.01848574623682079,0.010398558423668169,-0.08502945914890926,1.4003144780579513e-05,1.4921875
0.29445056471818487,0.1632871545841665,-0.09867755084588364,-0.6759962707358264,-0.1598469564413378,-0.15160527234922294,-0.107584189602717,0.955710095290649,-0.0825258108412774,-0.06969502829890285,0.02258690642904984,0.012816595463697131,-0.10251338668846395,0.0007582951771714641,1.5
0.3435933840300667,0.26197950614208965,-0.2575933695915048,-0.8568622830068621,-0.6977051152553115,-0.12977270352986106,0.8100235202182472,0.8112894351630249,-0.13232957756948305,-0.07755749939007933,0.04058553855557797,0.027577020619231486,-0.16100678484022685,0.018601822212076947,1.5078125
0.21961228830653035,0.24228666935157145,-0.3142189283608591,-0.6179166304331243,-0.9840330125176543,-0.033368729780153615,1.5041681011430408,0.19716236295978934,-0.12239976340948823,-0.04548276079165753,0.04065597521577045,0.030855887146916505,-0.1465397087728011,0.030105562974172283,1.515625
-0.176906531012639,-0.07083499580328582,0.00448646020043372,0.38374482321655873,-0.10570079624686665,0.10952750433500817,0.4379468192944922,-0.699139061611913,0.035453350945224525,0.04372017120716302,-0.008709165028653907,-0.002893002072608187,0.04496523575653338,0.005196429496490158,1.5234375
-0.6046809487574507,-0.4641833856222213,0.45936214593128893,1.5167279045252446,1.2401638710705223,0.22694049098384197,-1.4423352164990881,-1.428929997613354,0.23368204943255333,0.13697530562046933,-0.07295178999303432,-0.049134897342218924,0.28372409433814133,-0.03536149958219455,1.53125
-0.7218039142640594,-0.5653996394928444,0.5706212813466374,1.82004764284305,1.5610231345788375,0.263450090370353,-1.869527856484251,-1.6566455845750367,0.28463654709158126,0.16284744248156524,-0.08920092290099411,-0.06064959619878041,0.34511093643046153,-0.04482850341303577,1.5390625
-0.5286882750923111,-0.3726992456053694,0.33427780743706814,1.2934579141847768,0.8422544419798599,0.22067587190556334,-0.816060673948035,-1.3925831149594863,0.18746721036582278,0.12157099727985198,-0.05713392336091874,-0.037070229659359,0.22822747455258607,-0.022716878441939727,1.546875
-0.278300192096376,-0.17218167364195266,0.12689486626219124,0.6582621021527656,0.2654457323848666,0.1324970074821136,-0.10215705604170891,-0.839375669199322,0.08635181397017891,0.06543083203587247,-0.02541549116454955,-0.015206494922155053,0.10558028394417662,-0.006241413954695473,1.5546875
-0.07013592916524297,-0.05336619379117597,0.050886388601560785,0.17558437320811074,0.13223052574045518,0.027255862043557594,-0.14488974037906824,-0.17409097033543477,0.02643217603352772,0.016170786242994405,-0.008593027185525006,-0.00551797574954249,0.03165794588348516,-0.004397968291493732,1.5625
0.12571337381135106,0.07995707113510454,-0.06328041769625259,-0.2989718528920171,-0.14531688536631765,-0.05769823066830771,0.09408055743727795,0.36066004902039306,-0.04070486905598472,-0.02905701389433769,0.011500111792686946,0.007352083880821156,-0.050243372147329046,0.0025870441281485817,1.5703125
0.2011093015073204,0.16637465463436,-0.17734019211168764,-0.5140293213426317,-0.504032517172431,-0.06712426884671079,0.6486965550932652,0.41649364500618075,-0.08415390211741816,-0.044571911785291664,0.026185758997348443,0.01848436267039468,-0.10206266055770083,0.013897196315159913,1.578125
0.10581434664555343,0.10562634053050163,-0.12974561994438447,-0.2854436938840513,-0.39875555097733195,-0.022988492648181712,0.5878893182470396,0.13837469574075026,-0.05351847395628174,-0.022309361436545917,0.017191290370846955,0.012929589342720265,-0.06444396550144403,0.011476514592919417,1.5859375
0.16661860682793714,0.09689066789940987,-0.06479847648337372,-0.38447812579417723,-0.1257361530929427,-0.08249161775383325,0.0056126032604963015,0.5182397957173274,-0.049147004354294824,-0.03903208672666026,0.013481504138681781,0.008061687962870948,-0.06071338731285573,0.0012671024058458226,1.59375
0.6388122224873123,0.3758669231710628,-0.2558629642220835,-1.4889514509151918,-0.49276455209061615,-0.315217786137742,0.03204976246270793,1.9882544170234806,-0.18967685395606035,-0.15036972320951725,0.053571080481722426,0.03161347037402358,-0.23377351633892235,0.007671473094363171,1.6015625
1.0347423903574464,0.6805103786013683,-0.5579838345493257,-2.482853707430844,-1.3088844561741366,-0.46347695862791777,0.9848084099211634,2.918523580116757,-0.34309993125558547,-0.2399209528730533,0.10124096075775933,0.06388934905680868,-0.4201302223785282,0.030528677077911334,1.609375
0.6261217009890873,0.49082550344953113,-0.49652812378517075,-1.578043106892463,-1.3620587408038254,-0.22793920818646013,1.6405796411161335,1.4256113225923692,-0.24754636717614875,-0.14083370257291428,0.07687658565091715,0.0526867198404393,-0.3006464784656608,0.03780030064002494,1.6171875
-0.3792342415968923,-0.1653379099268383,0.034974492495758895,0.8302195905636354,-0.13003762991425388,0.2259664062518986,0.7592601564271009,-1.437118487416164,0.08300585354421032,0.09276453400695957,-0.020764436067672767,-0.008478498292227394,0.10401841002275196,0.008790053907875621,1.625
-0.9628128474350851,-0.6359866137713467,0.5236510273337147,2.314070052929163,1.2315986066003555,0.4298766222330491,-0.9360668065239157,-2.714245835854852,0.3202027861024365,0.2235158108087258,-0.09531852446128478,-0.05992545935856798,0.3913996960484244,-0.030297554071236465,1.6328125
-0.6846809806469485,-0.5076457032563552,0.48331722026543433,1.6990287161556445,1.2728633626298418,0.2690670811599556,-1.3924601530654912,-1.6940931403225936,0.255628809958945,0.15602877729588652,-0.07892100491111437,-0.052458848691513106,0.3104862739012396,-0.035460422953068824,1.640625
-0.15106071733018592,-0.11634610132773206,0.11476228363342549,0.38002867717446326,0.3073358862605114,0.05681871999308715,-0.3545953473140547,-0.35896865029504255,0.05840397514883718,0.0343753466077951,-0.01854248101638019,-0.012349074737198502,0.0704308240337392,-0.00938885036166515,1.6484375
0.028091677896694738,0.016827845728271788,-0.012671891590910206,-0.06435480526431278,-0.02991172514640175,-0.013172809023655002,0.018529822045117394,0.08054163716522345,-0.008829280563321636,-0.0063563380668697645,0.0021070563877298282,0.0014702737779457272,-0.011155859085812292,-0.00016267594522666786,1.65625
-0.016691148341806093,-0.10057209643358989,0.18798078348073072,0.127745358087948,0.6607035958678257,-0.051429898746580334,-1.1840741199176736,0.32940550904669147,0.050341034992306,-0.000672253681483112,-0.019791603685981863,-0.016873283026672573,0.058620242652222924,-0.02328782837683582,1.6640625
0.0787048346928569,-0.09816329421186433,0.2578232763826891,-0.043006875867645816,0.9751192775113864,-0.13424117978501837,-1.8906336745801366,0.8570388070184787,0.049227988286455936,-0.026028752176747424,-0.022456066245951783,-0.02169579490539711,0.0553189243465311,-0.035369043608677105,1.671875
0.2613332590346563,0.11275483356499139,-0.02271009590408943,-0.5683509445896497,0.08987817072469458,-0.15586129840570243,-0.5202933409061344,0.9849230310083219,-0.05707607666800743,-0.06351807432115286,0.013547245299753395,0.005669775308843072,-0.07197037330693229,-0.007373428411927204,1.6796875
0.22272448963016783,0.24685773071488937,-0.3218927216686943,-0.6289560122499327,-1.0100754481493301,-0.03281046392588298,1.5463945412088675,0.19396407938179377,-0.12479181355173105,-0.04601289459712796,0.041528675844094004,0.03157135040077533,-0.14975111063681773,0.03096646629946533,1.6875
-0.07753532565343223,0.12432679115823951,-0.3102210122303608,0.019514637900905737,-1.1691233258318416,0.1512775939085189,2.2482828864513156,-0.9743425612650632,-0.06313074186714725,0.027643562775998137,0.026981276196386166,0.026321061669086435,-0.07182097032742564,0.04045063565367847,1.6953125
-0.3348102146067007,-0.1128500055864738,-0.03501376627014969,0.7019899275753049,-0.35349631352893657,0.2213167398447076,1.106643695130998,-1.4101730725088626,0.05645174357451576,0.08367007207499653,-0.011799780368270339,-0.001630594459618983,0.07233824642829027,0.015843256170939648,1.703125
-0.32896652957205624,-0.26476761066100984,0.2741505779255939,0.83729410282945,0.7601622349294316,0.11544298997494856,-0.9396934434109021,-0.727867728337424,0.13316149773129907,0.07396719105688217,-0.04221829380604373,-0.028903206584322768,0.1610874305871722,-0.022537093470052776,1.7109375
-0.18215589768308627,-0.24912752328404023,0.3571981245885555,0.5629078535217032,1.1563526121779266,-0.0038354167570695983,-1.8644699962737386,0.03258473461422232,0.12535407694348527,0.035582731778767064,-0.0439319072885153,-0.03419018800452905,0.14888366327209746,-0.038142022320229126,1.71875
-0.027499052522853056,-0.03824554129773423,0.054930315389290905,0.08722423170270674,0.1750545927787819,-0.0006616392020333669,-0.2789632266292837,0.0027981372148370627,0.01897263750039543,0.005557376752859925,-0.007068423192067864,-0.005272228698738619,0.022343649724099746,-0.006456266103343192,1.7265625
0.26867199638479056,0.2826566302151462,-0.358056300428012,-0.7457884539767046,-1.1068886604768318,-0.04968957647802478,1.6617213900521404,0.3002253256387121,-0.1428340672575261,-0.05641564561593187,0.04711590635326755,0.03540858183945309,-0.17159215070635134,0.03374872488987403,1.734375
0.6947533071999925,0.4600530896251656,-0.382320126745692,-1.67167724268475,-0.9054101469301538,-0.3086770804529924,0.7082159305507162,1.9434610720360923,-0.23206077335839528,-0.16081327531337436,0.06854836789887252,0.04351644042282053,-0.28442258641528656,0.021220138733190806,1.7421875
0.777784532027053,0.35123022785360264,-0.09934138401580649,-1.7140682667600573,0.165927157228949,-0.45422843579631944,-1.3678940632764818,2.8769497693048063,-0.1770499449037511,-0.18883646147080324,0.044198454629753116,0.01966786770902263,-0.22258446047651362,-0.01673689173438804,1.75
0.22002419638737386,0.12055940332497504,-0.0707542520390993,-0.5035625382717167,-0.10920821337102214,-0.11417080859392786,-0.10057303619214618,0.7188326531176067,-0.0610681942953927,-0.05207586702499002,0.016489907291022714,0.009349528794048127,-0.0758265323878606,7.489101665857953e-05,1.7578125
-0.48335643501527403,-0.05538786278264167,-0.26596273638965023,0.9113601412956707,-1.2839577933689383,0.3910023606830238,3.0149916334206934,-2.4949842846568093,0.027181715842391097,0.12653737139884894,0.00445194380253683,0.0167298939123251,0.042075175790418334,0.04978361810163402,1.765625
-0.6223325155811333,-0.19391156857573888,-0.09716254181349349,1.2896864931065417,-0.7694500315506693,0.4221491666560816,2.265768681640114,-2.686573225535298,0.09710673679203193,0.1562423317947402,-0.018554528377207478,-0.00021490194249999887,0.12612432745991495,0.03391822518172922,1.7734375
-0.198410964397003,-0.26193257734134406,0.36946038839564294,0.6043600354002515,1.1918632778958596,0.0022743830656998263,-1.9050681201033166,-0.004676716292869193,0.1319502491598534,0.039235502505806354,-0.04596782736921082,-0.035556026511664375,0.15697852796942716,-0.03920233449028046,1.78125
0.1850407110920935,-0.15179718065907885,0.4482793407491873,-0.17941473656318138,1.7310134175607041,-0.2639424617212309,-3.41918154778082,1.6877733531140322,0.07669193821562617,-0.057384877515111093,-0.03663637141585359,-0.03709239315349161,0.08444376822039551,-0.06285351440492096,1.7890625
0.12662800136628208,-0.00884020362484387,0.11670461117852092,-0.21366932604803868,0.5001270798152243,-0.11778879913703963,-1.0876965490588215,0.7478105210876306,0.004372921623235798,-0.03412190338159212,-0.006266017168746026,-0.008546718698642711,0.0019330303647102764,-0.019692048746586463,1.796875
-0.2051865711195562,-0.07893459485005981,-0.0016949913835015591,0.4393191111625197,-0.14720436488379113,0.12902793461525808,0.5508675795480795,-0.823415946201146,0.03943753211975531,0.050805362248516624,-0.009279412782479254,-0.0027560078012487097,0.04966820929638326,0.007035622122284139,1.8046875
-0.37055804071138676,-0.22736415337543067,0.16637964437432531,0.8742869947394267,0.3454847286961607,0.17706645532765014,-0.1251140566753338,-1.122043385895361,0.11426659209085503,0.08709823718921322,-0.033357540927189004,-0.019974936538599445,0.1398218006473916,-0.007724896896950946,1.8125
-0.166959055920735,-0.1543947669038806,0.1783753930349137,0.44537280077204994,0.524703862940014,0.04588634653641189,-0.7314894859649926,-0.2880293368393552,0.07755988808858134,0.03668900209575092,-0.025541505515560257,-0.01817413306779041,0.09305954385107786,-0.016622684795127986,1.8203125
0.1624539764124937,0.04824971855919458,0.028700486374253962,-0.331742830473872,0.20907521835186157,-0.1107524380637778,-0.6027662832354725,0.7014283697454674,-0.024605839021467898,-0.040468688570521216,0.003938773795387523,-0.0002950494054902651,-0.032089044436730454,-0.010116047852406468,1.828125
0.26148781022933715,0.10374125068379557,-0.005149583890491266,-0.5616101304396766,0.15522047940889552,-0.1617760520135957,-0.6382946332181302,1.0235310498696815,-0.0526450533393623,-0.0640688108348862,0.01173691465686855,0.004099927369009408,-0.0666780572648376,-0.009542536657438176,1.8359375
0.08479787704799205,0.0474601168480892,-0.029504756167758467,-0.19558337735238918,-0.05162498101830806,-0.0433317902984105,-0.018737256410440987,0.27000527533122887,-0.024393697902019073,-0.019957975693874783,0.006367594247693685,0.0037869053024000314,-0.030405943494089045,-0.00010211477668364003,1.84375
-0.1405390432706598,0.05148674775966867,-0.21292489675031523,0.20007917187871116,-0.8632028471433132,0.15843366869017644,1.7731038283637712,-1.0172019222647348,-0.026554013103034423,0.040518826702685314,0.014577547516660617,0.016850872975681122,-0.028202602488889793,0.030773618877885323,1.8515625
-0.1632779292120768,0.11969979537357335,-0.36765632700191486,0.175348864912026,-1.4333218245209112,0.22395498864489674,2.8472406539836683,-1.4378834735810702,-0.06089446746981693,0.050328784969630426,0.028890324746484005,0.030198544454917604,-0.06743460885482955,0.05070558404184552,1.859375
0.13398676692371567,0.234699404091567,-0.3668794095167244,-0.4611969242090619,-1.228412368052435,0.037548375396646565,2.067532508221839,-0.25407513230977075,-0.11861966898102154,-0.02296379143701661,0.04202005968985779,0.034288365990030885,-0.14068504954723926,0.039729281704840295,1.8671875
0.4746147933828792,0.34068877273990117,-0.31387228671621364,-1.165171811719145,-0.8090246569327649,-0.1932745784287259,0.8367128850099663,1.212964551759553,-0.17189157391359305,-0.10835642693987775,0.051933887627051555,0.034396764112947634,-0.2097160798688278,0.02073830409426566,1.875
0.2699741789401184,0.16763662107765256,-0.12607688370465128,-0.6360052947459556,-0.27467727057091174,-0.12706895487003775,0.13901663066981057,0.7987105238440743,-0.08478025298185365,-0.0629055027022492,0.024172597944835856,0.014927277650092982,-0.10415101801391588,0.005034455075138097,1.8828125
-0.45732732275915294,-0.32985630165612595,0.30480050579775425,1.128380454291626,0.7821911537772158,0.18598583677194663,-0.8034207490268699,-1.1742075463875716,0.16584672699036962,0.1048520381282409,-0.051022405733408625,-0.03341723437270904,0.20211968105828307,-0.021633279474750428,1.890625
-0.7143967883774571,-0.5925223919746287,0.6310487108021364,1.8343878198869186,1.7819448849213102,0.23891782767543482,-2.2849000692145665,-1.498984325292602,0.29842452896683735,0.15943151571509762,-0.09486205328124934,-0.06591463380899097,0.3610689134418633,-0.052570837276127734,1.8984375
0.04056927396310614,-0.2130545007929015,0.45836127123474796,0.1337714992076548,1.6708884534705428,-0.176964688356286,-3.114602256477569,1.1356881967154107,0.10753725500715232,-0.022083039902710596,-0.04405484148467365,-0.040029317811828766,0.12316849226629475,-0.05879461133751563,1.90625
0.8669400073669428,0.3470350048593275,-0.0207896303082987,-1.8657517161856292,0.5064542885924719,-0.5360016938725535,-2.1112383397632057,3.3988103509618424,-0.1746596731167651,-0.21291418202254755,0.04034903979595688,0.014000019044435014,-0.22174263168249678,-0.029737600718726075,1.9140625
0.7715068583633243,0.47874502486285303,-0.35948918028116095,-1.8229045018615342,-0.773384093659779,-0.36407445060473625,0.36452420330273255,2.295655518491393,-0.24137422038819809,-0.18026206530511274,0.06969916879612717,0.042635007448741755,-0.29665876781000006,0.015574211892494428,1.921875
0.16496045026397146,0.2656261029919135,-0.4054579184635618,-0.5450997011346951,-1.3454697405664593,0.03105996465551601,2.242714870400546,-0.21415332062502762,-0.13435395013144155,-0.029515299957296914,0.047172121040095855,0.03814452348566034,-0.15928136705509868,0.04332004701255362,1.9296875
-0.19801072871579872,0.016688034817215813,-0.18972356207400745,0.3353201757400276,-0.815118195500578,0.18697605166716774,1.7679368957412944,-1.1959942191542425,-0.009016837581824835,0.05413043298290858,0.009518421064145442,0.013921281937164713,-0.006278254166823768,0.029878325847111146,1.9375
-0.4574820238702766,-0.27135256200942526,0.18596863133010355,1.0695437557103709,0.3579794063204694,0.22509254464922643,-0.02679823878877521,-1.4252843489506268,0.1361862763700491,0.10797063356751249,-0.039327481881801664,-0.022944184347999223,0.16738049320408793,-0.007012296250789014,1.9453125
-0.7828436589682524,-0.5137261842174519,0.41946112201701435,1.8773769357103964,0.9765143083495299,0.35152519759119505,-0.7164492713490402,-2.2209855076823994,0.2583830221005697,0.1818919138432099,-0.07691548461498429,-0.048129065221522674,0.3159201360755164,-0.023918293690087016,1.953125
-0.7109020875497338,-0.43322267354043226,0.314750739576216,1.6741372369262366,0.6487016649916879,0.3411370609680949,-0.2154386927546881,-2.159002727130491,0.2179679892402769,0.16699195783659687,-0.06324481928003015,-0.037857036271962165,0.2675015600759547,-0.013609460879350204,1.9609375
-0.18325366388178801,-0.12388383962090103,0.1056346638218752,0.4452773395528204,0.25217959767417836,0.0799930491619989,-0.21067259569103491,-0.5076356856680143,0.062310102610672595,0.04258277198334978,-0.01896702676058421,-0.011976493092604585,0.07564491420612451,-0.007048396563272974,1.96875
0.202482287374561,0.0791995469871569,-0.0009448615968629885,-0.43194265451307656,0.12793534694558864,-0.1262540910064188,-0.510468059242132,0.7982132552194993,-0.04001540303168244,-0.04962550779526937,0.008809435532645876,0.0028842331582238988,-0.05126635026421461,-0.007914913783195511,1.9765625
0.32389955693294364,0.21233859370379213,-0.17314988303597523,-0.7750240773335735,-0.40876528332901124,-0.1453415223190762,0.3064036493304248,0.9127361868596765,-0.10735060379721044,-0.07494747761004947,0.03133846405345896,0.019870594772867223,-0.13169257768386278,0.00898241586717056,1.984375
0.4577432932668003,0.37529532690843487,-0.3960587305300131,-1.167936668852254,-1.1179792452481572,-0.15537228126206193,1.4229319237852274,0.9686844735855337,-0.18962947865772511,-0.10194665587641497,0.059394109933005305,0.041465115358854596,-0.22962957577701462,0.031614942820554444,1.9921875
0.3411208137672547,0.26986650200317375,-0.2762117973122197,-0.8600723578432682,-0.7655332901826203,-0.12187167850168881,0.9381004441118118,0.7608833886634742,-0.1364452761272719,-0.07638113983451762,0.042223945098485254,0.029174252230061495,-0.16541614802955484,0.02101179453402052,2.0
-0.1763929192000305,-0.13484807147234065,0.1322574934495023,0.44333198681073066,0.3521837047293449,0.06707627350150913,-0.40086944538397296,-0.42470741333221773,0.06755207422537772,0.040217596522736425,-0.021369470350075043,-0.014226918622167559,0.08192460035694038,-0.01055573604362353,2.0078125
-0.33395693173236984,-0.22333651581818809,0.18773823642364967,0.8065410123886662,0.4448776940265585,0.1472065395453862,-0.35570512157092427,-0.9325670022583451,0.11214772586022845,0.07751901084222394,-0.033795690258405266,-0.02128423321264638,0.13672243807647905,-0.011625330328082405,2.015625
0.22964858398304808,0.19003182477954758,-0.2019036684927367,-0.5867176372994268,-0.5736968019164672,-0.07703056324135753,0.7387857467958482,0.4773827706918645,-0.09601309831451199,-0.05098772069467327,0.030017060677862598,0.021118953068986843,-0.11677396195047833,0.01589741752495412,2.0234375
0.5912589716088468,0.3829724858869702,-0.3078578483311974,-1.4115200715691987,-0.7086295392507397,-0.268491413911156,0.4918925318384758,1.6902506127684567,-0.19302625315406333,-0.13729772145932923,0.05652928864298433,0.03551218897334197,-0.23690214333360207,0.015690554421515648,2.03125
0.21297672556491165,0.023232613720930825,0.11805389022811649,-0.3985006457891136,0.5675892668615745,-0.17244076946686315,-1.3274808694928524,1.096038184483,-0.011723206153327398,-0.05549721665568046,-0.002730432474542781,-0.007518268334084323,-0.01840607371274628,-0.023155016339091686,2.0390625
-0.08500535232835638,-0.2107411631366252,0.35482147807403336,0.35207643886989504,1.217857934818281,-0.06400868088064812,-2.110290586028585,0.4161930246395185,0.10606021963096209,0.011632701597295108,-0.03955764942638579,-0.032628991254661045,0.12476607962365051,-0.041492226613030384,2.046875
0.17823977556508377,0.06654133117416872,0.0036520296480645116,-0.378915256282448,0.13443648526605287,-0.11252646545935514,-0.485435671254131,0.7125628574966769,-0.03370371840482614,-0.04374518341492126,0.0070258797813257815,0.0021339991423204078,-0.042805162929313266,-0.007708303832020814,2.0546875
0.24466888104607293,0.24009382334612658,-0.29277161369496196,-0.6619603715634725,-0.8859733253828537,-0.05607964150636447,1.2924539576744611,0.34406205184517186,-0.12116901576646301,-0.05213732741760551,0.03945102634877785,0.029237997356179133,-0.14583421828615498,0.0264590088877533,2.0625
-0.3161693551259975,-0.13778109997201254,0.028626177949443762,0.6922917842401998,-0.11226736672774011,0.1886334593712763,0.6410989686653532,-1.1995316183889702,0.06909393453670853,0.0773925185022846,-0.017313382487649336,-0.007089239492627067,0.08639022064557728,0.00725953437363995,2.0703125
-0.8153289827230745,-0.5719996441184362,0.5117130550149346,1.9915961774284414,1.2828967746880888,0.3413626134090306,-1.2332592409924936,-2.1538680923592635,0.2877376329142849,0.18739740832985366,-0.0873734049379157,-0.05677482710950097,0.35041414154996864,-0.034095337673041105,2.078125
-0.6977398079380743,-0.48674445458927035,0.4331502060831146,1.7031937807434916,1.0787924548252112,0.293892658532846,-1.0215633770445518,-1.8553130969041365,0.24480561849048263,0.16057921138958303,-0.07432714937039096,-0.04811189779693879,0.29828578293103075,-0.028626684579921815,2.0859375
-0.24344465589575337,-0.025999724506412285,-0.1372474500209892,0.45876273290975594,-0.6619649425763878,0.19820238455195094,1.5447320061794874,-1.2665134444599968,0.01269637843367016,0.0639902055314065,0.002454452169041995,0.008721381952723593,0.01961564637448091,0.025215246306631182,2.09375
0.12108033405056126,0.30644461997219524,-0.520901959125822,-0.505955354680071,-1.7925769791788897,0.09672036998094509,3.1172302653173523,-0.635091783903147,-0.15495689177681612,-0.015582323657773043,0.056758245870235334,0.04774787779800419,-0.18260293999672655,0.05926551150406093,2.1015625
0.2759520436745138,0.2736181994374392,-0.3347200280636066,-0.7498330943062512,-1.0199887488086656,-0.0619694577977359,1.4918186948362848,0.377885548984878,-0.13851741055101938,-0.058807103560026934,0.04523320874555833,0.03345936943533548,-0.16690446992316343,0.03064337357334239,2.109375
0.2683400134494345,0.0345979068724193,0.13951740058985412,-0.5067144970476993,0.6770330148606998,-0.21403793520028236,-1.6043331111279828,1.3585724727818023,-0.017777398746273834,-0.06965209644448836,-0.002154667022222773,-0.008568055435953395,-0.02669282456674591,-0.027621139496616275,2.1171875
0.1989469036486787,-0.12048396902082713,0.39739504194271036,-0.23425781762445896,1.5566822748554823,-0.2558574141191347,-3.120166089482707,1.6329756053119238,0.06083306216589099,-0.05944908083978181,-0.030884498304495307,-0.03235162460597417,0.06594748298658766,-0.05695936403863511,2.125
0.10327570359914065,-0.10924312176352208,0.30007144153521076,-0.07599994667531224,1.1437879278355918,-0.16379079993784434,-2.233752202305224,1.0461717974469216,0.05519755130584895,-0.03328098929300588,-0.025540152843284453,-0.025117373727023388,0.06143151655864987,-0.04149694609421067,2.1328125
-0.011368725917452478,-0.04507651225885695,0.08087891075157846,0.06480437939203068,0.2802427303309841,-0.019436568578536473,-0.4955755517339508,0.12322013136093427,0.022460153665018134,0.0008442247238389902,-0.008943999447076967,-0.007363335028001772,0.02607235452157192,-0.010279476543668432,2.140625
0.05523338296600468,0.0768447846252412,-0.11256342798228024,-0.16985958783637822,-0.3683765041246989,0.00293599877311806,0.6021007450187438,-0.02496762796246071,-0.03918873696272018,-0.0103556827884747,0.013149418030986305,0.010687312063015467,-0.04658019391240928,0.01115115473913578,2.1484375
0.37088992624436684,0.3064337651736043,-0.32705275854170884,-0.9488123639518431,-0.9241842177695012,-0.12387089124335528,1.1894222389028453,0.7728680088828946,-0.15471076778732235,-0.08240221142632545,0.048445731264234584,0.03410576474932057,-0.187213270830987,0.026088389356729406,2.15625
0.45905155490139987,0.4163507670485844,-0.47853837412202166,-1.210901254914561,-1.4081236534528943,-0.1291243227815463,1.9554074603670573,0.8009268326906319,-0.2100338075715491,-0.10009927295332455,0.0674437662315345,0.04874008650388106,-0.25337476295999295,0.04156372841268608,2.1640625
0.04026663745063614,0.20657098584389313,-0.3838888530947815,-0.26861819240427853,-1.3519900113857422,0.10184283257505061,2.4241209870381333,-0.6626292595278644,-0.10454646252391553,0.0005857338645973201,0.0395061646793716,0.03447674418275328,-0.12225429560544256,0.04518682119096573,2.171875
-0.2953669999596326,-0.06143302849251705,-0.10758287339085806,0.582656514187844,-0.5880282256302697,0.2207014714104457,1.4820774830730394,-1.4083439566118414,0.030438193556795435,0.07592650364328439,-0.0027801595503598076,0.005325918478561462,0.04123082346293693,0.023372804838118044,2.1796875
-0.12783467090812495,-0.12649849454606918,0.15362752536947535,0.348011167330852,0.46220229445994127,0.02931144234068999,-0.6709519715102116,-0.18455060941122198,0.06350192736918006,0.02761617491915037,-0.02124830327927126,-0.015420336190420542,0.0757100123577858,-0.014958155963880998,2.1875
0.005192204664947107,-0.1728095843949597,0.35000210787401587,0.15659600674861116,1.2570617274055251,-0.11898577948503013,-2.3070914254414046,0.7637491935220081,0.08703375455212119,-0.010457123805183644,-0.0348681982876603,-0.03092937376872272,0.10008207338635904,-0.04406559708981384,2.1953125
-0.20340509114240116,-0.2744183338150697,0.3912011929835266,0.6242562853924731,1.263838454238267,-0.0018317483356731284,-2.033190364659765,0.021347333645872803,0.1380965344765092,0.039876753139090594,-0.048259549062763876,-0.037508826988615664,0.16398318640936946,-0.04155355463225177,2.203125
-0.2432406495253034,-0.17476024616760474,0.1605230702010341,0.6002644453319577,0.40830160354852024,0.09950594390227407,-0.41283267206613933,-0.6300748887624205,0.08768216649517015,0.05590262403785599,-0.02710673402778106,-0.01765483850441518,0.10660506788833235,-0.01161317857796466,2.2109375
-0.1305314691842249,-0.04243602880924683,-0.017124162210088036,0.27352855953325106,-0.1526175525797749,0.08761012735538312,0.4595978174604407,-0.5605774500931143,0.02097972180828427,0.03287802312267189,-0.004473789779496764,-0.0003564855657264921,0.026917381922026685,0.006196055094681932,2.21875
-0.5081508432522551,-0.3289779533396539,0.2628606114945458,1.2162230144745625,0.5993035114942935,0.23153042733925608,-0.4000408446297445,-1.464467301008609,0.16540249628850479,0.1184732237388992,-0.04915451644065197,-0.03044222951355696,0.20251867753698138,-0.014632608142224193,2.2265625
-0.9212451228902667,-0.6205110261171431,0.5257511297317007,2.227571390519356,1.2641658736670731,0.4034402501783477,-1.0526522589172915,-2.5468131498223614,0.31229283742428676,0.21329420009628203,-0.09364042432558102,-0.05949959761566911,0.38169677704539245,-0.03201148256124443,2.234375
-0.2025509551497083,-0.08390337241642534,0.010362583315869343,0.44122075625823975,-0.10362032103052886,0.12372423435367699,0.4673574670118254,-0.7887102224604503,0.041924195663464364,0.04992877262934421,-0.010359417740883689,-0.0037884561063642394,0.05260135489084207,0.00547614795906741,2.2421875
1.1486965197402412,0.8438245083891545,-0.7969341964516478,-2.8408311585575685,-2.0920003869520443,-0.45579513093783863,2.26032153221663,2.8629315126009796,-0.4254342681492414,-0.26159212563048617,0.13001665881754595,0.086620802455726,-0.5184670172785796,0.05589537017372041,2.25
1.3749180425357952,0.9098736579905183,-0.7536327580341535,-3.3047310587005723,-1.7830485202229809,-0.6118082404252866,1.3878190612502137,3.8550786625413194,-0.45862346052719183,-0.31852636160433573,0.1357129144671327,0.08595934611416718,-0.561644790192534,0.042241587836128115,2.2578125
0.3551200500277891,0.15339617739953562,-0.031686799769342355,-0.7736000518092528,0.12301938721903764,-0.2116581865856065,-0.7062757215231602,1.339284341697291,-0.07751038218678336,-0.08643171841303812,0.018537494755753312,0.007766218121359538,-0.09750694113922301,-0.009759650532182078,2.265625
-0.30142075444635924,-0.24531406219697846,0.25638169243616254,0.7704307389509182,0.7156959332859644,0.10427505265241764,-0.8952047416426108,-0.6568671143409066,0.12325641701243643,0.06768912928471602,-0.03929374981379339,-0.026930794638779273,0.14946259551010338,-0.021374959237969594,2.2734375
-0.02022881429453994,-0.03782204373820801,0.059474842001882064,0.07228222877543487,0.19874876161750885,-0.006946008252450157,-0.3348906578371343,0.04261052509357267,0.01875277889184917,0.003577020111818741,-0.007199950438952403,-0.005568912458580388,0.021983980991049826,-0.007296967961870039,2.28125
0.17271912403763354,0.0003981401836240373,0.13290377967354847,-0.306283407270231,0.5924755306015735,-0.15214465827859572,-1.3199116459996023,0.9674668625265351,-0.0002900125540556341,-0.04597175471251377,-0.005924246905595619,-0.009377852298481145,-0.004526142522633313,-0.023412999504832898,2.2890625
-0.2253339750418865,-0.2508186995760819,0.3262947282555111,0.6401452501276481,1.0181133418616226,0.03336319411734053,-1.5550023090039582,-0.20344742265315263,0.1262706235637682,0.04703871714108561,-0.04285706338640858,-0.032084934192956695,0.15074391080796234,-0.03278190764445604,2.296875
-0.5591823881720007,-0.23642156300259384,0.037504029711934485,1.2179505475471502,-0.24445894339771188,0.33804386735506786,1.2137245090350866,-2.148298419696158,0.11861838415051577,0.13711570594517583,-0.028992404566600093,-0.01120892833795408,0.14923873523523715,0.015076161434548851,2.3046875
-0.47733689990759365,-0.023538806227550245,-0.32516357670334256,0.8691207038185972,-1.4922567675646643,0.4066692127572505,3.388630337792079,-2.5972442761690626,0.01106611961122985,0.12662768532210034,0.010706417642404703,0.02204422604592156,0.022981012181067514,0.05688742099589606,2.3125
-0.3584704536195298,-0.08626129626548514,-0.10652834322658523,0.7192432143830798,-0.6277781421938784,0.2599389429532535,1.6445910972805546,-1.6581955136017454,0.04286221480000058,0.09144945297168394,-0.005731751325100541,0.004376987961878771,0.05732219477646958,0.025544359092819217,2.3203125
-0.29659209231365335,-0.2320872055290371,0.23391769947634486,0.7494635370419219,0.6365118784274639,0.1086526735199843,-0.7570693217769444,-0.6852098435496752,0.11667305360577333,0.0670976076448482,-0.03681685189062624,-0.02488448877825596,0.14138948329803455,-0.01875365422431075,2.328125
0.03452277712846472,-0.009496582872228175,0.045222542862463216,-0.05102794163280146,0.18300575998238983,-0.03641960184416178,-0.382131549657737,0.22986367150241574,0.004605658051146897,-0.00947453410919979,-0.0033300392753872277,-0.0035628041299449885,0.0041143439312644175,-0.0075203206972227965,2.3359375
0.5407033939736269,0.3382576273264419,-0.2577166595054582,-1.2806325173679978,-0.563408120576786,-0.2533844832489789,0.2936007933134481,1.5965385570224224,-0.17059420133480088,-0.12617733607843046,0.04931568575543009,0.0303360877391956,-0.20992452385063837,0.0114116921814019,2.34375
0.7097482887561349,0.3174565979389576,-0.08399158502567705,-1.5585464683238794,0.17342907881142933,-0.4166122595149376,-1.2838582551369728,2.6384226219590805,-0.15993931751120435,-0.17249578858856612,0.03959210323406687,0.017352326883973666,-0.20105142008663743,-0.01623375871549025,2.3515625
0.39193569951500445,0.013037355811963,0.2788521682134312,-0.7035013946111144,1.2615661813747365,-0.33736107267781695,-2.8424154444388336,2.1482270310002822,-0.006452279039777109,-0.10381204123999892,-0.010614614274354981,-0.019202907606994873,-0.016221194861390974,-0.049433863759770595,2.359375
-0.07812860655719879,-0.20290665761702595,0.3452306289622953,0.3339733866191147,1.1838302544813295,-0.06493150239676304,-2.0604694366031464,0.4214481705876668,0.10216103407519685,0.010298443982113612,-0.038157328345209955,-0.031690309827847145,0.11965368632549997,-0.04043518028526311,2.3671875
-0.3764705393637611,-0.21198055923606562,0.13069936542723182,0.8693544034068321,0.21348222395230615,0.19267309864891005,0.12438189211759007,-1.221938102795382,0.10639764088799303,0.08953277907594934,-0.030143882573633752,-0.01691048742426628,0.1309749696438335,-0.0030518716674644716,2.375
-0.3674294445508036,-0.045812130923072285,-0.19533414920577288,0.6950913938461196,-0.950860035644802,0.29479889917382385,2.247593189778506,-1.882419550318537,0.022426857377979538,0.09601387960400992,0.0026338820312330415,0.012077173689789649,0.03379282712424984,0.036829497424718936,2.3828125
-0.07087713413238783,0.18564972522666304,-0.42823211570345504,-0.05028560951058434,-1.5877537786536902,0.18625119215319938,3.009371950095415,-1.2011344536805113,-0.0942289665315506,0.02919600823873601,0.03897374211304245,0.036864346699781135,-0.1075354311954994,0.054749365989800236,2.390625
0.24014744036437305,0.21761588432426057,-0.24992936141519217,-0.6322364744902755,-0.7384605759488307,-0.06746480118716625,1.0256430280334983,0.41657046913702744,-0.11009509137228961,-0.05223342030918732,0.03514736281096901,0.025454069996497224,-0.1328679857098191,0.021433632741917466,2.3984375
0.2538552680371058,0.011158304285207515,0.17496302642855346,-0.4599376259355354,0.7964535796334085,-0.21673551640181205,-1.8060521622004573,1.378832449750447,-0.005748070967843933,-0.0670513258432122,-0.006402921511401902,-0.011947903893683744,-0.012617544520854297,-0.0315039653656908,2.40625
0.07428435553504507,-0.05535272011562397,0.16866469870351913,-0.07759064320116484,0.6534307975053788,-0.10229561203253734,-1.2967472961729423,0.6512928246099405,0.02777923766452168,-0.022651666604957838,-0.013780614766355418,-0.013899388418430787,0.030170813996049192,-0.02422426097532235,2.4140625
0.028504523802211388,0.13779784141440884,-0.2544691148931026,-0.1801966504243447,-0.8965206650859526,0.06641391018884281,1.6060659886836894,-0.43452963862971816,-0.06981959174193748,1.0198431566655787e-05,0.026166823124749602,0.022902467179397257,-0.08164897125959601,0.02965393612478729,2.421875
0.0411582072824354,0.1299488700280947,-0.22917095253546477,-0.1954340365841927,-0.7980480250991465,0.05022808283463864,1.4068575559989778,-0.33028493078507987,-0.06594421150272685,-0.003751993046101627,0.02421992295294862,0.020834411672940516,-0.07751112318030619,0.026109900860840855,2.4296875
-0.21215957591028411,-0.28010735377699336,0.39588707499447306,0.6447410155336523,1.2745707085924147,0.002122911187866082,-2.044272572882977,-0.0030212098968335193,0.1409358815740919,0.04192111429610215,-0.04909632331892554,-0.03803113702651788,0.16734549890516578,-0.04178430720632542,2.4375
-0.5833204001040346,-0.5701728821249854,0.6887334873546052,1.5799782670919604,2.0762099109659613,0.1376851517600549,-3.0034966432965176,-0.8538801839026818,0.2872365019645574,0.1255488996748547,-0.09470804964468232,-0.0691495494789333,0.3448913412092321,-0.06443316516040493,2.4453125
-0.5574680911872829,-0.33685137365363677,0.24085271460469673,1.311657968379759,0.48649689444380934,0.26967565624504836,-0.12505199754974486,-1.7075450342143246,0.16944445341391795,0.13120608453117324,-0.04913370083766945,-0.02915443447733145,0.20818454847505294,-0.0101158740067684,2.453125
-0.08024377723160689,0.10452615368015589,-0.272901061956371,0.043990616911168866,-1.0363331248159855,0.14075234894000896,2.011506435642334,-0.906596728111714,-0.05318143450516995,0.027359928900435298,0.023104312047093196,0.023005084455774965,-0.05996026432405225,0.03592306312322671,2.4609375
0.35445208890530505,0.33080633626763406,-0.38800701259312764,-0.9427008587263949,-1.157182278582148,-0.09344699220739928,1.6373301346788185,0.5766414561616889,-0.16712026423447596,-0.07671885026108372,0.05391412064993969,0.039285614586083095,-0.20155407358237337,0.03429801868539285,2.46875
0.4492160154790046,0.3458213785783375,-0.3439277960905193,-1.1246992541312424,-0.9351967975828965,-0.16736963437224603,1.1009896852348338,1.047750530815672,-0.17451137337305309,-0.10126451001719906,0.053778202079510465,0.03669137331150256,-0.21224072635390756,0.02538915982464185,2.4765625
0.36945444704595065,0.26139792140350515,-0.2367623381298178,-0.9028346863065245,-0.6039624992398485,-0.15282171065917094,0.6035974793205964,0.959119166230585,-0.1319203571142436,-0.08446502928935824,0.039576352985068584,0.026071167423050115,-0.16106204610208263,0.015075289156824578,2.484375
0.2897418492074161,0.07803394725790623,0.06845413403263327,-0.5869881165951684,0.4382878507868556,-0.20389710048056614,-1.1964315322222885,1.2935595393508776,-0.03949020224685864,-0.07300998317860137,0.00571583932820283,-0.002044176295655865,-0.05225465255943916,-0.01967840739546981,2.4921875
0.1977276162097629,-0.06812379932182197,0.28958845070850064,-0.2844110720707181,1.1707599880960955,-0.2195368735342942,-2.411478202788479,1.4000453049187676,0.03422925298888905,-0.05629314360420594,-0.020325260616246916,-0.022897348410777875,0.03501770265387391,-0.0436596347653847,2.5
0.10532933796902663,-0.0016866942865454957,0.08425574254078395,-0.18400246558336317,0.3723561304829197,-0.09380084530647274,-0.821476122686365,0.5947911878774683,0.000689578971462357,-0.028025469453047045,-0.004054160000700365,-0.00605785538426627,-0.0018476858194485506,-0.01500742474867672,2.5078125
0.025056297459063098,0.10915931459257779,-0.2007392071559102,-0.14812040303062374,-0.7046798552839607,0.05081924345422703,1.2604286627859917,-0.332593100665139,-0.05536429128022784,-0.000569590802848565,0.020645725238057615,0.018006141557730792,-0.06497839052266002,0.0231130148071735,2.515625
-0.12585447300277344,-0.009513890716415228,-0.08028976745753236,0.23229947217429694,-0.3751773916710212,0.10557651409668786,0.8604839688372943,-0.6758136157040868,0.004354038959727954,0.03343545165965251,0.0019681105207492865,0.0052574348235804105,0.007407148073731037,0.013823978342681847,2.5234375
-0.2749856009667133,-0.187766847955395,0.16154200826490903,0.6677260891448985,0.391156546854522,0.11897983569334247,-0.3408844760475335,-0.7531241360880495,0.09427654252445176,0.06371931173759586,-0.028640133016365393,-0.018184680228278686,0.11469097236008786,-0.01055901038846128,2.53125
-0.19178542806455492,-0.08097292570820043,0.012939423609893213,0.41944544063887995,-0.08663119301719903,0.1159880273378644,0.42193768759348205,-0.7399815934569457,0.040491761393425495,0.047171105725702656,-0.010142703422893876,-0.0038430168389919,0.050671416839682626,0.004724674413639755,2.5390625
-0.04352449378236578,0.1041511601183326,-0.24240359454348956,-0.0202818456265548,-0.9033588825087937,0.10761501904102239,1.717027633752999,-0.69575988906639,-0.05296564381538713,0.01744061173689404,0.02180434168483675,0.020850116612497808,-0.060526383886291224,0.03084376107217841,2.546875
-0.34233160456089823,-0.1443702714064357,0.023179490113247037,0.7456772591068805,-0.15139999754035557,0.20696401122563582,0.7471781478978528,-1.3172309146238421,0.07211053301718358,0.08396744284538672,-0.017894406593563457,-0.006810858985875618,0.09101026848922522,0.009012122239844926,2.5546875
-0.8924592523653113,-0.6510666945311966,0.6105520885340036,2.2045205325324315,1.586710880203726,0.35721107319848994,-1.6873275344969851,-2.2511718521637163,0.3275550545515992,0.20384418234579382,-0.10070595147135249,-0.06648966905298773,0.3987130336668044,-0.04340120625041258,2.5625
-0.6648739124951871,-0.6083561224371422,0.7019610515344603,1.7613449665384542,2.0687791842828034,0.18436521316439114,-2.882535233255809,-1.1508265566843396,0.3063957365444741,0.14531293956439614,-0.09963468504999574,-0.07140890741492656,0.36895145817344943,-0.06301888791638832,2.5703125
0.5314624076752005,0.14061640564606365,0.13155719957142417,-1.0736320730977995,0.827590570828505,-0.3762543839902402,-2.241894573197054,2.3897699605835507,-0.07069524921665736,-0.134292911586949,0.010240199405854536,-0.004194105437586455,-0.09401932146045429,-0.03630935978597738,2.578125
1.2704876337857371,0.6884467750616383,-0.39197021519109704,-2.907156350924561,-0.5533643575288093,-0.6658852698710934,-0.7182599118854384,4.212047702759419,-0.34677290618497714,-0.30243631664329423,0.09506032232798406,0.0524456362063767,-0.42977456311298573,0.0012833391922545232,2.5859375
0.5218662014772104,0.3979421147792534,-0.39313501058544703,-1.303795778610099,-1.0608447195079453,-0.1965939162218415,1.2375364432155858,1.2327845738106016,-0.2007438798257105,-0.11785962219579274,0.061801830106843966,0.0419887071491212,-0.2441218995008993,0.028668936000290773,2.59375
-0.5382049689925846,-0.0938535671160348,-0.23260672718850026,1.0446423113029752,-1.1981896070472975,0.4142305732410955,2.937888719294512,-2.640864468997181,0.04676789728685107,0.13917436092733765,-0.0013181313182972646,0.012899106890358758,0.06577263280343432,0.04751950174781161,2.6015625
-0.22229975755324807,0.10219085304349766,-0.37888223622203504,0.2980851723247178,-1.5117731508091194,0.2647827832600728,3.0777024552286036,-1.6977993052423122,-0.05198554392775653,0.06524128256182427,0.027322053737551075,0.030329179699788326,-0.055463945878162176,0.05414456138978727,2.609375
0.9330648111838833,0.6752413986710806,-0.6273788214592908,-2.2972214836167484,-1.627582970420484,-0.3766013019215829,1.7072550838858964,2.3661323041426883,-0.34059928908311105,-0.21292176547614108,0.10348107683617408,0.06858651355535077,-0.41493292837157825,0.042798546731709686,2.6171875
0.9613481738121255,0.5894846756280085,-0.4334324422846085,-2.266809743052039,-0.9127644514689148,-0.4585401300802938,0.357061803867279,2.8932304638768302,-0.29745060884404667,-0.22514680318280125,0.0855077599836636,0.05182844637289935,-0.36565784799466017,0.017877478927412167,2.625
-0.35607415997781067,-0.24559078724438907,0.21462409060798326,0.865275858000305,0.5273512771368544,0.15206700197519452,-0.48056731768196437,-0.961975799708535,0.1232402215109896,0.08219740509271026,-0.037486481590775424,-0.024014464312566652,0.15012668371128418,-0.014110230225064996,2.6328125
-1.1227824950274676,-0.77555739733441,0.6802175131398583,2.731847963226828,1.6828726394898366,0.47822373774434007,-1.5482781134661723,-3.0174185352099525,0.390481248881749,0.2587302911495139,-0.11785281303212257,-0.07596735761455639,0.4762085964790322,-0.04368202757797078,2.640625
-0.3744818493614803,-0.4158205450066978,0.541878766542245,1.0633700999531672,1.6897817722423927,0.055424723002956755,-2.581997978208252,-0.3374748369378823,0.2095272964164328,0.07801532688301896,-0.07080826373491271,-0.05322885663794469,0.2503183086390055,-0.05391426631057628,2.6484375
0.4693870144424628,0.0812970897952917,0.20188586593342472,-0.9077534542093907,1.037940297035517,-0.36055838389944117,-2.5395598407517745,2.292724688309568,-0.040931389844596905,-0.120870898424958,0.0004894185402261863,-0.011327966708627932,-0.058064286310880696,-0.04272089647028174,2.65625
0.0432869849478144,-0.08965127962461787,0.21201607598653166,0.009481995091495322,0.7889442428780127,-0.097067179603205,-1.5001257381554218,0.6205155430868629,0.04499389286785416,-0.016099332318872724,-0.01954679793001454,-0.01821312871382341,0.05079945335872007,-0.028467426624671253,2.6640625
-0.8012767763486538,-0.47821561946175334,0.3332897915773977,1.8778328359194865,0.6561678438825447,0.3917559105790218,-0.10299075793206447,-2.4789879722326504,0.24061171690198954,0.18884878847690253,-0.06922253487027928,-0.040769985408143465,0.29581929269073015,-0.012681235082204903,2.671875
-0.6217935309464894,-0.2536603800835741,0.02367909267969201,1.3464088955314215,-0.33599556986273627,0.381808166520291,1.4682003539370432,-2.426650680392571,0.12735994045949894,0.15289380644552011,-0.030445687411986798,-0.010830942129737835,0.16085924550606723,0.019009958634160856,2.6796875
0.20324042485510074,0.29743724694365836,-0.4380204855691211,-0.6422427461803258,-1.439546612818274,0.017841526840967303,2.3615273884771018,-0.13170652109797254,-0.15041526529798907,-0.03814034851749035,0.052197294005941114,0.04159570901762304,-0.17873657124395861,0.045981082883738825,2.6875
0.3642553575592939,0.3230391223108988,-0.3641359552899837,-0.9530799891601873,-1.0655930679255743,-0.10747997293656392,1.456073432040315,0.6665682353025386,-0.1632742763643244,-0.079825258939688,0.05203359403650455,0.03730384162688795,-0.19719945750944984,0.031020424125986792,2.6953125
-0.09946600284643389,-0.06924866223758655,0.06071038866397589,0.2431687969546004,0.14835824521556745,0.042363264395289375,-0.1341574637454202,-0.27034695125937425,0.03455382918911362,0.023125843217629297,-0.010832549004687558,-0.006794474528574742,0.041885546498207235,-0.0045340819869320636,2.703125
-0.17483503475327475,-0.1266507817010524,0.11709214776038825,0.43230692195297754,0.2997235505447117,0.07091931554562635,-0.3077734975021439,-0.4501403557600608,0.06354636032592681,0.040224399038664156,-0.01977773413183936,-0.012831174805961425,0.07708412340863885,-0.00876489033713438,2.7109375
0.255725045044322,0.1690234707507105,-0.14002568285342953,-0.6124910553070181,-0.3343443718009365,-0.11361514543886982,0.2662943219815331,0.7126371255950784,-0.08545389898221345,-0.05901542701257436,0.02495494990755885,0.015960455279748723,-0.10478313082351069,0.007281984454414736,2.71875
0.5683858331638911,0.314889613743579,-0.18888237032895758,-1.3059206160742391,-0.29892356189960523,-0.29319622155169817,-0.22678053749098911,1.8519635322972403,-0.15884163247738958,-0.1347855219407121,0.04370128100080608,0.024656971664973857,-0.19656367740647332,0.001924008211031692,2.7265625
0.6707971527017019,0.34408834099742014,-0.16775983293328994,-1.515663771557745,-0.15304474422637004,-0.36436494195834057,-0.6366132518588747,2.3051401722315292,-0.1734080192237257,-0.1606124317921942,0.04611292833267451,0.024216654557945545,-0.21569882479806546,-0.004415427400938182,2.734375
0.6848718830786248,0.44820715821769325,-0.36536169126167006,-1.6404503384160702,-0.8528257517878153,-0.3079944259373452,0.6251196255563434,1.9396397546866222,-0.2259731863044694,-0.15882795167730035,0.06638573945052713,0.04190860367418778,-0.2768995900752013,0.019463736334185265,2.7421875
0.2583066858217881,0.2531563654615322,-0.30637350415569653,-0.6987103038824422,-0.9289394583676769,-0.060498721295155315,1.3497376648766708,0.3689947531549082,-0.1279455461901628,-0.05530294417241909,0.041606515428713055,0.030718598310714676,-0.15411407255108156,0.02773504991951169,2.75
-0.5613065391295722,-0.37341867493630204,0.3110031780956702,1.3516530734462513,0.7357285640394731,0.24863598217703675,-0.5774477649267635,-1.5725037412952538,0.18770095084673694,0.13019001209822106,-0.0562010091172135,-0.03541221630503689,0.229236451101881,-0.018596491884919505,2.7578125
-0.8604616450485346,-0.6887538834415136,0.7094424673090656,2.1829341474599238,1.9657082323018467,0.30434929279016143,-2.422327120369921,-1.9112999613241521,0.34672174377203424,0.1932988004937632,-0.10917864219426318,-0.07488860175440545,0.4199453772648873,-0.056890715880034796,2.765625
-0.3266979036342101,-0.2964491857137976,0.3384336567922318,0.8633469253295137,0.9935051435116885,0.09291006660943925,-1.3718711861322759,-0.5806985532356629,0.14916660781821187,0.07171995057367996,-0.048617188289630735,-0.03460059609662333,0.17960806218518,-0.030589036191972313,2.7734375
0.0889247266915324,0.07963901950710764,-0.09159783641436697,-0.23108250456267737,-0.2713305091272055,-0.025054316916238994,0.3788513234068206,0.15340100183847313,-0.040311082108350056,-0.01915711947204075,0.012644900572250232,0.00926029673215659,-0.04894016981834297,0.007310153493587675,2.78125
-0.16222636016200775,-0.05753408357698425,-0.012202711099439285,0.3449657403860744,-0.1562715167946107,0.10602928445176173,0.5147607737063793,-0.6767172798511705,0.028702068491592576,0.04066005267684879,-0.006354881220392931,-0.0012944197072694782,0.0363069729624363,0.006680645733171963,2.7890625
-0.354484521711683,-0.14172074285623418,0.0065459655975736025,0.7644044552149931,-0.21819972178403654,0.22016286709546237,0.8920893237177234,-1.401321764853081,0.07087311353218288,0.08753110847245113,-0.016770294545836506,-0.005639083584347186,0.08934324026029125,0.011430045343344759,2.796875
-0.0454968184117275,0.13903270031300158,-0.3155549512760749,-0.05271025318921659,-1.1654510934020257,0.1329937121573416,2.201971472931324,-0.8591734352335896,-0.07071101036930497,0.019923736383964684,0.028938223520613527,0.027221297801119506,-0.08121836400127959,0.03995577132938489,2.8046875
0.0727173147527334,0.13050429960355303,-0.20566167798503907,-0.25351025381576275,-0.6905538646224952,0.02248058136135169,1.165859040582438,-0.1533594038749184,-0.06612267183924132,-0.012227478234832168,0.023256613454349304,0.019189684877676888,-0.07842080196847617,0.022058037794064952,2.8125
-0.3307676562512262,-0.3834483647546086,0.5113409434361681,0.9540986497047909,1.611415489775012,0.03806340639801618,-2.501589836960032,-0.22735506355353638,0.1932456069552091,0.0679956993362453,-0.06591044947079415,-0.04987237451882016,0.23078380557836822,-0.051763458745121796,2.8203125
-0.42116996476447993,-0.5235922583765196,0.722439191593094,1.249097529216084,2.3068663565391248,0.024937243918297988,-3.6508849412732225,-0.13730025434457294,0.26384275597734164,0.0846224655640884,-0.09085509892644374,-0.06978262524791205,0.3146452010309592,-0.07450497296722586,2.828125
0.2775010425396699,0.14749202556003574,-0.07878338711715434,-0.6302129151998768,-0.10064300668597317,-0.1476163107981704,-0.19451049436260695,0.9300976940328454,-0.0746406181869391,-0.0661176191171952,0.01986866388157513,0.010921901765760127,-0.09254384281391961,-0.0010340781087737356,2.8359375
0.9372338153987607,0.7818965799938483,-0.8372709554025101,-2.405535933962998,-2.379954000051985,-0.3098865021073271,3.078738280210989,1.9347228142014068,-0.394460921846284,-0.20836944201136876,0.12456323340197938,0.08726390713991261,-0.47748270211607013,0.0685552462274223,2.84375
0.8173595958495096,0.6559025934304021,-0.6786299553658245,-2.072653480169062,-1.8907459697223667,-0.2871464329378561,2.3467293292650764,1.7966650491274112,-0.3308716078790452,-0.1830110275253529,0.10343601620280327,0.0715055981071532,-0.40135425927472135,0.053333309150983305,2.8515625
0.3754533097755745,0.2096846328568217,-0.12860544351446465,-0.8637219871672925,-0.21287907355280158,-0.19225367531878368,-0.12091608983774371,1.2131907497975654,-0.10593587971740465,-0.08881087439666575,0.029133548634570378,0.016605544177213945,-0.13119125214893762,0.0015366210810611465,2.859375
0.22178911631473436,0.057954985314757235,0.05568643182730871,-0.44756676757127206,0.34635552363353367,-0.15710845531092602,-0.9340304440937413,0.9960913051714307,-0.02944941363174895,-0.05591543032880712,0.003995095459468431,-0.0018833584994279774,-0.03929068899946677,-0.015632770300333342,2.8671875
0.06614222439302422,0.025550054665318032,-0.0007980999089244225,-0.1412408748058398,0.039936596817719,-0.041065251829658485,-0.16008809669490107,0.2575491477809421,-0.013090126806855566,-0.0160570486342177,0.0026252131657650024,0.000910828404158052,-0.017003637654844583,-0.0030278665024778694,2.875
-0.473136315065052,-0.24130061985398682,0.11401084385529499,1.0701423365315545,0.0896516514922316,0.2587901995581588,0.4865217566729686,-1.642124610791013,0.12131265738975919,0.11383031686495464,-0.03285325364408517,-0.016816710826863514,0.15058173403861527,0.002425336964613529,2.8828125
-0.9090672372135598,-0.5210651503372903,0.3352976846121492,2.1103843139904392,0.5906285731083316,0.4587194231481306,0.16565895968249722,-2.904180779155465,0.2621516773278847,0.21537837622174963,-0.07423599049530051,-0.04249905406657454,0.3233835486755991,-0.008993602781516903,2.890625
-0.6264669028365797,-0.4249145947383301,0.3624830192917251,1.5165894445347312,0.8785895346654513,0.2726332982355561,-0.7493542992478239,-1.721863535140696,0.2137013473584661,0.1449507899072053,-0.06430857470274329,-0.04092623027833588,0.26092722143159003,-0.022620736261443137,2.8984375
0.016585081921710786,-0.06496865550420364,0.14158121639988944,0.03205338515608928,0.5186483547527784,-0.057205255964242405,-0.9714374527045067,0.3650788585321069,0.032445187033116746,-0.007687808392248248,-0.013727757576044984,-0.012354087909618911,0.03667812418617873,-0.018782740040773092,2.90625
0.1859729206958281,0.11035505105701414,-0.07757945322179863,-0.43472912240711725,-0.15465465576677925,-0.09080228718967343,0.03048394450037028,0.5706664239367308,-0.055866484481097316,-0.043564725383610045,0.015591112124702874,0.009419418120031591,-0.06928042694001957,0.002079148520619928,2.9140625
-0.16106597256814936,-0.058348475138371825,-0.008766791248985998,0.3429920413924578,-0.14263155905459388,0.10386068807207792,0.4846795468302349,-0.6638392371971579,0.029125504518235118,0.040157916436627805,-0.0066212806963886406,-0.0015234253994687087,0.03684230966816618,0.006239230029061268,2.921875
-0.3091326143300271,-0.26739493141114457,0.29561359411941185,0.8050453711508126,0.8491205877262035,0.0959183159511147,-1.1302077005590327,-0.6032858796663259,0.13456947680281386,0.06849235883806044,-0.04337742568810553,-0.030515217711445202,0.16207683494674002,-0.025880702806709385,2.9296875
0.04682305663247766,-0.1875543263509498,0.41268605649879475,0.09730502354582521,1.5085666231575379,-0.1656920778226247,-2.827217917667621,1.0625229201789694,0.09446477215496675,-0.022387900660894553,-0.03919668677328573,-0.03586823820392801,0.10783229053113787,-0.053255968896675485,2.9375
0.4421593550061207,0.1285122963158759,0.08659202235888006,-0.9043427450783194,0.6043748172124728,-0.30525172930437616,-1.7112401079842199,1.9380550596233583,-0.06487265592829494,-0.11105187886130481,0.010698781828036885,-0.001460555057086204,-0.08496813042084653,-0.027437859730623546,2.9453125
0.5055987205255776,0.4043816082942124,-0.41717432931474546,-1.2789921163164655,-1.1607993317135725,-0.17825637068797048,1.4380184714993227,1.1140897795796485,-0.20411547206058556,-0.11314617937534995,0.06353782760531584,0.04401311074867267,-0.24730065727501702,0.032373600673036795,2.953125
0.4203461584192101,0.5131261082978146,-0.7015500506163808,-1.2324201422922256,-2.2390984553322886,-0.03091199914278496,3.5305074078685825,0.16816022396563643,-0.25914064083593336,-0.08452905537805046,0.08804326578691146,0.06798708467810816,-0.30929267644085384,0.07059156752690306,2.9609375
0.3235450324295971,0.4541351469260884,-0.6587093755710773,-1.0060489783197433,-2.151373222520434,0.015431438118246972,3.5005114322201285,-0.12481441676863927,-0.22956965784435304,-0.061855982787633046,0.0795096853382851,0.06283516892865573,-0.27311763613877726,0.06890032732902737,2.96875
0.010302562529867472,0.18100798367654852,-0.35520428697526557,-0.18998050316922924,-1.2729569281693007,0.11125249520268835,2.3188698064397215,-0.722621207236145,-0.09191885522761381,0.007220014950575032,0.035382736424538784,0.03156707227790731,-0.10676477802488651,0.04286179039866659,2.9765625
-0.45809252963666075,-0.2253950573755795,0.09451735874812349,1.029216486172961,0.028005307631768922,0.25585386958108897,0.5767920990265158,-1.6248156373977332,0.11316573266528894,0.11063407464145439,-0.030198818273367293,-0.01482552171654873,0.14099761528384516,0.004330639033434486,2.984375
-0.5981010253005371,-0.45334266111238597,0.4420138911275697,1.4946363888264342,1.1837527974358335,0.22847840776898604,-1.348372486944932,-1.438259917417733,0.22840581729914614,0.13580936900327178,-0.07099041530931711,-0.04756680978221836,0.27721767701297045,-0.033544328164369974,2.9921875
-0.292665347411994,-0.352410025201591,0.47720805089862905,0.855607532292576,1.5163398436513742,0.02546000624905878,-2.374522356395656,-0.14756903270280164,0.17765262745230312,0.05953845990544656,-0.060893141661796074,-0.046417790886997205,0.21155330828392305,-0.049018424539755225,3.0
-0.011817676112955021,-0.15515804198655744,0.30063254822965063,0.16906798635479475,1.070388541885431,-0.09200129197302788,-1.9405676238366472,0.5917133660434458,0.07809158110592551,-0.00497438909336228,-0.030802424664097258,-0.026860850523414144,0.0902218858450342,-0.03741375783573697,3.0078125
0.034473562766177135,-0.057795908676000395,0.14183882257660754,-0.005541324147002202,0.530719259610311,-0.06842545495471283,-1.0160513131442581,0.4360740123296032,0.028915521216560866,-0.012112732342570369,-0.01290203774603868,-0.012150766208721296,0.03233216714999585,-0.01947336260099795,3.015625
0.1845857999133281,0.05097824985037758,0.0407491982486906,-0.37508640485188277,0.2686437169376797,-0.1289352498494776,-0.7437428690398771,0.8172124802283544,-0.02583335204464942,-0.046359472792636164,0.0038331160875563646,-0.0010800917438659422,-0.034460350839959304,-0.01245157523858807,3.0234375
0.491622041885652,0.211462643523123,-0.04185296872976365,-1.0720277168416117,0.17782191146566326,-0.2937896765455762,-0.9975943530496727,1.8614284041745894,-0.10666336540734288,-0.11978726727665433,0.025668644530673877,0.01055554387126993,-0.13472330159755794,-0.01342191004919085,3.03125
0.44329512585063674,0.18744911138240233,-0.031023964370345592,-0.9629982205300393,0.1830017513099989,-0.2670907610724907,-0.9386438793805105,1.6912196374381028,-0.09469923001046664,-0.10817676297618965,0.02244118815339393,0.008934774063357066,-0.119548304270075,-0.012971789790409445,3.0390625
-0.10607887451189166,-0.08195085406269355,0.08140152700799577,0.26761316583539807,0.21716542619086276,0.03965142046107112,-0.24933309626880387,-0.2538294190860122,0.04085340276435637,0.02418898308391895,-0.01314203823974312,-0.008706990802313571,0.04951633702100482,-0.006816037307223237,3.046875
-0.4988026501860851,-0.24524113944610598,0.10255464581925378,1.119159637380962,0.030011232460305855,0.2785757921186355,0.628428362868693,-1.769734234158662,0.12306033572209826,0.12044274936131695,-0.03273273311854063,-0.01607788248561943,0.15314878169097879,0.004872236651943704,3.0546875
-0.23365128651226555,-0.051063862564113646,-0.08031476482119623,0.46458882399477486,-0.4483301174802254,0.1731583761892738,1.1415191024663007,-1.1055964488016121,0.025288996962573328,0.06004355093422681,-0.0028020059751218294,0.0038328856493042357,0.034098862132536246,0.017759363428334618,3.0625
0.24964775956361063,0.240114187456682,-0.28675663655866573,-0.668944366963631,-0.8663230221363866,-0.06118929841665146,1.2480733779628386,0.374771751037835,-0.1213624845088837,-0.05356107688683183,0.03926562174117679,0.028895403558774242,-0.14619532939967678,0.025646025589883194,3.0703125
0.24390827355799377,0.2432858049695358,-0.2967925168870909,-0.6623137954097259,-0.9075245119450829,-0.054452788141078956,1.3312822636678723,0.3303393957310473,-0.12302521657580154,-0.05195154850530557,0.04010025457189221,0.029712912539934955,-0.14806058461545293,0.02715201462826545,3.078125
-0.20380081615174336,-0.0069658858053861395,-0.14452865869898904,0.3687979591011615,-0.6606270940561112,0.17547644882676694,1.4894484203987979,-1.1238759489071712,0.0029762408865561104,0.054303333590531744,0.005007663976606413,0.009936371522759542,0.007489072206898667,0.024669364631012575,3.0859375
-0.45704766501392036,-0.172883931483631,-0.010671196606751223,0.9761363937878803,-0.3473094619642655,0.28993493216565946,1.263436248802349,-1.8441214864367625,0.0866821422628186,0.11319580886071447,-0.019728027318920576,-0.005516482405356615,0.11002338351964157,0.017248086655702922,3.09375
-0.24041604812347397,-0.11407260734858503,0.039567409960189384,0.5372047972117964,-0.019302535654284404,0.13774824307950315,0.37077472466661093,-0.8753188721348556,0.05731993239843549,0.05847950148444162,-0.015162604460038167,-0.006970507753245935,0.07146889484403363,0.0030196937931174857,3.1015625
0.07999161137638354,-0.009251478680920513,0.0793349176158481,-0.13062871761709796,0.33842868158195194,-0.07612192180530628,-0.7222313714672837,0.48349690141731866,0.004626492608108964,-0.02160136252931266,-0.004794409958716046,-0.00600385738257204,0.003464757304478797,-0.013554416714622352,3.109375
0.14268546033542304,-0.019966965046975663,0.14987979182967223,-0.23256798476639134,0.6322678216448149,-0.13873321386065296,-1.3509828711334715,0.8835043011342593,0.009895590504670497,-0.038971744758933655,-0.008961638360917994,-0.011351610069189224,0.008140742149233325,-0.02443579028929965,3.1171875
0.0726911600425584,-0.055062440605286964,0.16594422307075243,-0.0755879279248347,0.642199226388357,-0.10015003675190362,-1.2769185704842185,0.6395053651455672,0.02746697656896961,-0.022139559219985512,-0.013690760763584636,-0.013734779323964328,0.03009020715792003,-0.023802859655857694,3.125
0.15395703522544402,0.051670240474200005,0.0160086597221669,-0.3214074269210138,0.15884306331818676,-0.10151657073161041,-0.5014601762792674,0.6423124470756162,-0.026269302824730084,-0.03816108506982125,0.004841724972084912,0.0007024984647010867,-0.033880940948567875,-0.008255833245714049,3.1328125
0.3322404195646308,0.23953093493129698,-0.22118560659370318,-0.8170401767708831,-0.5730710477589253,-0.1348901598847131,0.597441799810885,0.8447171611067779,-0.12094743443547482,-0.0757796191803939,0.03643168755666176,0.024227925835346407,-0.14765322713504245,0.01454669239720402,3.140625
0.32031513243975196,0.23982693445668826,-0.23135864397805134,-0.7967216255687923,-0.6189628814260836,-0.1240939457336969,0.6973815638510488,0.7755848210422459,-0.12124048002706438,-0.07256708346791924,0.0369779772065413,0.02497721936387677,-0.14805304950597542,0.01628637640987001,3.1484375
0.06980407729848065,-0.04629113935608486,0.14675705254357224,-0.0791472587872676,0.5688594458570736,-0.09214042869914425,-1.137206803382324,0.5863838680746053,0.02295838045817817,-0.020919020275913944,-0.011735543021063173,-0.012005859998154301,0.024343074898243274,-0.021245166037611847,3.15625
-0.13453631290350299,-0.30925407268851235,0.5149987897895618,0.5352827032153203,1.7538214691303244,-0.08587665971397988,-3.028399000412882,0.5594271364709937,0.15571401459494308,0.019603963860387146,-0.05744033918267719,-0.047473209801525695,0.18274654886133287,-0.05929233421333396,3.1640625
-0.08947419945037072,-0.19704842273511533,0.325246868071162,0.3490027311898764,1.1043910175173797,-0.051357834959550326,-1.8991103112142376,0.33324032075080934,0.09923508702940669,0.013589139757304863,-0.03662357961241009,-0.030060484353551697,0.1165901143370591,-0.03756207689739936,3.171875
0.01323240752471297,0.11492132225809402,-0.22068394576892347,-0.1309363707182947,-0.7854935430627454,0.0648757867607638,1.4239320010007823,-0.42377028148672463,-0.05824953042548354,0.002911274000970217,0.022135677283765528,0.019676404959986647,-0.06790652325376945,0.026050353094241384,3.1796875
-0.13360074964649146,0.10499805555148146,-0.3155828769118992,0.13865048108154734,-1.2249743964933082,0.1882694293717053,2.4305460333724733,-1.2101942385511244,-0.053436622748657674,0.04165630767641491,0.02500220363111803,0.026001023119236168,-0.059108150321779664,0.0431025141605759,3.1875
