AF3,AF4,F3,F4,F7,F8,FC5,FC6,O1,O2,P7,P8,T7,T8,time
-0.3820214944905514,-0.19631496123485978,0.0945853780425108,0.8658282658523508,0.08012011432141253,0.20815593796847814,0.379166882799299,-1.3211405236941014,0.09853842347127777,0.09187242399746628,-0.02682178245614676,-0.013821105401269162,0.12204544402042984,0.0015037652539117074,0.0
0.12522900354186575,0.23039280335254,-0.36590482984445155,-0.441093814678041,-1.2311337004006717,0.04273147123341737,2.0869097675664583,-0.2866146612586016,-0.11658759575936857,-0.02084516191701619,0.04150988579268514,0.03403542937744691,-0.13809580243879324,0.039846513876488104,0.0078125
0.31702725873790666,0.22430888795377146,-0.20312724875373614,-0.7746192994915384,-0.5192740732880761,-0.13123427104083477,0.5193662494218164,0.8224106174829064,-0.1133966613125778,-0.07249288461402784,0.033949452521601524,0.022395820664757326,-0.13846063550936447,0.012840768393291704,0.015625
0.03679097906534818,-0.18379613337228126,0.39751076876937097,0.11280661351904384,1.4482944422531732,-0.1543530556353395,-2.701247357529987,0.9896146306676405,0.09264991946492251,-0.019488927780061668,-0.03816465959497564,-0.03464557726303479,0.10620546616216113,-0.05108522922764273,0.0234375
-0.08902704095836454,-0.25631337184017444,0.44432080479094765,0.4046090115154088,1.5340091728850263,-0.09108813111193295,-2.6849822239253016,0.5905971773320372,0.12941291555807563,0.010278543580117986,-0.048452036428235534,-0.04059431081939278,0.15123596821926127,-0.052360689920718136,0.03125
-0.040049943856193,-0.03093796266155112,0.03016554349448841,0.10121067519864192,0.08083853945945899,0.015129259078072565,-0.08943127085921604,-0.09792050389372987,0.01556029655025117,0.009282227855577703,-0.005134819930053361,-0.003273810489777831,0.018221235089849627,-0.003029033817760581,0.0390625
-0.13126697671900306,-0.03886176451294035,-0.02454057569399417,0.2706767722326028,-0.1794175550277354,0.09045253074631669,0.5126415589121652,-0.579178131092494,0.019162574246503476,0.03324525214587006,-0.0037349518063546994,0.00034637765610019027,0.024716056721171314,0.007133432816084234,0.046875
-0.006794634320182703,-0.06977670263782633,0.13461164518019736,0.08125797695805968,0.47409668864310966,-0.03986124111151228,-0.8544752675129976,0.2536760994046487,0.03476010160488963,-0.0016273448665745408,-0.014031189266770694,-0.0119631933040261,0.04040329287804866,-0.01701041541763867,0.0546875
0.5150942914134945,0.2566075905610567,-0.11372968233754212,-1.1552035925516642,-0.06519918491784338,-0.28446607358371173,-0.5829664052589858,1.7995050708967222,-0.12950435066615706,-0.12357763310151484,0.033834262766496266,0.017283925049960014,-0.16131589719383554,-0.00538264998548831,0.0625
0.5682556886533803,0.40443280877532767,-0.3686998603986939,-1.3922762888163838,-0.9445453793606913,-0.2336358195968198,0.9504237031126579,1.4681106810420619,-0.2041130514212355,-0.1299239416470117,0.06158069171360287,0.04056203009231591,-0.24916138573677912,0.024209824989051613,0.0703125
-0.30825764254797944,-0.14078198003604153,0.04227376962087256,0.6811101599248416,-0.06077236704570178,0.17918070468536557,0.5288426785080891,-1.1401801873863129,0.0703380864554608,0.0750258069229637,-0.018206151190394832,-0.008077378413006852,0.08783367977530689,0.005485842021062166,0.078125
-0.9813225054860056,-0.6436649059580318,0.525897042519495,2.3550333391303058,1.2226656062050074,0.44076436848825645,-0.897889404105185,-2.7847316034070455,0.32377194355821937,0.22797864484408562,-0.09628589314219098,-0.06033800838194594,0.39623948685562105,-0.029757211549451754,0.0859375
-0.3998639581115735,-0.21496705493498575,0.11779903624376188,0.9148139957239015,0.1525450728105462,0.21155265021615807,0.2712552274968056,-1.342389878952326,0.1079979385785389,0.09562959080134743,-0.0299891102144636,-0.016159242364311203,0.13360835823149156,-0.0007233981300186704,0.09375
0.6315876454828921,0.5962973363711596,-0.7060451203295716,-1.6896872314865632,-2.1079719624881084,-0.16215920147484947,3.0021201713365957,1.0023580688647418,-0.3007534754011651,-0.13657621076914647,0.09775354747881294,0.0711794920473434,-0.3625192181093972,0.06332690451918983,0.1015625
0.6834613576608618,0.6078276224786946,-0.6878292838097932,-1.7924950144592375,-2.00859633331811,-0.20071463226821076,2.748578830472696,1.247035178986644,-0.30664959780856993,-0.14989311527003876,0.09831491227895738,0.07037522019637384,-0.37042137371181294,0.05923145952955296,0.109375
-0.1552179443725525,-0.149871522542962,0.1792577137355466,0.42037646072759993,0.5371200465574612,0.0380858838043185,-0.7671213693826933,-0.23944865223592018,0.07529010559977972,0.03367699639436179,-0.025143055321958346,-0.018035682219146604,0.09053225608348402,-0.01721014342704904,0.1171875
-0.5804601252854306,-0.5698171964923262,0.6903260782186859,1.5770893665910346,2.0842125587485265,0.135665715543857,-3.0193419526630287,-0.8409262409891963,0.2871627865225508,0.12491588501264032,-0.09482670761442077,-0.06922504142064312,0.34521449528769355,-0.06479412956396714,0.125
-0.04490835178672208,-0.16357289742649275,0.2928608559107585,0.23875192071447204,1.0175276639068238,-0.06840914607262619,-1.799094842541351,0.44084170721345645,0.08245459072607304,0.0035445108368207,-0.03139303449846904,-0.026569819035271156,0.09608099146964404,-0.035205097504192616,0.1328125
0.6118676625806829,0.3830711024684186,-0.2916160762448677,-1.4493782039210878,-0.6389243497288568,-0.2866685770664154,0.33588156681846754,1.8058697509046422,-0.19329801816930198,-0.1427838415611493,0.055998854061806505,0.03436787503177331,-0.23782685368388176,0.013058954680497803,0.140625
0.49157856278136314,0.35196417229443955,-0.3231536584887434,-1.2066717847858701,-0.8333943196604665,-0.20084730162225414,0.8563716886929189,1.260301033148743,-0.1778917870792755,-0.1123127843949447,0.05371654192486182,0.035486117110896345,-0.21715238071423815,0.021334307966048474,0.1484375
-0.1741602566021182,-0.09139734120768711,0.04689019274833535,0.3975551553414435,0.04704160515563159,0.09390017875377266,0.15335609114900142,-0.5973271321755153,0.04549279531630877,0.0419254925166481,-0.012805219038124612,-0.0066048567722043205,0.05630695717430817,-0.00011012253637924821,0.15625
-0.5493809710659397,-0.36831720564842124,0.3098354263100827,1.3271548782303926,0.738852654504741,0.24191218016611307,-0.6018318369663617,-1.5277918269144801,0.18518623476299914,0.12738168011198578,-0.05565721727325268,-0.035149362916920626,0.22617461022527588,-0.018897159116278955,0.1640625
-0.40496699651422224,-0.31504796576626803,0.3157603349991214,1.019849862220028,0.8577771385202423,0.14935616617234543,-1.017076029485137,-0.940481187377047,0.15849387000597936,0.09158642126360986,-0.049767506116148975,-0.033650278536979245,0.19193656797076805,-0.024882809578705086,0.171875
-0.16753889679656978,-0.1572889937361688,0.1844395389296829,0.4483343153266307,0.5464971084594898,0.04406144567998442,-0.7703931333755939,-0.27681905520528854,0.07901836942749328,0.036571057384786075,-0.026141470570787643,-0.018700752563404338,0.09478311312415966,-0.01733283023773639,0.1796875
-0.06329948479381496,-0.02735714605296546,0.004971654450435275,0.13968765014711465,-0.027313148201608385,0.03818727723832596,0.13893685786946966,-0.24571057012381156,0.013479657075216292,0.01570889819921628,-0.0037003391894943464,-0.0013634022974700077,0.016756974869134713,0.0010090279200089028,0.1875
0.039947948675474625,0.08592477316378642,-0.1417913789040219,-0.15167864025799682,-0.4842125644270073,0.022031075125024245,0.834986032773227,-0.14834281256497542,-0.04361026523116593,-0.005807402874801063,0.015477270590577071,0.013068057414323557,-0.05163411312822393,0.015358456638726866,0.1953125
0.14893845612604134,0.15930893440566443,-0.20398070148349365,-0.4151832343681948,-0.6336053582506509,-0.02572730089920026,0.9602537238599899,0.15242066222515566,-0.0805396382720016,-0.031019599448259324,0.026526504362789978,0.020100443805643305,-0.09682698884715102,0.019058936045333687,0.203125
0.21128513561687534,0.21739416056018232,-0.2718693133109599,-0.5809672257223952,-0.8353406406722355,-0.04228814384025565,1.244915337641461,0.25517457455417397,-0.10982823059223533,-0.044555113200005166,0.03602599538365866,0.02698918984337858,-0.13196594437080236,0.025162965075390054,0.2109375
0.343595173853707,0.3044007327940985,-0.3432930984738579,-0.8982250525957466,-1.0032043532861903,-0.10145130375551491,1.3703848566934747,0.6287268533888714,-0.1536981166362604,-0.0752335941753807,0.04896964496380844,0.03517562934848036,-0.18553211009957468,0.02916439295175109,0.21875
0.39145807225006796,0.21584505297885476,-0.12846048074834965,-0.8983553269411312,-0.20024055190695603,-0.20248512028158702,-0.16754299805858414,1.2779867656331507,-0.10893708501633334,-0.09280103265886196,0.029765017829671697,0.016829401429023307,-0.13489808032070444,0.0009094939760028913,0.2265625
-0.07481407685914841,-0.23132652351595742,0.40501000248441676,0.35529185153240583,1.4007334357588046,-0.0869636580979993,-2.462582944770756,0.5626930106244488,0.11654672335667307,0.007804257205484223,-0.04393288229777173,-0.036947837695419365,0.13618507519027048,-0.04795388419944252,0.234375
-0.7325567220540269,-0.5819743981385084,0.5958025541672487,1.8560829289993952,1.6425303302302579,0.26186810777903086,-2.0046874120482334,-1.6461088342174406,0.29305261584582,0.16481380539066143,-0.09214424069676606,-0.0630717150102072,0.3550366533853331,-0.04753594909136575,0.2421875
-0.5585190996881807,-0.20849249327040087,-0.017728659769710747,1.190146232278464,-0.4429851385909916,0.3558295964959397,1.5779630663098063,-2.263791650511161,0.10442806029183764,0.1383762801890941,-0.02348819045994506,-0.006316783499472115,0.13299899787497999,0.02187600128832307,0.25
0.3900174861846654,0.49503952716809024,-0.6901271642029725,-1.1646071812826717,-2.21748912813606,-0.01587734558326756,3.5305024638116635,0.07389856040232173,-0.2501969932757069,-0.0774066766604694,0.08550974053694868,0.06650148578012614,-0.29855107226415745,0.07032008530127049,0.2578125
0.7023718132881099,0.4675311087802928,-0.3919746093329775,-1.6925070937680204,-0.9357163315067821,-0.3102178801103166,0.7555275903569181,1.9533913610258604,-0.23596465527323396,-0.1624159409678666,0.06985111738598464,0.0444732639612175,-0.2892703893676905,0.022095841588048094,0.265625
-0.011366754022326602,-0.256043050824689,0.5035663341966274,0.26562654920604967,1.7984185286959724,-0.15937969768336221,-3.27511460989395,1.0259319448676578,0.12902703969958113,-0.010498955272702153,-0.05081724188474412,-0.0447887906805216,0.14902087513587067,-0.06249274144146446,0.2734375
-0.29243114786535934,-0.4548469727921205,0.6842882748732523,0.9565470670424514,2.256148492357084,-0.042889957108233394,-3.728347863167876,0.29215796288349316,0.22922998165575229,0.05397944427178852,-0.0812984368382801,-0.06466421400303721,0.2716500139335519,-0.07456175943807491,0.28125
0.4932700976598697,0.2147612928468046,-0.04620469037505036,-1.0750422903547308,0.16166578617789207,-0.29316042963287775,-0.9673597023439989,1.8567581612918473,-0.1083482726616488,-0.12004802420685201,0.02616643270790578,0.011042652818164599,-0.13624212263580818,-0.01297882867642238,0.2890625
0.7847030577925413,0.5629336891333646,-0.5180506751142153,-1.9263051163500124,-1.3350165974174935,-0.3197203225615413,1.3741037262596028,2.009759653003138,-0.28393955732447623,-0.17922964729591218,0.08597293971872172,0.05684651163432705,-0.3462370617249807,0.03467856620324683,0.296875
-0.35546113517262884,-0.07136353102050892,-0.13451622849344777,0.6984162828583518,-0.7248121042957736,0.2672313027154227,1.8148400077382199,-1.7046222879380517,0.03548532868978149,0.09147391938515997,-0.0028436012615363107,0.006871315120218348,0.04837255654048655,0.028901814439257,0.3046875
-1.3037850185494293,-0.6519185887767021,0.2917694874268633,2.9341410857558077,0.1660298032956594,0.7200710794348136,1.4793995737081218,-4.566638098785076,0.3278358250220842,0.3137527565770854,-0.08733811509298794,-0.04411388702083763,0.40787384126783,0.010875239878251319,0.3125
-0.6374580954401161,-0.2811693336791486,0.06807134801966437,1.4004066902754666,-0.18968890351613324,0.37687040938042443,1.2194787925114061,-2.395466594804281,0.14109374809343392,0.1555131959964973,-0.03543563766017361,-0.01492234860766483,0.17730441370177186,0.014232326277193475,0.3203125
0.37500874553016544,0.2699373698788944,-0.24907671123632194,-0.9204511859199574,-0.6454139741134967,-0.152260280184437,0.6706092941448346,0.9544608874981786,-0.13628298728836466,-0.08552021232134033,0.04107003025665814,0.027294947704447806,-0.16617404952219075,0.016438079902218957,0.328125
0.14645968500409448,0.041416867436080584,0.029609230895099356,-0.2983016436254013,0.20378870508469513,-0.10139063865091585,-0.5707446238090538,0.642175804884469,-0.020915452575320303,-0.036651738559993985,0.003106612459910788,-0.0006689121384962694,-0.027841333692282304,-0.00972351414764987,0.3359375
-0.4746411034297033,-0.41918522014046994,0.4687493994596331,1.2419035375822716,1.363124314897842,0.14228862446152218,-1.8444882471117479,-0.8899785309158179,0.2111373326879148,0.10465923274638374,-0.06819829051893582,-0.04825607698129709,0.25449816500212313,-0.04132530863887738,0.34375
-0.04568680091756857,-0.15993393335541226,0.2836471536742478,0.23455511621220382,0.9865248448973412,-0.0650561611176717,-1.741913891735744,0.41944165842351605,0.08038732580313906,0.00389026625049316,-0.03065760319678464,-0.025794661153331754,0.09397035364008653,-0.03405863143256718,0.3515625
0.7947278729413173,0.4630183636788374,-0.3101025647781995,-1.849519306201644,-0.5798244573713283,-0.3949317566148023,-0.02209446128967684,2.4931913406594135,-0.23356542297345814,-0.18733324951687824,0.0657902047418179,0.03857032715834369,-0.2878757032295731,0.008642224189652636,0.359375
0.7173654079784351,0.5352455897844162,-0.5151165706125609,-1.781572614832523,-1.367818849970907,-0.27871629711914786,1.5280485786673255,1.748482336391039,-0.2699979046060891,-0.16277113673659688,0.08272400980304287,0.05559770720240546,-0.32858407986746124,0.03674042731434393,0.3671875
0.13008171355957251,0.19478554879935137,-0.2899797259348434,-0.4156673029999673,-0.9556972234551451,0.014538421586982533,1.5766171698007403,-0.10563435128811775,-0.0985021256859352,-0.024072679652226658,0.03425327316944529,0.02741063673102969,-0.11741393728104148,0.03032692110458281,0.375
0.13669611773205276,0.16426760043150868,-0.22327102045656708,-0.3981107314805119,-0.7133148578613042,-0.011686477167425281,1.122459288036776,0.06284222073748054,-0.0831735621935554,-0.0275127972910711,0.027991853204221186,0.02162050653216657,-0.09987078387876665,0.021889587157149438,0.3828125
0.4065062349876759,0.30767462875049884,-0.3003030832466424,-1.0133474612871516,-0.8088121753063157,-0.15515276560794938,0.926848348781256,0.9708357921541062,-0.1554489504185463,-0.0919463990902272,0.04766842988123886,0.032258989246197495,-0.18936912475679613,0.021622454164116352,0.390625
-0.04417522958615176,-0.050934740526665544,0.06739879333185389,0.12776283445635783,0.20858801376744682,0.005518531365288675,-0.3212365073340818,-0.036425353387929744,0.02529358115057585,0.009311069489210665,-0.008984433049759068,-0.006586910083034434,0.029847122484967455,-0.0073380195200199215,0.3984375
-0.9048358720591632,-0.727180040146503,0.7523427899900729,2.299452130288424,2.0887615529482693,0.3180484824829157,-2.5881843127499082,-1.99669482639713,0.36612758599306194,0.20311813374684803,-0.11539950882136374,-0.07928052867199306,0.4433753872601966,-0.06056229669926722,0.40625
-1.0264853834760774,-0.8211213719813723,0.845834034111726,2.605619381637767,2.342361348912296,0.3634008854038162,-2.8856375851182943,-2.2810886500465783,0.41350114269318344,0.2306157248150282,-0.1301327646207973,-0.0892714051712811,0.5010155189697085,-0.0677019322059609,0.4140625
-0.29342580674697233,-0.20346755369034655,0.17881174892298035,0.7168287068173066,0.4411533100741419,0.12495213945596956,-0.4042207743044595,-0.7900279860848467,0.10225543125863662,0.06781389321829413,-0.03126465872608198,-0.01996317433522856,0.12472056587324273,-0.012090289739568617,0.421875
0.3101330296277915,0.27286977774430055,-0.3057469855424471,-0.808080815344364,-0.8919556237955466,-0.09284262153100882,1.2135192997132034,0.5758074048311096,-0.13775736544497527,-0.06798589843432319,0.0437512691583571,0.03138799157186752,-0.166408978855371,0.025728239417472435,0.4296875
0.3460253662365629,0.2172722170886568,-0.16619237037600848,-0.8186936778356314,-0.3671065469055452,-0.1615623990182658,0.2027716700297612,1.0162930692030072,-0.1097220953872719,-0.08061398021828464,0.031560490219475185,0.01954183317359947,-0.13481518685629182,0.0072076470721739,0.4375
0.40432836802647615,0.21529198645744108,-0.11678911261687479,-0.9197633004410634,-0.15101969880120833,-0.21443163317503025,-0.27405338822856196,1.353180349198603,-0.10874718910045765,-0.09632697593223756,0.029301213473784206,0.015980016002581313,-0.13494615487497152,-0.0009967421443128946,0.4453125
0.6933382930114677,0.48859944402549915,-0.43961698110286695,-1.6927689328566742,-1.1150632318463092,-0.2886460654672671,1.0963340903240317,1.8133350614185495,-0.24642691196626176,-0.15888741880872426,0.07420595740030371,0.048595582381972875,-0.30068141166667994,0.02831629488606375,0.453125
0.4431630020523693,0.32818312043373843,-0.3129719671105148,-1.09674374364603,-0.8276088033562123,-0.1738859979404824,0.912753942942022,1.089441178892211,-0.1654564131382929,-0.10059360353140728,0.05044092749692586,0.03387828043443463,-0.20160022733180746,0.021784216777032822,0.4609375
-0.5061785163201727,-0.3933049439571545,0.39356886868742225,1.2734341862455336,1.0708720305813608,0.18693932306864947,-1.2666256968480079,-1.1768623596361154,0.19805500990226754,0.11445831787403271,-0.06202206567050337,-0.0419699874555429,0.23996895124718232,-0.030821645069751148,0.46875
-0.8968757605146925,-0.5785228268681432,0.45978381566086546,2.141249276559966,1.046137894246256,0.40972570037084394,-0.6883432096412725,-2.588754271118297,0.2910243052592933,0.2089651304059702,-0.08601981957551663,-0.053331796585327024,0.35626648188354504,-0.024728082671662027,0.4765625
-0.10116762981606726,0.1724723193564351,-0.4264054728333346,0.013191541751741125,-1.5994754044782797,0.20449436991840766,3.069049482649815,-1.3158862340330735,-0.08765678805576109,0.036585501280860314,0.03739795007510918,0.03623771292815181,-0.09954654106889113,0.055664289505676465,0.484375
0.5167136730007292,0.5845776875937705,-0.7707819312552999,-1.4747882931660612,-2.4203856864529576,-0.06859030601860132,3.728531295467418,0.4060676412593996,-0.29511905251326637,-0.10647368257133344,0.09913415892669819,0.07539654696489675,-0.3534218730590854,0.07563695174286889,0.4921875
-0.08279189755584573,-0.07214881643501186,0.07948907471072676,0.21613792864923273,0.2273591456413027,0.025697413432586746,-0.30083369197231863,-0.16357975904874242,0.03609415289993553,0.01851702449896384,-0.011968806919041187,-0.008232349087847438,0.043163112789574604,-0.007476962786508775,0.5
-0.6509454359175708,-0.5704531065035238,0.6358276954348355,1.7000023651668308,1.8412952563719016,0.19764683165259705,-2.479530040931697,-1.2361498370885797,0.2871525686098513,0.14365988913415031,-0.0925250843251871,-0.0654382899326446,0.3465310345445441,-0.05545645771062728,0.5078125
0.04632341149629386,0.011448724496583051,0.0122492318134406,-0.09078187240555041,0.07179461489713007,-0.032760502145405684,-0.19101402520618252,0.20518208215788764,-0.006159031422242107,-0.011495352274833013,0.0004645685790358011,-0.0004829682003218123,-0.008205110769369655,-0.0039213495699399765,0.515625
0.8583101698943126,0.5661791782252298,-0.4666454019329927,-2.059351240935241,-1.101170470772131,-0.3830470295026151,0.8467090578383176,2.411905915918645,-0.2854836852754067,-0.19882938693747274,0.0842622101665139,0.05331816208447077,-0.3496194089139575,0.025612268270929,0.5234375
0.3582791996869742,0.0650747513676881,0.14906167094889303,-0.695003254064841,0.7720722826295517,-0.27365561132611615,-1.902920210610823,1.7378909854743032,-0.03278537475864157,-0.0921011315295325,0.0008965219055349815,-0.00814198864529205,-0.046331489054344484,-0.03210586388295821,0.53125
-0.5896679714946234,-0.6002601099060201,0.7439250334161905,1.6197793494597228,2.269537081466222,0.12334407505176277,-3.350986379516281,-0.7615786937911064,0.3023133776004276,0.12562474614564903,-0.10045665048647226,-0.07409982856123777,0.3624650647852642,-0.07096659919293259,0.5390625
-0.5297788645850091,-0.4121759034667461,0.4128373057473888,1.3342245530200314,1.1218146015670307,0.19548885194701673,-1.3295606173418741,-1.2298692368740527,0.20735381247308743,0.11976185608340753,-0.06497985949609672,-0.044015066057573264,0.2513826441733487,-0.032336691744798904,0.546875
0.147888583545692,0.07014620875067154,-0.025796604201425245,-0.3262188888705588,0.0035866433823214332,-0.08377288587400172,-0.20615557112038924,0.5282468346891089,-0.03552069342547522,-0.03550634077287178,0.008768907718120394,0.0042991109435471676,-0.044561564400149085,-0.0029423837007794044,0.5546875
0.3698928467644607,0.12218627890247984,0.04333275965878556,-0.768542289844848,0.40124639517741906,-0.24565142317043565,-1.2374231397480098,1.5579609650818216,-0.06153984757531222,-0.0920709437443763,0.011796980846261493,0.0013334275644117507,-0.07946836443819162,-0.019562554055478545,0.5625
0.25750662107470157,0.1283827875366279,-0.057111521307125324,-0.5759830246601529,-0.034572567477996675,-0.1420659192703317,-0.2855869328600574,0.8968207953335351,-0.06483176182821257,-0.06167062629892199,0.016726798929784348,0.008660658074740505,-0.08080586979454293,-0.003047290331246543,0.5703125
0.2992334862996013,0.4012038718407464,-0.5720402495724464,-0.9122891762371887,-1.8544064057976262,0.001955349327954077,2.9904066210918603,-0.03552729573242546,-0.20263136298970075,-0.058179042050923474,0.069740084780474,0.054795663924435446,-0.24145468028234476,0.059012890993627554,0.578125
0.21533970377303277,0.42360385993173105,-0.6820261881792097,-0.7865574347076201,-2.305337244032891,0.09067539945445048,3.9306058099670156,-0.6035716361724682,-0.2140203956336968,-0.03459226957396585,0.0770073276248892,0.06333744923043731,-0.25300034590246295,0.0756859542383667,0.5859375
-0.18359669207788196,0.029568637703375433,-0.2029598243841694,0.29625981344006236,-0.8538498722025017,0.18209012178856174,1.8171940196082867,-1.1676347641735234,-0.015437459537914384,0.05090225364669906,0.01164452374755283,0.01533313653222352,-0.014239501642495645,0.03111879127683018,0.59375
-0.3607254307424065,-0.16257523003837704,0.043282887323711244,0.7939961648908542,-0.08901569695024596,0.21179436556690726,0.6586446663405636,-1.3462296202797166,0.08133127040167601,0.08800082060159453,-0.020838119885079692,-0.008965989717921846,0.10193600550389595,0.007153928714074272,0.6015625
-0.08626330145825435,0.02414946831146676,-0.11749854474849211,0.12990260088897904,-0.4818742888620306,0.09317586493031046,1.0029092909776884,-0.5975757576515983,-0.012741973562244414,0.024663259470573087,0.007301287942032128,0.00911670837603983,-0.012958712420552864,0.016961303455189532,0.609375
0.0369623587742857,-0.002385404097715884,0.032836872206399075,-0.0623687112356681,0.14014128835399164,-0.03385249463235087,-0.3052184075499815,0.21304126233196372,0.0008774291340156499,-0.009781412872152817,-0.0020230759759779747,-0.0024171375463996527,-5.7775370096872875e-05,-0.006084228575841751,0.6171875
-0.3362713011326183,-0.4000195815950706,0.5400601383863348,0.9794800099085738,1.7099006080059969,0.0320152584404984,-2.6699966235591632,-0.18909864090938133,0.20148918721370482,0.06860104644067284,-0.06891656888622988,-0.052526231939591855,0.24028109603735867,-0.055090446991013745,0.625
-0.6152742642141503,-0.5398246962078161,0.6024157035844414,1.607506257464325,1.7467973707932862,0.18615263394720033,-2.355764535503079,-1.1651840240020557,0.27192875547704265,0.13573039693125602,-0.08757083902428413,-0.06199751495995995,0.3279040835205007,-0.052657561913681705,0.6328125
-0.23650269121449755,-0.14108218628893024,0.09752827976799898,0.5551305744041168,0.18952269603936597,0.11598689025873317,-0.021791713266740773,-0.7359436586601525,0.07091195298406733,0.055932721972840334,-0.020611151372284604,-0.012018570890204179,0.0867772623441719,-0.004162789931945015,0.640625
0.3684690690394785,0.2319764178054686,-0.1784578757800677,-0.8729277519883241,-0.39530566833582603,-0.171549841497212,0.2212493651769766,1.080073152422453,-0.1170339472304202,-0.08577802928582329,0.033790987871549515,0.020945415195284808,-0.14405824454683488,0.007901456197152835,0.6484375
0.42025251052932827,0.14239317805486673,0.04229801042705949,-0.8780732914696855,0.43003319844331295,-0.2768577649505225,-1.361470019478746,1.7554812139435985,-0.07191079739487867,-0.10444511065337612,0.014242505196085145,0.002183876154016577,-0.0926924834302289,-0.02117067882927149,0.65625
0.03910663800250893,-0.05227489607016106,0.135388290630588,-0.016332032528799136,0.5067615129503075,-0.06884329354420533,-0.9801391156744071,0.4379350320318951,0.025948504199210406,-0.012980193800807173,-0.012000519935187245,-0.01142447396822659,0.029160017221100565,-0.018761248778296054,0.6640625
0.01517174470780428,0.076592530814565,-0.1424358312710022,-0.09790609223417658,-0.5056625089392879,0.037916049357428774,0.9079841323186859,-0.24896089485821138,-0.03910993154754792,0.0003347579033528527,0.014442545267177706,0.012778743839964517,-0.04575185526271105,0.016358705708018537,0.671875
0.40952204036594875,0.2935721553940388,-0.2704745201952423,-1.0048386421546656,-0.6979635448409665,-0.1669385522605726,0.7220313837369918,1.04727065675347,-0.14819938903508656,-0.09349554381290641,0.04467002311876697,0.029634792524992293,-0.18087173389983546,0.017738709874601858,0.6796875
0.44462346807117403,0.2149990686145434,-0.08533976168955124,-0.9918736488583696,-0.008740609833927616,-0.25022143184117446,-0.5877199285395203,1.5820343702681028,-0.10839706939983969,-0.10712554251621573,0.027846149177463544,0.013756450793451003,-0.13551246112368168,-0.006415311015773471,0.6875
-0.03639430589971062,0.005080613697654967,-0.03919499143112405,0.061312845550894876,-0.1672770905924109,0.03587543238686041,0.35997933217789774,-0.23285125035546606,-0.002821177870391194,0.010246375201487764,0.0018645359788593495,0.002917560046203497,-0.0026685858870710145,0.00543584775407951,0.6953125
-0.2533542632096934,-0.03297547565567089,-0.1320556022465762,0.4819450222876356,-0.6473949304185366,0.20254605078170357,1.53494836170021,-1.2939602647188655,0.016172129697939915,0.06624948755255615,0.0014619889246388971,0.00808289851184601,0.023932536519164636,0.02484086916108661,0.703125
0.04290272966638895,-0.025824314926210575,0.08469021966619669,-0.050038012292000084,0.33009726223848623,-0.05469690002616332,-0.661153200740663,0.3468229309586665,0.012832914355381267,-0.012598455600038508,-0.006832594629893637,-0.006928527990344521,0.013445995196569667,-0.012686985367639894,0.7109375
0.1503051282448801,-0.10661191041094956,0.3307408722520506,-0.16346047458184781,1.286144476137522,-0.203379379361844,-2.559199093914425,1.2990834046573194,0.053726569089449464,-0.04569885082611959,-0.02647925487012073,-0.0271892375570193,0.05854343289070271,-0.046964348770617705,0.71875
-0.19147564412466914,-0.045108114666668114,-0.05912865027777856,0.3824244119394918,-0.3433251812760887,0.13957747600711407,0.8920784844553881,-0.8918500350921766,0.022284266195312718,0.04898801609260927,-0.003010339477530391,0.002492621846039337,0.02971696703125958,0.013629838790806922,0.7265625
-0.3943496950105076,0.15449376020736866,-0.6181568713329249,0.5504212470643458,-2.486901367037886,0.4515052537853662,5.09446073422061,-2.8912093239782597,-0.07878060770045886,0.11399306527554706,0.043437447688900815,0.04909342026599571,-0.08296960483120797,0.09003876938847162,0.734375
-0.22855436457500464,0.06865957861801329,-0.3171143344318081,0.3395213578446815,-1.2946337697368997,0.24817714731093973,2.683748696116142,-1.5894373733659362,-0.035250791530153265,0.0650813698138916,0.02089665317605508,0.024794210016776664,-0.03623564375885242,0.04681453549972281,0.7421875
-0.06560387639843827,-0.2536641546202041,0.45668764881032237,0.36051554077458287,1.592947432107091,-0.1096697003855823,-2.8265339688870097,0.7092291829792648,0.12777470639467056,0.004200248840477312,-0.048708255408499455,-0.04135411100763371,0.14918558304035104,-0.054676974093563244,0.75
0.02777903448175676,-0.20920312796223953,0.4408787574401483,0.15315350154977023,1.5986607776162698,-0.1629042417197892,-2.9632377518911697,1.0460565414544263,0.10541553010197917,-0.018386761959695387,-0.04295876719817895,-0.03861526165753489,0.12142365548623794,-0.056129602717684586,0.7578125
0.1571317101964466,0.15024773694596527,-0.17905647597312457,-0.4201883510032404,-0.540296976070279,-0.03899995956574837,0.7775788334921373,0.23734580294098484,-0.07607600122417163,-0.033680478250972236,0.02442041674279311,0.01805395875822161,-0.09167709364110413,0.015704470903045022,0.765625
0.0052370572259482235,0.06188429572866851,-0.12058842583424859,-0.06702072778851105,-0.4323424346990191,0.036702052859972266,0.7872703953393934,-0.24128647881607926,-0.03160358864470906,0.0021550919428344473,0.011874161748059942,0.010714275967763002,-0.03702509145134606,0.014008276240499284,0.7734375
-0.4417934201738669,-0.4432778829697431,0.5437141025086987,1.2079988761618166,1.6525097278013934,0.09697832623588601,-2.419042390860738,-0.6006253310990277,0.22319508302384652,0.09452747832064468,-0.07403310872362097,-0.0543733462004927,0.26778211282571485,-0.0517542614609945,0.78125
-0.43004232577677154,-0.42941832475039854,0.5251300379491142,1.1740412030141425,1.5938968452946198,0.09578724853732355,-2.326755673756785,-0.5935779053282055,0.21627613782488703,0.09215179543563135,-0.07168144038460755,-0.052554873062211876,0.2595128135150807,-0.049901568542228256,0.7890625
0.23265038471683128,0.21208863171892253,-0.24441173997700816,-0.6131405760538113,-0.723634886760714,-0.06473078225484752,1.010885133923527,0.39878070805425014,-0.1071072929608236,-0.050543162459991915,0.03427511972139467,0.024876690033427462,-0.12946179399234795,0.02098890269265559,0.796875
0.6220990092020777,0.5031667970461047,-0.5242951872314026,-1.581030355333991,-1.4669851463813581,-0.21600157519309413,1.8382107372276126,1.3497365388233153,-0.2538051747946233,-0.13903265178361185,0.07940600752565335,0.055120496411540126,-0.3077086598772557,0.04138038981138344,0.8046875
0.36329234962477,0.16774497677224806,-0.0536735439613638,-0.8020018418147655,0.04883500582162224,-0.20947802945650365,-0.5843178319366421,1.3252448527728715,-0.08471892831111667,-0.08786864164600577,0.021090491707145262,0.009818123505938844,-0.10609163060483343,-0.007300070186335048,0.8125
0.2586525082443564,0.03337140817950397,0.13363360229719864,-0.4891242486851416,0.6514861797595115,-0.2059357502293502,-1.5444516756420354,1.3094619701613401,-0.017029587944491498,-0.06711136814371663,-0.002166184027918891,-0.008250953916890711,-0.02559414739087958,-0.02661923272543854,0.8203125
0.5268378993925317,0.34640459328122836,-0.28515381210915736,-1.2642253802668617,-0.6719396279091986,-0.23552820799386026,0.5119416244605443,1.4823496395489624,-0.17486304688367502,-0.1219926480087815,0.051460299732766626,0.032565775348096605,-0.21461792789551787,0.015338624117699533,0.828125
0.28821226689146606,0.3389333839904597,-0.4555996588933026,-0.8339260776607437,-1.4455803986378744,-0.029755735020318495,2.2539025920867286,0.16955828805966208,-0.17118821137610996,-0.05859693946369999,0.05781663376395303,0.04429954902626596,-0.20527024478777833,0.04510101368807999,0.8359375
-0.545475489410796,-0.20189241914032086,-0.02044411182454133,1.1607786350362466,-0.44482605342203585,0.34851697425177786,1.5611795188381559,-2.216933325910747,0.10125694880329404,0.1352368166709093,-0.022581123771998394,-0.0059063830738099714,0.12866700468849515,0.02174119166829602,0.84375
-0.8432338828105416,-0.4955687394499744,0.3362610472634516,1.9690407646812529,0.6361055775071985,0.4170651095512138,-0.01044205400188147,-2.6397093558319327,0.2492326250997128,0.19906228992070565,-0.0713367907935731,-0.041631213062349466,0.30674978423748894,-0.01146670206830484,0.8515625
-0.27691428626697345,-0.2189886733490936,0.22287258557041867,0.7011934861575839,0.6110529561206921,0.0998907176818459,-0.7386945813350912,-0.6302054586008503,0.10998359971640548,0.0625110133795932,-0.03486075210348284,-0.02361672387991609,0.1332202872164031,-0.018092671556032367,0.859375
0.14904652179569322,0.019351276898281956,0.07710541537686609,-0.28071347272026187,0.374622448417383,-0.11860348380485494,-0.8877948714603179,0.7517035197506471,-0.00998558884471871,-0.03855443953791396,-0.0014029944337852146,-0.004719890911634342,-0.014858530140861954,-0.015604115035462303,0.8671875
-0.019303869074182696,-0.08518505488328497,0.1555802280179889,0.1180400781251963,0.5430438802212724,-0.03903854828770743,-0.9649112134642763,0.24935922683573758,0.04268605973180833,0.0008588354270546131,-0.01670730463106606,-0.014032341579847242,0.049963835416226274,-0.019174888238731105,0.875
-0.1156511790064451,-0.10615692951772707,0.12210532546526084,0.30815382388707246,0.3586929522846671,0.0323019958751964,-0.49520015392458494,-0.20453003722538896,0.053189283539913444,0.02549315976477973,-0.017681762041470716,-0.012443856503335023,0.06410530115946668,-0.011561093882779155,0.8828125
0.10636059556670162,0.11229551793434998,-0.14344931611539025,-0.2952910727605947,-0.4441570000364017,-0.019111987328730286,0.6705764853581487,0.11292592961544147,-0.056873140046624984,-0.02214750005290961,0.018572230290575576,0.01414340725293114,-0.06853297837311452,0.0131150708035977,0.890625
0.1057361810338092,0.17545580789089932,-0.27068506668745607,-0.3550711207494869,-0.9010918108228827,0.023255225864033433,1.5081913376409755,-0.16019299665290282,-0.08866469361492892,-0.01860823899787768,0.031148883404240126,0.025370641621416612,-0.10549451521889346,0.028834452711269182,0.8984375
-0.1534778806986371,-0.006797339650058374,-0.10701360638731083,0.2787636144500062,-0.4889457305176409,0.13153729184802906,1.1092214105519613,-0.8419987579666,0.003111623283230013,0.04090014877922731,0.003344983699284081,0.007245947515486396,0.006559314295497046,0.01807786899557439,0.90625
-0.1061570724228361,-0.07453403724459846,0.0658403351829661,0.26000213068977374,0.16222594769283274,0.04485313565327605,-0.14816253102454563,-0.2859887201248452,0.0371862840184627,0.024627564588890042,-0.011644603934165701,-0.007368035118060439,0.04509091728384677,-0.004948521317218246,0.9140625
0.2235504809602654,0.03898306956140227,0.09516566562411742,-0.4323918484554789,0.4888892271638004,-0.1712546001599569,-1.1996294495587199,1.0870942134154606,-0.019921178923502543,-0.05739360940868033,0.00018712971333177108,-0.005318366683755448,-0.028278028671338072,-0.02054564361108978,0.921875
0.28137103955671594,0.054421177538770654,0.10936185111574366,-0.5487627101424729,0.5786556490813697,-0.21209803200983907,-1.4440892637482015,1.3474649073169709,-0.02755640144773947,-0.07200966378051493,0.0013236864346089295,-0.005764173114094335,-0.03839719153235217,-0.024421722545768954,0.9296875
0.04694321385528271,-0.05658800966009655,0.14957692369952577,-0.02632972682121601,0.564768060108922,-0.07856317062862866,-1.096392442384203,0.5012163357675068,0.02837829670127446,-0.015327723414577546,-0.013143331803299992,-0.012622669032295192,0.0315549572340552,-0.020887209756396633,0.9375
-0.09187272108574682,-0.10582239113740219,0.1405622007701475,0.266822268664871,0.438159325166182,0.011276990416495013,-0.6739633662825958,-0.07026882177705805,0.05306876267396454,0.019089761819869558,-0.01837525177718596,-0.01376963576486721,0.06316297568736153,-0.014710968424471612,0.9453125
-0.1196428120950641,-0.08636132783449127,0.08027513317104791,0.29696585217305843,0.2026978587520429,0.04851991391657808,-0.20651694178829133,-0.3095524553014911,0.04318877505697881,0.027543729732883594,-0.013566792755797688,-0.008804032873894719,0.05226925393473912,-0.006215867101471819,0.953125
-0.12231587416189253,-0.026141548028762233,-0.042515194228095236,0.24395155517060976,-0.23918115141555177,0.09082690592280754,0.605774328265495,-0.582177821813351,0.012835746177007001,0.031523936732540676,-0.0015339300048822005,0.0020435379205437035,0.01725666845021727,0.009039793654029923,0.9609375
0.10973044234700402,0.16268582275820226,-0.2408416669371424,-0.3479673998101221,-0.7935390003395556,0.011162612446784079,1.305679574754268,-0.0826088128236009,-0.08232361278954735,-0.02033316313468006,0.028420230962617088,0.022849785768053157,-0.09789858693224121,0.025037012970102187,0.96875
0.47120557578995376,0.3568635510212209,-0.3494106027531975,-1.1752555764706554,-0.9389462729765334,-0.17933448053544163,1.0785443515634145,1.12329546115831,-0.18019103369368059,-0.10652373260253473,0.055287961843260285,0.0375088936940275,-0.21924554706311133,0.02528677193914045,0.9765625
0.4357567638930686,0.2993879485929727,-0.2623118179243011,-1.0588033224886677,-0.6501830308685901,-0.1860171480599956,0.5965297789818136,1.1686296505824565,-0.15127980476335784,-0.1001301543215457,0.045072769251581615,0.029279711556493615,-0.18519684305716239,0.015880614211349335,0.984375
0.05368752222631184,0.11837247392792132,-0.19668620686033791,-0.20855866259681582,-0.6724079351301102,0.03154673593534962,1.1591976317667025,-0.21046167550104566,-0.060138647238179146,-0.007723169524591423,0.021527887092187906,0.018106695650799812,-0.07123621397485656,0.02169912879061805,0.9921875
-0.10085193594903091,0.06603357553984389,-0.2113662334220693,0.1167074865549745,-0.8292501280273966,0.13322855108026982,1.6598066633085253,-0.8567213046375626,-0.03371089280781589,0.0307559058698267,0.01610534119312706,0.0172552700352888,-0.037005796621883615,0.029082855549966802,1.0
-0.1476287464980081,-0.08999080116191747,0.06518395371533221,0.3493030281746503,0.13278941753676207,0.07105858929269587,-0.03695943048192894,-0.45270689563798494,0.04514437241585531,0.03487812885830744,-0.013420594199267413,-0.007864481902294171,0.05535312918519119,-0.003386426291859652,1.0078125
-0.5995973093160613,-0.5411221020643545,0.6169486249015279,1.5806664044279823,1.810071867746135,0.17157356592410355,-2.4918565472275778,-1.0716622600253882,0.2726091558350506,0.1314926700779246,-0.0883741884184547,-0.0630571689333546,0.3284532633407616,-0.05503022019316809,1.015625
-0.9875700114439109,-0.7545566573965264,0.742190849763225,2.4718181607256264,1.9982926287306837,0.3730957781186895,-2.306929703540922,-2.3463413622343205,0.38001420551121406,0.223737100281542,-0.11815767402432453,-0.07961024320741622,0.4613047744185223,-0.056367441100886914,1.0234375
-0.538705843479967,-0.3408690575791224,0.26286701908461363,1.2818534373788304,0.578749267626208,0.250545297241213,-0.3207973525125142,-1.5847877206146217,0.17141725825997645,0.12592477520680964,-0.050564614712121175,-0.030878036960082726,0.21013702274143328,-0.01356058414422798,1.03125
0.19352702067145264,0.09773007238719954,-0.045461077855316126,-0.4342559377872878,-0.035783141338235736,-0.105988694344787,-0.19712321633758045,0.6677506484176087,-0.049471154963833884,-0.04626235150295095,0.012745232499918994,0.006723800782796649,-0.06159932697392594,-0.00213823175774319,1.0390625
0.2808077521310115,0.0656683735350949,0.086775693658804,-0.5587994122643348,0.4979436606594419,-0.20434835029378173,-1.2947346532265487,1.2966313171047197,-0.033213580999900356,-0.07127631439745302,0.003556116000885518,-0.003744716325832101,-0.04484694762490337,-0.021598897054408314,1.046875
0.21471291625713682,0.12293248481996695,-0.07992161061606025,-0.4970201288612425,-0.14482848299098539,-0.107846993112907,-0.0267038670071743,0.6785729084212695,-0.06225098181959935,-0.050533139954407565,0.01716734814519155,0.01004955943656089,-0.07717078451280594,0.0013734713818961532,1.0546875
0.7591012605054821,0.6322310445007587,-0.6769525925135088,-1.9481104299435672,-1.9224153424552384,-0.251347728086251,2.484803032084628,1.569398859974818,-0.3190481762589516,-0.16875146765459148,0.10070783599486133,0.07050458665022816,-0.3864524323643941,0.055214484688860435,1.0625
1.1703334363734064,0.8345521318716582,-0.7618672176646141,-2.8694822564687583,-1.951551573863074,-0.480758540396312,1.9746137732886917,3.0229125974493147,-0.42085220391878536,-0.2678169446637378,0.12747986547941564,0.08380655259678704,-0.5133172206272771,0.05074109781304961,1.0703125
0.5906766106185942,0.29363407368954236,-0.12870648637838128,-1.3250238655311863,-0.06929586738657624,-0.32705586892573113,-0.6807112442552398,2.0687046259877424,-0.14812824277281378,-0.14186104829776336,0.03878466426321045,0.019662846766019284,-0.1848240669599056,-0.0062679104335336714,1.078125
-0.2261945496242166,-0.19577001409117745,0.2160358877460026,0.59039350350797,0.6186885459239915,0.07055073193949056,-0.8217662486872341,-0.4437964811346025,0.09833449790759771,0.05025147865527325,-0.031867582624266436,-0.022307234751971952,0.1185158202936413,-0.01909432135151394,1.0859375
-0.43836599257436665,-0.15699158312266373,-0.027265196239818885,0.9292888536470402,-0.3967171993142451,0.2838593399393607,1.3305099420134352,-1.8065262034485108,0.07857564691739188,0.10904775182008654,-0.017193678615045796,-0.0037672842318256807,0.10039358674516938,0.01861987302948277,1.09375
-0.5800158396792807,-0.24447728815054146,0.03763647307108759,1.2630065556441423,-0.2579950677921079,0.3509992485945247,1.2701906722444118,-2.231020020978427,0.12268919246599372,0.14221167843760005,-0.029966632952034524,-0.011509039317327233,0.154594477961972,0.01578191410788526,1.1015625
-0.92030710822439,-0.6404188602809882,0.566464226320486,2.243078979545399,1.4121123743009827,0.38906714906708056,-1.3247084558006768,-2.455049672059806,0.3223999432656783,0.2118897558664323,-0.09763486606390569,-0.06308164620512142,0.3931792302317229,-0.03705300215341654,1.109375
-0.5515062786396943,-0.48194845614183746,0.5361141124465243,1.4379356948111224,1.5516017149291828,0.16804887612680108,-2.0849673254842243,-1.0527064930204912,0.24269143480682645,0.12175579658458446,-0.07818812078607842,-0.055215500106629775,0.2926806334738329,-0.04675303372649318,1.1171875
0.4792657456730256,0.2964821797473339,-0.2219202134094832,-1.1316037072271452,-0.47561686744803056,-0.2267371404854133,0.2186649098635363,1.4286226312384782,-0.1495443052510047,-0.11200280731246615,0.042977192888430625,0.026323942422021965,-0.18408898348479721,0.00920460385673159,1.125
0.6145779786732357,0.4845907681096728,-0.49403130040393756,-1.5509893658297251,-1.3611521425813977,-0.22137637096997764,1.6548188658783263,1.3858521191057709,-0.2444498400058926,-0.13802368692429612,0.07599645092179311,0.052293059673111326,-0.29688164592930727,0.03785795120981133,1.1328125
-0.3747992352496398,-0.23364426980332184,0.17561531384761347,0.8877041432502668,0.37636155620514855,0.17681230770447814,-0.1758357554716,-1.1196739730519338,0.1173499600459174,0.08791257328339512,-0.03454876094478511,-0.02083420402477208,0.1438036096615732,-0.008677558679072984,1.140625
-0.6638651057189566,-0.5606155233382952,0.6068379205340424,1.7124013990277127,1.7290998342368016,0.21522666088728507,-2.2580570394751156,-1.3494348277471162,0.282218359300522,0.14758854439858188,-0.09019217071664325,-0.06302469838776387,0.3411231433951806,-0.051326211821855046,1.1484375
0.35991192322045185,0.1317406521463164,0.016250649064132885,-0.7622117509074128,0.2984824076068459,-0.23059999350623742,-1.0365880214019598,1.4610821084070518,-0.06643901505160553,-0.08892899916011081,0.014064088142801488,0.0035853643321475705,-0.08499460326977329,-0.01579050089508428,1.15625
0.9067171996921252,0.6796467272418429,-0.657334253251538,-2.2545240355079437,-1.7507010039474105,-0.35028752536293956,1.9687137236670218,2.1985533890797986,-0.34263238594852735,-0.20563318100890876,0.10527957652540926,0.07081153645515897,-0.41688885045067264,0.04735320888673984,1.1640625
0.05053062690119505,0.22137423266095185,-0.40606704920049114,-0.3004188986887577,-1.4259002499649098,0.1027915463915444,2.5429734253862994,-0.6695642310233225,-0.11212421220829773,-0.001322299775171011,0.04220188865763507,0.03655713946481154,-0.13131651638425845,0.04756561246389216,1.171875
-0.6093669626395077,-0.34577261396085984,0.21770112694394797,1.4112196122722447,0.36698292463698534,0.30983308297114476,0.1616009294943044,-1.963479511658839,0.17355443955083238,0.1446120581584188,-0.049096530107625616,-0.02783903164815271,0.21406772950118177,-0.005310519519754381,1.1796875
0.10283980644023545,-0.08015214201622851,0.24087279090443478,-0.10240953561156814,0.9288784423330757,-0.14374395400164725,-1.8388507288359928,0.9168994162145316,0.04015626342458422,-0.03154529417098108,-0.01968601400653759,-0.019853673987622795,0.044211164266204035,-0.034145121012821106,1.1875
0.9069096961158384,0.39630603048952634,-0.08805962160673673,-1.981384950613462,0.29033771230817135,-0.5385023562440735,-1.7673682011862957,3.4125874938481897,-0.19953257924516302,-0.22090485901074208,0.04875243241155297,0.020513483201925354,-0.25101394119555126,-0.02291916611666873,1.1953125
0.4551783123897208,0.20007402207634276,-0.04706698938970711,-0.9950422309721579,0.13392711566448537,-0.26923708647102385,-0.8648733130589348,1.7048401384368685,-0.10084964478626085,-0.11066153279957135,0.0245648304115404,0.01051542503158714,-0.12712491074838062,-0.011503498856940348,1.203125
-0.4761238651332472,-0.2576965119160857,0.14498309794513106,1.0904527142640255,0.19623772003576143,0.25043248638952814,0.29304870545170736,-1.588253673749721,0.1293179064525614,0.11372264375620772,-0.03595828814078117,-0.019550628826325404,0.15970567100126268,-0.0011910599682942813,1.2109375
-0.6618222112344058,-0.25628780864943007,-0.0025569410494115123,1.4176129224783742,-0.45760721014668365,0.4154779313658282,1.7458870631010361,-2.641609481950692,0.12842370996140845,0.16342126500707765,-0.029583722736778523,-0.009106502737638187,0.16283925465052126,0.02379496402926222,1.21875
-0.3721710941711594,-0.08957649413238529,-0.11117115640199657,0.7455421639144131,-0.6510734138352481,0.26990445743134256,1.7053311487257876,-1.7211984118454797,0.04467377477305951,0.09491874463345004,-0.005919464631065287,0.004558211509919046,0.059507051107281335,0.026583581977414367,1.2265625
-0.25979688261114203,-0.1919816233283639,0.18195035359127654,0.6446726116160442,0.4770125832109948,0.10254473040603033,-0.5159213679485977,-0.6485618160541414,0.09658851065788054,0.05937243669078952,-0.03002007017518699,-0.01978092874733959,0.11710156747521337,-0.013708571573400611,1.234375
-0.05635825857425763,-0.1498795533427159,0.2563839739911606,0.2443453995461976,0.8802972580284104,-0.04937776667366885,-1.5339968130476649,0.3185311463517684,0.07540960704503005,0.007255918114886679,-0.02834061858633466,-0.023476728660595355,0.08827030842470687,-0.030269201616994697,1.2421875
0.36309658712741366,0.2599895513721799,-0.23869355368360948,-0.8903419026725695,-0.6148660119735146,-0.14824106399878212,0.6319799980667057,0.9293122061837754,-0.131311530847866,-0.08286414758139377,0.03950128286895844,0.02620777901124805,-0.16012818068077306,0.015570529724093866,1.25
0.3298158646770746,0.3573991171843284,-0.46027518772037496,-0.9249030858278402,-1.4325658208584209,-0.05417024034805991,2.1758162799782164,0.3246426754023563,-0.18050995934316252,-0.06874312612550221,0.060026572478236825,0.04530424464516261,-0.21650693871576285,0.04411920207564933,1.2578125
-0.14494524686914406,-0.06838335646633759,0.02358934802977766,0.32282644229011404,-0.015682513321975143,0.08305734792997599,0.22843991010057618,-0.5299219555218526,0.03415535115403268,0.03530646062343409,-0.009154304400437348,-0.0041824543991900685,0.04227632917064015,0.0016946686242719816,1.265625
-0.0829817030758932,-0.1820129223194412,0.30001725175795263,0.32230542293904857,1.0176878864350396,-0.047108656863483055,-1.7497121217028988,0.3059704447001246,0.09157613967942708,0.012645154245550058,-0.033848298900026004,-0.027740200235812095,0.10754072203296974,-0.03468110713844794,1.2734375
0.467472938601136,0.20972572548690624,-0.05671684536413623,-1.026558735832354,0.1078573255434093,-0.27375109995207847,-0.8344419040142985,1.7328054698364677,-0.10583764552986694,-0.11345792324848614,0.026071140788677085,0.01156369632082357,-0.13290314577183845,-0.010726729956366622,1.28125
0.28253859969734485,0.1734554395241979,-0.128676065541937,-0.6646773931008806,-0.27420874262095823,-0.13413116454108745,0.11927769064949309,0.8441492980952915,-0.08770809223359974,-0.06594738927768395,0.024963585443564286,0.015305170442346689,-0.10794204866828899,0.004879713206838153,1.2890625
-0.5735875559087507,-0.4030173485847887,0.3599043889606798,1.4021215912147655,0.9036600394104957,0.24036978175645432,-0.8684967494591763,-1.5167880497985793,0.20269620489031756,0.13197555586797519,-0.061689866108456407,-0.03997284611764337,0.24691082773805972,-0.024218138605749246,1.296875
-0.5984856942508749,-0.4246192743507038,0.3840851530803808,1.4667963433521158,0.9734525766680308,0.247922656455665,-0.9634081424593232,-1.5642440391228014,0.2136051851668156,0.13746346444524687,-0.06519573926826254,-0.042456408248468074,0.26011612230255127,-0.026280010643540776,1.3046875
0.3242042621758629,0.2372223384579025,-0.223885107793829,-0.799990544489643,-0.588153385290209,-0.12884074145187185,0.635260475328687,0.8068196278193855,-0.11984886281818018,-0.07366884956750881,0.03629155581113653,0.024317746567840467,-0.14617748974598127,0.015145012538917193,1.3125
0.6356817247048214,0.40416464531321494,-0.3159551957294112,-1.5111903357616567,-0.7089921774147594,-0.2934316131331276,0.4307226039182451,1.848902488004315,-0.20389931188208346,-0.14797198821390029,0.05932817295289949,0.03686045539885715,-0.2504328646121679,0.015158583011554193,1.3203125
-0.004241070198627074,-0.13383954267985196,0.2645392226360941,0.13712618333452475,0.9441298093970821,-0.08463497144241261,-1.7224470085652894,0.5432468476878416,0.06729584747500034,-0.005799313687378267,-0.026818116952439006,-0.02346880140202335,0.07763593205263347,-0.033186849469276566,1.328125
-0.3077700194172611,-0.2862228693246706,0.33416361330439526,0.8214806354257607,0.9895667262733133,0.08245284417566363,-1.3897437889128166,-0.515642689313335,0.14406354274723912,0.0671525793251413,-0.04726783429646639,-0.03387634557322487,0.17342465586320008,-0.03074481460268402,1.3359375
0.04130588610369911,0.1754445301900935,-0.3195563999385738,-0.23782948277325489,-1.1224985228906847,0.0800590953182544,2.003500102894048,-0.523315325083603,-0.08878388623710126,-0.001352691046500952,0.03319030178094747,0.028863400565044543,-0.10374720464190128,0.03721684464728739,1.34375
0.10400101444979194,0.34714720271148874,-0.6155396600741189,-0.5140159478385012,-2.1429244220284236,0.13864659688808162,3.7878423508632495,-0.9055237707369894,-0.1755217851718442,-0.00887283822124205,0.06539333958079971,0.05590167705926136,-0.20574648327943548,0.0714892921358653,1.3515625
-0.17995973400101153,0.05098901262844295,-0.24309276457035825,0.27087172360689515,-0.9968211169380276,0.19320482766112182,2.0759932813809296,-1.2391129445684248,-0.02625175999490514,0.05108938329998001,0.015786979192970126,0.01892331447017951,-0.026810024550016017,0.0358925906765227,1.359375
-0.10875527190431974,-0.07942866433363208,0.07424979691362135,0.26907896931702,0.19057982463984424,0.04359915939527363,-0.1974263071347703,-0.2782203333817749,0.03970744107156819,0.024983274333654968,-0.012551776883199162,-0.008164786994246075,0.04806656300171586,-0.005865247184450144,1.3671875
0.058483683713420075,-0.05135585619040568,0.14819383862662455,-0.0538031577863685,0.568635148794099,-0.08552956817581851,-1.1187951311115147,0.5447770005052424,0.025712763217989404,-0.018199401312135176,-0.012478027581767345,-0.012339929597965824,0.02817305354350765,-0.021091516571575982,1.375
-0.2638676556837676,-0.263721050379732,0.32225034503008204,0.7202729163496553,0.9763843228419792,0.05889409791728736,-1.425204139091297,-0.3655371928124875,0.13264970686085162,0.05665722740610091,-0.04415639108063185,-0.03225051533210929,0.15891970688702603,-0.030828592268097563,1.3828125
-0.4943118607673344,-0.39415607222631194,0.40405317046973777,1.2531855019109233,1.114901085969973,0.1761931211071571,-1.3652558899998928,-1.1075049397918733,0.19826761315198024,0.11129025444930225,-0.06254339431889464,-0.042727147418959596,0.23997692302752502,-0.03251976616054989,1.390625
0.06398405391383781,-0.022572764989864286,0.09442774223973537,-0.09082953067866743,0.37929310569822583,-0.07109423467673327,-0.7826371102286716,0.4514354950306418,0.011097871717861104,-0.01805415739199929,-0.006896645984945883,-0.007499120240989712,0.011186757045057323,-0.014640764037485331,1.3984375
0.7480496898012855,0.3972314341492502,-0.21406559679440978,-1.7037688764314274,-0.2675609898953987,-0.39753044782540425,-0.5329559734228115,2.51327023041708,-0.20026729534622897,-0.17842922364175184,0.05423169377383902,0.029401600641216677,-0.24854488374163736,-0.0015012871969855872,1.40625
0.644981544608705,0.32148465746033517,-0.14272793126505098,-1.4486314641266684,-0.0806673991716776,-0.35660569329323416,-0.7329683730496755,2.2560112892746766,-0.1620617874050442,-0.15494065958306524,0.042545375907203316,0.021638521473484967,-0.20217701047235262,-0.006583422958498924,1.4140625
0.07088212668169153,0.020327749086254197,0.013514069728566495,-0.1433107909553535,0.09416160964130885,-0.04871643049979431,-0.26678292284431065,0.30651879337130483,-0.010447798868231379,-0.017601427016372035,0.0014126377485967243,-0.0002564996933659878,-0.01397264859600852,-0.004987971010377763,1.421875
-0.18607234026362035,-0.06635404568966245,-0.012921944844095375,0.3952310350514375,-0.17332642971677603,0.12103168344822003,0.5757173733159335,-0.7722719303078247,0.033115192334824316,0.04647989665958804,-0.00744937807131284,-0.0015179400351277518,0.042330000670735585,0.007622930070277874,1.4296875
-0.09659556128815702,-0.02150186902617148,-0.03283883762669466,0.19375387653482795,-0.18496900997626023,0.07161241282195316,0.4749932744226268,-0.45941860987737065,0.010510238904150464,0.024971636995991253,-0.0014593572205040676,0.0015346471863121045,0.014213956891417351,0.006853489950530999,1.4375
-0.10554936600320308,-0.05669235756423132,0.031346904754979636,0.24260296965059142,0.0382125983630919,0.055869991704156935,0.07686862588715729,-0.3578367500972511,0.02821362527172996,0.02540840651290397,-0.008135989209576719,-0.004243469837498601,0.03465929701578903,-0.0006804670483146673,1.4453125
-0.33645806122146893,-0.14460836244573247,0.028084046395831088,0.7352766903715291,-0.12963997640008035,0.20142927933002347,0.6982037311516129,-1.282529267257525,0.07241255709338289,0.08235895828627701,-0.01804521847988029,-0.007212459708583115,0.09072507318032587,0.008166658712213526,1.453125
-0.5141835334831184,-0.19999187051490094,0.00017065492930018467,1.1031844629475756,-0.3487401249941991,0.32203251353092366,1.3431234478741707,-2.0486570610052577,0.10028925265689394,0.126943087515384,-0.023260388958065686,-0.007274695672951268,0.1269936446354778,0.018059013244803468,1.4609375
-0.37194158222630447,-0.15204383060033588,0.01391293107378529,0.8054049694708376,-0.2026470460459491,0.2285820863947353,0.8830214682947145,-1.453895048337527,0.07616909358722108,0.09158195433786298,-0.0183853107774357,-0.006502466775994377,0.09612008309329358,0.011148046571631978,1.46875
0.0091246148275649,0.04922760536367676,-0.09311285047275972,-0.062405997177174544,-0.3304514149059145,0.025369524046288113,0.596271305720096,-0.16717458257675205,-0.025290192037470186,0.0005271064195257977,0.009219965021289415,0.008334380680038798,-0.02966814021342435,0.010484167498124138,1.4765625
0.3246249082156777,0.26451238811615035,-0.278516797467996,-0.8269788340287926,-0.7841827634836542,-0.1109834780463784,0.9949451242251474,0.6918294780052222,-0.13375965215663835,-0.07231755942335702,0.04173883937534425,0.02916911745668369,-0.16222269902654854,0.02187159076314914,1.484375
0.47770790662189105,0.2778684770137023,-0.18536195289733123,-1.1097930772414446,-0.34656013368176225,-0.23768838351160618,-0.01552859933356176,1.4996233884152566,-0.14015023788847175,-0.11256767695715184,0.039303497601756346,0.023060137131742774,-0.17298058603713956,0.004737967314936625,1.4921875
0.5096410874392555,0.09775828994623462,0.20109730444559545,-0.9933237094453305,1.0624891414094546,-0.3854703516108719,-2.639212362470915,2.451445095753152,-0.048982146519759996,-0.1307913777059854,0.0023226978777524565,-0.010679818485029505,-0.06809053379182245,-0.04416050480595813,1.5
0.24271421361616016,-0.12499069526947827,0.43971357880991047,-0.3082978034947803,1.7389230537346432,-0.29724373988705355,-3.514143844346997,1.8990488015096916,0.06315729758786669,-0.07139380044872842,-0.03322725334629824,-0.035522495697570725,0.06756171518627399,-0.0638280101096482,1.5078125
-0.30346715309843153,-0.2701765726541581,0.3046482933307397,0.7965737464056041,0.8860488569482144,0.08945882026108935,-1.2064348599263903,-0.5613239144622635,0.1357813212329545,0.06687434541900723,-0.04408876805354765,-0.031254857762750526,0.1634928589151089,-0.027184123391625153,1.515625
-0.4948546511430686,-0.18629921607481814,-0.013167673953013083,1.0550650581727712,-0.3833522182823453,0.31447831916300645,1.3804683299587452,-2.0006651998976106,0.09324795767916119,0.12261342500002587,-0.02105563040181661,-0.005850676465919626,0.11833612189803469,0.01901637062404871,1.5234375
-0.02939880622962853,0.12246481473216053,-0.2691899146607619,-0.06412227184856553,-0.9890127987442138,0.1076580922641755,1.8530731250174646,-0.6960239688711487,-0.06216196076158935,0.014739120692141365,0.025075865597776113,0.023352374431969043,-0.07177686647938805,0.03364201203130177,1.53125
0.33642195427251104,0.27986245303052587,-0.29898624747359137,-0.8626209895413928,-0.8501896974665497,-0.11169726899312069,1.0970323728446703,0.6952680839271086,-0.14136261428606683,-0.07470976195892852,0.04432956260267784,0.03116941246850974,-0.17137082678930818,0.024017940963583416,1.5390625
0.05828604548118099,0.07009938606926447,-0.09523941224355975,-0.1696639172874711,-0.3059825976893048,-0.004959753032130867,0.4806072601702499,0.02425418138054789,-0.03578605352115339,-0.011654672541721171,0.011695419263981455,0.009241368033674183,-0.04295230192915721,0.009002620258096774,1.546875
-0.19273839670495516,-0.10024567040143528,0.04994321870623879,0.4384908770438782,0.04693789194137627,0.10431293988160958,0.17987965560538446,-0.6641603457063244,0.050072684281262034,0.046380509643167325,-0.013946614345973739,-0.007162793097037405,0.06195268272041168,0.0001565100512151704,1.5546875
0.1092628896617627,0.07588771103310293,-0.06807349660608436,-0.26384977764744083,-0.17295530973109186,-0.045710418000223636,0.17113182651171802,0.28455297824478065,-0.038432754865665074,-0.02483550850743877,0.011209456735806145,0.007509466521511095,-0.04714802514245897,0.0036686671734503288,1.5625
0.28498577961940597,0.18039530033751344,-0.1402794716547392,-0.675235443860389,-0.3137431449612943,-0.13192608502814715,0.18778106706654316,0.8291128565814349,-0.09099194973865038,-0.06622228616338702,0.02623474964522381,0.01638401714790671,-0.11183868760961521,0.006209780014783218,1.5703125
-0.16917762580824977,-0.12491188791144715,0.11797198766127821,0.41991542377401025,0.3079821063686624,0.06702015004419457,-0.330541178627475,-0.425237225654648,0.06270784449136453,0.03876519280717662,-0.0196321717050821,-0.012844841706731577,0.07602103276422426,-0.00907942690341859,1.578125
-0.5780783416598922,-0.41335627429413113,0.3772987027745149,1.4195614947119581,0.9638614722390807,0.23736763211833986,-0.9715699603485934,-1.4974063953168806,0.20795975388440108,0.13260616937943578,-0.06362207710684284,-0.04155393627904218,0.25307233589531974,-0.02620305453663607,1.5859375
-0.385705637539274,-0.2863823678183823,0.27274026362445686,0.9583904619803794,0.7173671338339804,0.15157553644646912,-0.782262754059227,-0.9561094234649569,0.1440354522689259,0.0880232987133789,-0.0446699258066823,-0.0295992660541663,0.1748938310132557,-0.02032697117698218,1.59375
-0.021795076469708026,-0.012709675166304148,0.008120822435993068,0.05307327898629828,0.011500193158745705,0.011258569108624456,0.012087889989513004,-0.0745918066361961,0.006133107476575062,0.005427274152021634,-0.0021509483257200037,-0.0010470435383524556,0.007426800488325823,-0.0009079990132811911,1.6015625
0.13109124365513644,0.12234378902014056,-0.14347800120881168,-0.34717609342837696,-0.4301231123217209,-0.03436536147470746,0.6102625584541839,0.20984339301163119,-0.06205029100853268,-0.028219299045787512,0.019725079222141124,0.01452672082096473,-0.0748047177758609,0.012261275678762461,1.609375
0.2598930326387347,0.21479369956342667,-0.22884879189277496,-0.6644877846527332,-0.6499182748174681,-0.08686742204840057,0.8361275832703612,0.5404327787478566,-0.10869526343399051,-0.05770743114681949,0.03392605405762633,0.02387358584715708,-0.13175448928053385,0.01811307089528848,1.6171875
0.3618496355735219,0.24111979377275305,-0.20218314572269114,-0.8701257962015488,-0.4857951466954227,-0.15958535456675244,0.3970904816597497,1.0028717238142042,-0.12181371998627187,-0.08355196257247313,0.035822612277012326,0.022929201882003366,-0.14929937569808907,0.01109404423818389,1.625
0.22009864993867634,0.06740741636991658,0.03604438649511299,-0.4522759095597207,0.2738125715309942,-0.1495796605641236,-0.7992991234409104,0.9473117970055951,-0.034091528607868044,-0.054979651117789255,0.00587599918636114,-0.00013753828421223625,-0.04465210845962817,-0.013161594849937733,1.6328125
0.06499936687413559,-0.05854826671433859,0.167810528630474,-0.05723065567829268,0.6427325169912377,-0.09600929655085046,-1.263549063962614,0.6119529452789646,0.029374002926407832,-0.020283227342771323,-0.01411008159232109,-0.013964678390023676,0.0322227799720397,-0.023776633178184778,1.640625
0.17187175602201943,0.0923301817162595,-0.0517261199613422,-0.3915897243745478,-0.07276592581333442,-0.09038868656513611,-0.10070939268586654,0.5689646796016802,-0.04677974876335114,-0.040761516808967065,0.012430945945314773,0.0069560845520980465,-0.05829653202876333,-0.0005666704222429706,1.6484375
0.2007969389455305,0.16149226791841578,-0.16796660524354864,-0.5092567531445128,-0.4701290005245222,-0.07012091175423003,0.5873308247389532,0.4360529413250449,-0.08163812239982131,-0.04478090832385343,0.025248821900104478,0.01763179595541214,-0.09926549247026746,0.012727844551368446,1.65625
-0.10528780514274795,-0.0989768361356651,0.11599773641540703,0.282014931419909,0.3428621919444806,0.02766802899454526,-0.4824673119140346,-0.175401893846788,0.04964637353565735,0.023063717158158695,-0.016560823767494737,-0.011786815458434238,0.05943404091499238,-0.011150152356554342,1.6640625
-0.26486000849068453,-0.1989237786957985,0.19218157758097745,0.6597221011765937,0.5080608959772278,0.10244147238853721,-0.5670855129174457,-0.6476967648191203,0.09981450935722162,0.06035247936080514,-0.031191884428377857,-0.02073515499729598,0.12094558030722917,-0.014681853073331629,1.671875
-0.018691180937441213,0.11612023802676048,-0.24786221651830626,-0.07787421317984781,-0.9058830128946385,0.0937952347156669,1.685736333365213,-0.608127707289742,-0.05917340992868828,0.011466050688176856,0.023475360963066662,0.021669910333239558,-0.06852287035688237,0.030684079108620733,1.6796875
-0.023920308544818455,0.17290635891673944,-0.36613831004218195,-0.12172598718593682,-1.332456224323471,0.13619642442109706,2.4758465625264896,-0.8813737918858645,-0.08762414766987447,0.015955966867203433,0.03491859147381336,0.03201599741469745,-0.10119559549005129,0.04538179184038678,1.6875
-0.6027137078458515,-0.3578417627949352,0.246677465188142,1.4124945971845697,0.4791229328196024,0.2961211947261812,-0.04855224619083992,-1.8749303266694255,0.18017178133665818,0.1422496346145648,-0.0518183374486557,-0.030389001004135992,0.2217190182238411,-0.009278353999367795,1.6953125
-0.8370885841391188,-0.5996996392028331,0.5487694831096613,2.0585247396988224,1.4051267262731522,0.3431253795120501,-1.4242562643263204,-2.1620573878591642,0.301975122462417,0.1919403525612461,-0.09230092552286229,-0.060400639601776,0.36792881147287393,-0.03800329587930788,1.703125
-0.04256972804159018,0.01962436997330412,-0.0736836322838359,0.05742081593127836,-0.2960075166403222,0.0513628243463253,0.6031324775236067,-0.3310576645443256,-0.010402190558092338,0.01273734461283867,0.004955957450886226,0.005886374389277,-0.01124946168192944,0.009979287244364981,1.7109375
0.8707335719433718,0.5973498508545052,-0.519728982320901,-2.1130011041882337,-1.2825225609128392,-0.3732998399016325,1.1599415830990045,2.3489032144800586,-0.30132798580653414,-0.2004969124663177,0.09003435369368977,0.05820630677405069,-0.36826194186817435,0.031771023193698934,1.71875
0.7408138654755386,0.27064262394276967,0.03461062568665311,-1.569425163406025,0.6208626088919222,-0.47541549470341476,-2.148752932406045,3.015595124077546,-0.13620228740847348,-0.18336341321015182,0.02926379082005264,0.007329685680952492,-0.17433740325874364,-0.031985274263229495,1.7265625
-0.05459171264450742,-0.3215512318903863,0.60207554733733,0.4060799137105564,2.122412392943144,-0.16489342205747362,-3.8114454409719283,1.063597889740787,0.16214924388612892,-0.0024869400410541345,-0.06252766148627638,-0.05404009718513729,0.1885636215986362,-0.07305107667105351,1.734375
-0.3590671852532064,-0.2634611481318419,0.24793808204201834,0.8893613594533207,0.6450948696207668,0.1430633321875866,-0.689174540588368,-0.9035504457029979,0.13233391362985913,0.08210756839412432,-0.04096676189718057,-0.02696660624379478,0.16082855990379558,-0.01818127312222514,1.7421875
0.02331158443664023,0.1572698263809229,-0.29780362226506,-0.1900566328036684,-1.0571735344619901,0.08416230310204034,1.906704936107209,-0.5481820055855361,-0.07980864953240457,0.002511102601889167,0.030238880966789537,0.02666759818579612,-0.09312137977916056,0.03526221409114911,1.75
0.408723034324596,0.2644583725575356,-0.21222577794232175,-0.9745173241274677,-0.4903637650591588,-0.18551379046997118,0.34247931727995556,1.1672348337043426,-0.13344448583025734,-0.09479570293036203,0.03891236025597142,0.02446604598167268,-0.16371277954364544,0.010607088129417437,1.7578125
0.3220643303967882,0.12268524325171536,0.004624892797094677,-0.6856986742295693,0.22987642752361137,-0.20301207111373398,-0.8582764105537991,1.2861161829850618,-0.06190640215083882,-0.07928386937993628,0.013514016758032026,0.0040567680158193845,-0.07906891396511231,-0.013021757527544803,1.765625
-0.19243170403992776,0.012156680945909017,-0.17468994314338124,0.3302764939080357,-0.7600414079130234,0.17839800066658046,1.6574401899446707,-1.1418970845902763,-0.006620119034483377,0.05231101963376204,0.008395682260011444,0.012720485977077572,-0.0038495862689442053,0.027890370923097613,1.7734375
-0.6390110454353944,-0.10345726854682283,-0.29099309401168943,1.2314288741842978,-1.4777834286516822,0.4964655798194982,3.5819323565152,-3.1661154390175237,0.051363358907832,0.16550909299775413,7.614581046596522e-05,0.01673834778338123,0.07306708129488239,0.05854887282090435,1.78125
-0.3510818727490557,-0.11381960201720202,-0.04615347943624091,0.7316366652424455,-0.40481606088056016,0.23525191261494427,1.2229786748288878,-1.4993856025812775,0.05683411871253934,0.08801082572663126,-0.011378819845927134,-0.0009091277836015065,0.07313975920977264,0.017840784883472658,1.7890625
0.4599376297846631,0.12371759636828394,0.10925293577617627,-0.9320102575741521,0.6990815721283088,-0.3239172457199943,-1.9073277619474158,2.057147274307564,-0.06245451530585592,-0.11603421077939466,0.009294282596307619,-0.003283489108957041,-0.08274688002567523,-0.030907302438567555,1.796875
0.5484213631792123,0.19458632712061696,0.03618014112142754,-1.1569141513560672,0.49692919411295905,-0.355185890040507,-1.6573768211498237,2.253922527810639,-0.09808456839837137,-0.13589951203233927,0.02043052077743321,0.004432298201526309,-0.12600087986286793,-0.02513890111085231,1.8046875
-0.38923196518512154,-0.20516501729206202,0.10741390372531327,0.8860152180652838,0.12210471701235241,0.20833178713332187,0.31168731787207016,-1.3220905754093233,0.10309182128213303,0.09328204260456384,-0.028424647870486118,-0.015027608487002483,0.12749808362663745,0.00022015459014424287,1.8125
-0.8605497642589912,-0.4573371833445716,0.24602710448443982,1.9624519871421173,0.3017717656793347,0.4576490666888571,0.6266399639020053,-2.9013210251481727,0.2299362138944705,0.20574179176407384,-0.06313422463910028,-0.033887122712800644,0.28486318155585594,0.0003098722755824903,1.8203125
-0.03817241846347452,-0.0606639052422608,0.09158064833751703,0.12734272050265352,0.2994923393988408,-0.006151132762861233,-0.4951805727817901,0.038036518757672576,0.03014147014826796,0.007204287261277779,-0.011139085635544934,-0.008625114199687253,0.03568227670818464,-0.010555015397077254,1.828125
0.7314228671705513,0.34310695023963295,-0.11834163122342452,-1.6213622775158545,0.06396537907938563,-0.4186209028711671,-1.1173455872048943,2.650260211935276,-0.17306152518292922,-0.1768446834175409,0.04394427513102597,0.020784912661078656,-0.2164227635881758,-0.012691089612901297,1.8359375
0.35720298306391746,0.1366528905859102,0.0036982518085163776,-0.7613110309438925,0.25183895908420956,-0.22468024790062924,-0.9487715776510973,1.4234923207078947,-0.06892495156963162,-0.08787381060105734,0.015101414050760044,0.00469304811140224,-0.08771172625758271,-0.014170894962467638,1.84375
-0.2080844915224754,-0.1702735902457168,0.1781430808737785,0.5331000000695033,0.498547284594942,0.07161859699308634,-0.6247527180285276,-0.45147008826272933,0.08567237476086387,0.04678406902391682,-0.027414990488015843,-0.01875125825665604,0.10358594940617191,-0.015164540561610618,1.8515625
-0.0423837311456503,-0.03443231282671869,0.03484452867985007,0.11004730634152753,0.09481406023335152,0.0152685194928447,-0.10985953280256518,-0.0984445492975403,0.01717817401016251,0.00977450350073603,-0.0057841740535061895,-0.0037667603449801097,0.02056613048721196,-0.003540235172573652,1.859375
0.18130637319649343,0.1570376602915461,-0.17426526783265384,-0.4689805973227127,-0.5063820821605766,-0.05573448109712228,0.6843573322974195,0.3445137053611474,-0.07935823210364121,-0.039783866630734264,0.02499291232873993,0.017917211535072065,-0.09617450615052808,0.014154142239868137,1.8671875
-0.09389410076131181,0.027031724928134184,-0.12765475346261335,0.14170055086373873,-0.5243097917332057,0.10101745789993725,1.0906280527803796,-0.6502544214911925,-0.014010366212408766,0.02675687973285167,0.008177644006286162,0.009963586983200703,-0.014562604349808293,0.018503939612261006,1.875
-0.2724656145218655,-0.11948382498147742,0.02694785129637703,0.5966741503048701,-0.08941398580877592,0.16164310205893054,0.53658089784792,-1.029902415168879,0.059720406122434094,0.06659747224863505,-0.01508558162422098,-0.00623259440539312,0.07460065932666288,0.005973520028493176,1.8828125
-0.06775273104971444,-0.06768387816000868,0.08262268013058155,0.18489890313359936,0.24740236557366532,0.015156844853383547,-0.35953759017062975,-0.09687096497450448,0.03372544534744296,0.014658791424721167,-0.011513973175106055,-0.008300664035752156,0.03996383549799316,-0.008376257977807342,1.890625
0.01706856978391122,-0.025679631342059934,0.06471166930597341,-0.004012808964562166,0.23933031489253478,-0.031869590340228356,-0.45946811921550346,0.2015127553898269,0.012660652458772287,-0.00571828548214428,-0.005983907823618457,-0.005515161026200716,0.013811106483004517,-0.00927882572858057,1.8984375
-0.06725326212959075,-0.029112213550477335,0.005852647242024311,0.14881660733104743,-0.028533277766081493,0.040442098752834346,0.14608265699416886,-0.2601907945922171,0.014317753229617832,0.01668337536741732,-0.0038916357575593495,-0.001479800346556908,0.01770782184205311,0.0010852981540000306,1.90625
0.1018518082206993,0.08376801026682491,-0.08910380375913646,-0.2595711905348025,-0.2549816064379682,-0.034091055877674366,0.3282363041233275,0.20971339826818663,-0.042615574504008644,-0.022454133406205893,0.013047239444469142,0.009281583385444407,-0.051873805990360185,0.006671170945287212,1.9140625
0.37771356520049604,0.23508778807915667,-0.17790185052038598,-0.892712409375808,-0.3878754423655776,-0.17745695242414025,0.19451743862882498,1.1177335826493944,-0.11877813545248762,-0.08808341328971728,0.03407405159560937,0.020987494730947284,-0.1460732445865924,0.007545106018215985,1.921875
0.2975122357190733,0.24957883534170444,-0.2696093560026533,-0.7634521581473224,-0.770643445361616,-0.09685705317398823,1.0070802173401932,0.6031621401871247,-0.12606942506929567,-0.0658520827621122,0.03955448319485542,0.02797033060054834,-0.15266933659862902,0.021726648042301795,1.9296875
-0.06628559046031199,0.11441494035653935,-0.2821383474808261,0.009996055176987024,-1.0592869146751707,0.13504957179145374,2.034359109559474,-0.8703939111634132,-0.058095967239699654,0.024157258035907167,0.02461982321618969,0.023986298050083944,-0.06593250631636674,0.036513755688282926,1.9375
-0.31744447989955105,-0.12950600501714318,0.011386811422990674,0.6869310615134107,-0.173677477514341,0.19513577221088477,0.7552563575482945,-1.2424951271616569,0.06484608332914311,0.07817688506019665,-0.015672110701112487,-0.005490961842225909,0.08189809793871167,0.009455679351024756,1.9453125
-0.2746533542251976,-0.3383322350977993,0.46372670566591845,0.8107303731777958,1.478916461213578,0.018721108586904584,-2.3301524174746873,-0.10676044310744486,0.17039284962706153,0.055495544921290565,-0.05868605256389601,-0.04490758274207202,0.20312192947651736,-0.047940133516937454,1.953125
-0.033562226201366695,-0.2642222960494942,0.5028689624877378,0.3137158568025342,1.7815385202769844,-0.145108734273696,-3.212649216789524,0.9353170753549984,0.1332631149131086,-0.004952849979978819,-0.0518536319572441,-0.045007729465963216,0.15479323608798048,-0.061591150987899634,1.9609375
0.07730683546654059,-0.01209996063650138,0.08327410984728219,-0.12371462956327786,0.34989299358196824,-0.07571627748923981,-0.7414257520722505,0.4806582488909321,0.006005931110131162,-0.02101278533379263,-0.005238476704797624,-0.006353174847207459,0.004929573715881966,-0.013848471570223366,1.96875
-0.14571502180884546,0.0023807196879636386,-0.11934698362175575,0.25669688922295936,-0.5287003716954276,0.13091122437711789,1.170585502263045,-0.8384785947583132,-0.0016511608149704785,0.03936495520844576,0.004999410210139299,0.008456575973957112,0.0008912809236118273,0.01934504003582545,1.9765625
-0.2922749607678686,-0.16736717118207972,0.1078883079425023,0.6785528442969716,0.18614776828100152,0.14748645596482973,0.058278861427074495,-0.9366735128450546,0.08383066923158447,0.06936255221935966,-0.024021701907674154,-0.013650764545640211,0.10311141466252288,-0.003277062137284637,1.984375
0.08010067274276046,-0.054971078167094276,0.1733382170856286,-0.08786476981746501,0.6707549811540824,-0.10735005532009366,-1.3400285544649222,0.6831136183021528,0.027404440167939807,-0.02417421102528406,-0.013903501102452679,-0.014178021822949676,0.02969433318057282,-0.02489241302829938,1.9921875
0.5204005695802714,0.27713362177094186,-0.1501082271337783,-1.1851370311144336,-0.19256687004040612,-0.276084199376056,-0.35936710572790437,1.7438009005461315,-0.13985267335880522,-0.12400765813874817,0.037762051187588894,0.020595350791934388,-0.1735427286951003,-0.0010673762302131939,2.0
0.36361658848568507,0.318971178486748,-0.35710696520752927,-0.9476382985052532,-1.039446143418023,-0.10942890402258332,1.4091015205584894,0.67938715691123,-0.16106428561435318,-0.07981536194851621,0.05122931456241484,0.03666024217874672,-0.19460093373664514,0.030113838463114374,2.0078125
-0.10368842488760628,0.06205350117484834,-0.20617941323574415,0.1259084334088403,-0.8121391432543158,0.13330008261401508,1.6336619515010022,-0.8564193006184946,-0.031709464975412,0.03130166765611585,0.01540496634776351,0.016730374109559902,-0.034589615558665354,0.028483948906473645,2.015625
-0.24496370090947137,-0.08823329984161198,-0.014491032269739381,0.5201237337682363,-0.21987051835745766,0.15836368252379454,0.7416393843724223,-1.0094250302444547,0.044075464021292504,0.0609802112295085,-0.00985580732961253,-0.002200177771484514,0.05611835644759415,0.010000050567997595,2.0234375
-0.12682107848275662,-0.06566776614596888,0.03244021246332957,0.2891699344945024,0.028028529770134338,0.06882888343408612,0.12464820584438348,-0.43955880922091134,0.0328097128827178,0.030609989293971056,-0.009205273064403776,-0.004690320955392521,0.040320885944245335,-7.279983308028423e-05,2.03125
-0.06367225189576295,-0.031440088133802335,0.012847527134731983,0.14434239211699051,0.0004116756769540335,0.03574136254654617,0.08855167694560412,-0.2299762437949902,0.01559154899530048,0.015568415512779656,-0.004456380897643175,-0.0020810415400241557,0.018946708921041677,3.96062537837173e-05,2.0390625
-0.02661838974962606,0.006435311944856244,-0.03434995234078517,0.04230784710725215,-0.1442692645143221,0.02815198421477969,0.3032156871440317,-0.1833016855492014,-0.0035489665859956107,0.007697604930502255,0.0018713876691521243,0.002612647459867358,-0.004020134616580932,0.004517069938961516,2.046875
-0.027918538160174658,-0.004617274005044168,-0.013350514964623089,0.05484805682489388,-0.06981774815126465,0.022041120735099763,0.16796767358659032,-0.14382532867132788,0.0019695302311300246,0.007470945884945073,-0.0002634422929318484,0.0007445091724699405,0.002367459020874136,0.0019980938724936666,2.0546875
-0.10060368562808969,-0.10850665225899644,0.13814996941291174,0.2827470560071766,0.4256406980816911,0.01747743720920983,-0.6408500679488958,-0.1095788297729623,0.054383954033594785,0.021346756425184413,-0.018558617570295945,-0.013682488305926567,0.06465947664267167,-0.014044881175891595,2.0625
0.07425055443128588,-0.03632446146478794,0.12969516212087226,-0.09568667167319549,0.5133827561136103,-0.08918601588225106,-1.0394069383690037,0.5675079185016623,0.01813508234187202,-0.021518351858969127,-0.009961773164491672,-0.010492175246096734,0.019017687490616646,-0.019397528771884217,2.0703125
0.5165689221490029,0.3013552782154941,-0.20255716445003208,-1.201859479100272,-0.3818381714448745,-0.25624681701034524,-0.002867718318753868,1.6167987961895671,-0.15205574675050862,-0.12163240798238148,0.042723287983587745,0.025122815581038366,-0.18752078455482976,0.005486854788060599,2.078125
0.5428160047520313,0.389452939430701,-0.3586083879719693,-1.3329018403980468,-0.9245871477120939,-0.22105921710466134,0.9543898693714115,1.3878955666362398,-0.1966247304656399,-0.12390998732076876,0.059392051754997205,0.03933808771428708,-0.2396024843217273,0.023817774903086977,2.0859375
-0.05375044216846921,-0.03898143469963977,0.035827089403455484,0.13349878966250778,0.09013896758748072,0.02204643385374953,-0.09079437021717651,-0.14212963380429763,0.01925529085678083,0.012552446117265038,-0.0063625484019781825,-0.003908380067301874,0.02344059265729869,-0.003127945400278334,2.09375
-0.5028298177777072,-0.4324216122415722,0.47505325547592736,1.3058141614363328,1.3650950189963285,0.15798154628885316,-1.8122390368302974,-0.9900222040369321,0.21771328166623466,0.11144213019755787,-0.07000069231070376,-0.04909842894970453,0.2630932329799857,-0.041018001514566416,2.1015625
-0.43729085078437074,-0.38389256997296506,0.428715354506972,1.1434146059678896,1.2429705417431682,0.13226805325963822,-1.6768036222128024,-0.8283301957742899,0.19331234521292134,0.0965235997297219,-0.06247339432734959,-0.04411938677384522,0.23338949016021637,-0.03769962362729225,2.109375
-0.34769640801046864,-0.2050882383672543,0.13964595319276032,0.8131413691255573,0.2651938684115215,0.17175302231962142,-0.0076879241051788835,-1.089300680038423,0.10300385821872814,0.08221313141567002,-0.029748804865185274,-0.01728414281732824,0.12673593231997576,-0.00525188732410608,2.1171875
-0.3269267759892144,-0.10320636456426256,-0.04844864883931847,0.6791093911426145,-0.3967467247697397,0.22090248795839085,1.176914668488769,-1.408404121169871,0.05152680914567599,0.08214145257919274,-0.01011839944068851,-0.0003172649085586444,0.06657075478311575,0.017214693856391978,2.125
-0.01564881380281567,0.07900455703991048,-0.17093569898947814,-0.04563984845269472,-0.6275476398734745,0.06644793434851624,1.174933916870564,-0.4321125200613004,-0.040209730854194936,0.008663049834973208,0.015924579800544503,0.014895157532080256,-0.046441759352439826,0.02096178242625547,2.1328125
0.27459841393660744,0.18431473427842973,-0.15600607535858482,-0.6607765361931053,-0.37868084679313463,-0.1202359093288867,0.3211398768656897,0.7543199262156831,-0.09318562635082767,-0.06331099882125273,0.027376954027767277,0.017615205408958307,-0.11417256967934328,0.008551339386621884,2.140625
0.10692822173240754,0.01306339544714621,0.05634948946401056,-0.20122754330098028,0.27084326725104535,-0.08547963387409778,-0.6422939096365724,0.5416793655846743,-0.006861449876131706,-0.027670320643764183,-0.0011613559711524512,-0.0035523989944577245,-0.010852402091075145,-0.011507151679033815,2.1484375
0.04957675846742129,0.003567762717722419,0.030843837539508975,-0.09041640053357029,0.14000607796215933,-0.041208409427835456,-0.3250030248156062,0.25960079447857404,-0.0020071368576449512,-0.01284390438459891,-0.0011359770712372442,-0.002090325067944394,-0.0043356880918331165,-0.006266546294247615,2.15625
0.5691957951805225,0.42927484907952346,-0.417290335942391,-1.416726431984329,-1.1198754773678095,-0.21845293085020898,1.274517995464517,1.3687774452530546,-0.21650309583398744,-0.1289309439722878,0.06655682002142331,0.0448779144900947,-0.2640769790083644,0.030088740956022136,2.1640625
0.808590936668387,0.6054027311313391,-0.5839392757454707,-2.0093751589429645,-1.556235432709264,-0.31319108772989174,1.7481134478856455,1.9642710664442462,-0.30538448942743224,-0.1834791281523898,0.09373834802868102,0.06299171229422701,-0.3718563022692203,0.04194348278788035,2.171875
0.12576918954174007,0.08909911603156129,-0.0815664711232675,-0.30732722470913754,-0.20984789093053666,-0.05159057825472427,0.2156734437368491,0.3212842026989297,-0.045309032737003554,-0.028589700424362388,0.013308306145273143,0.008947480846961441,-0.055363802327000666,0.004811220580741042,2.1796875
-0.524645614564194,-0.37176090007631823,0.335116294232549,1.2857722139709102,0.8499004006324524,0.21804930146995788,-0.8352559857097313,-1.3755077989909785,0.18701029252505505,0.12063466876602041,-0.05716841001346822,-0.03705985642077376,0.22809311791958925,-0.022986424702166,2.1875
-0.30741483355806076,-0.2019408672920479,0.16414738564731546,0.7398582118190881,0.38152287992974765,0.1386264955065925,-0.27377312353657696,-0.8769643527270007,0.10153567992388557,0.07170553526631415,-0.03053098868717972,-0.018876168852288922,0.1244269446325243,-0.009827831580442307,2.1953125
0.01591226406391478,-0.004964935364615723,0.021687587517098924,-0.021573469015573967,0.08611233638837969,-0.016768669329193693,-0.1769763201456151,0.1042871870018079,0.002238668776293731,-0.004195066090514351,-0.0019071190646493023,-0.001719654738664068,0.0022952171897234826,-0.00394033096377689,2.203125
-0.27037342132795894,-0.2322042534367792,0.2543657092289389,0.7013560114418448,0.7283877087615322,0.08546100392200344,-0.9642145406412702,-0.5372178299915269,0.11666001247899169,0.06010178695636036,-0.037707620314345915,-0.026330598104788917,0.1408715392958153,-0.022150178540349435,2.2109375
-0.48026489027430436,-0.3238676953292559,0.2744110635847517,1.1608726811168588,0.6593328087172156,0.21021358316163868,-0.5493933262759652,-1.3287137393821782,0.16280409145003003,0.111289482434832,-0.04904418285347825,-0.031064108108926826,0.19879249903385074,-0.01701928334983556,2.21875
-0.06887305017404553,0.0007409629767024901,-0.055816628246451006,0.12310896209502886,-0.24976024645525585,0.061792213394999546,0.55507510127236,-0.39778669419140567,-0.0007545437305527412,0.018724014012300203,0.0020913139544573864,0.003939139002419258,0.0004177691652552461,0.008682636461610457,2.2265625
0.2438695901995032,0.12354680858069635,-0.05793607385706164,-0.5482661911649946,-0.047236250950201564,-0.1334431065780028,-0.24543187423756638,0.8415063735525138,-0.06249847352315852,-0.058349812419081104,0.01629906994238429,0.008537573886532104,-0.07801834911894535,-0.002431224190869693,2.234375
-0.03819427779024215,-0.17434409545381033,0.3197410386954657,0.23487784294913142,1.119635293943822,-0.08187954023776255,-1.9996594036329571,0.5269392769047008,0.0878044821278648,0.0010085966387457788,-0.03372457217423434,-0.028851065331910966,0.10193025961669815,-0.038731113302850714,2.2421875
-0.24773402322793467,-0.26429289292480035,0.33644334879635607,0.6917593915746917,1.0393422263107934,0.04377964630212117,-1.564552216531674,-0.2702989887852579,0.1331136581827691,0.05221299496077074,-0.04474870197450722,-0.03330361691616847,0.15889337667954997,-0.03318531541368931,2.25
0.0778617768633146,0.08639448675875311,-0.11334480549386733,-0.21909116912995094,-0.35720983144573587,-0.011197011066882647,0.5515839662449292,0.06334055873688992,-0.04386436247398717,-0.015949057986303212,0.014369565144515659,0.011064185966195171,-0.052926477040239096,0.010437709078054526,2.2578125
0.40842764052941727,0.3602687156072066,-0.4046513023074111,-1.0657163592487089,-1.182070568839588,-0.1217262444878544,1.6107295020462222,0.7551066088470486,-0.18205598161580455,-0.08960758286482168,0.058026768488899115,0.04150708617782368,-0.21998552421286638,0.03438071671408171,2.265625
0.3404198339662283,0.3242470815894974,-0.38496991922245744,-0.9111686223910646,-1.1571554567504942,-0.08568222748827282,1.65629892007245,0.5270808755272678,-0.1638378641121725,-0.07339005356969593,0.05306614069166014,0.03881458794239921,-0.19745313922153476,0.03445990418543299,2.2734375
0.1560918867245304,0.24217608903284016,-0.36408882494640465,-0.5063668395537891,-1.2049578650312636,0.022823203458141504,1.9959860980616002,-0.16088520046798166,-0.12239309614667349,-0.028504598601206754,0.04274539905877874,0.03436479355638949,-0.14538028913028606,0.03857290189724105,2.28125
0.02912016990757807,0.1456853299034817,-0.2699917804112219,-0.18860187495619035,-0.952035700100635,0.07136909157240963,1.7079711077412025,-0.4658467627489275,-0.07382438426421946,0.00033680830175181333,0.027673662264689522,0.02427009963525684,-0.08604161453008807,0.03155960147719965,2.2890625
-0.14917497890538536,-0.09911895942003754,0.08168256255491389,0.3614823367061651,0.19006636751111008,0.06684324860808487,-0.14019706965199863,-0.42512383861085257,0.04952295272675283,0.03491275876567666,-0.015208807058083224,-0.009320523224189203,0.0608350879615051,-0.0053312389803808514,2.296875
-0.21337784554883285,-0.27048388080215024,0.37525536339171256,0.6381158441458719,1.2008208631062096,0.009830278638891594,-1.905639126065092,-0.05285271966970464,0.13606124867608282,0.04283973957681172,-0.04717928770489383,-0.03620393866025817,0.16209014606475067,-0.039213375960635385,2.3046875
-0.016235694102899424,-0.15837165989482677,0.30392292183415753,0.18053782731778867,1.0782567750261542,-0.09028467232481702,-1.9517793109286572,0.5808175728683098,0.07976384468843466,-0.00391875044398118,-0.03128547156092097,-0.027161952361590042,0.0920931957272375,-0.03762101191274609,2.3125
0.07309211198070048,-0.033150520248445295,0.12207999780981177,-0.09780685384824404,0.486034548413722,-0.086169757518265,-0.9885856808393407,0.5486879469658393,0.016628528135291195,-0.021090923425444528,-0.009257115931184142,-0.009843263066258746,0.01686602985563547,-0.018458832629619074,2.3203125
-0.16228218194567284,-0.11725696649894875,0.10717890847262171,0.3999430215233419,0.27357636745805974,0.0662713420452869,-0.2770576969952115,-0.41984242422705365,0.058821653197695535,0.037366977778414134,-0.018260496468480925,-0.011831271054920841,0.07098871553884364,-0.008031825702394356,2.328125
-0.23822487453979924,-0.135985772294089,0.08601384272971867,0.5530852042231306,0.1454831714574723,0.12094654683083546,0.06099771981793813,-0.7679378951196225,0.06817773742111644,0.056685280288560694,-0.019511843738552647,-0.01101461337460075,0.08362678838169448,-0.002625867006472522,2.3359375
0.13956467624450872,0.1105909094015409,-0.11319929780067764,-0.3513616180398027,-0.316111317998475,-0.04976207359190755,0.3895350663014064,0.3088141227060781,-0.05601886578707162,-0.03113215429309469,0.017125081719794377,0.011936398029173892,-0.06831898560045885,0.008215224116588602,2.34375
0.42710995369333793,0.3161627187171263,-0.3007773455217448,-1.0573773682174121,-0.7960719352046883,-0.16788039568230592,0.8756419279675135,1.051769382417656,-0.1596276868938231,-0.09704122957480583,0.048569107351328744,0.03258993964881779,-0.19442181348972318,0.020911985609312067,2.3515625
0.16455903321564572,0.19108809330409848,-0.2546213626715004,-0.4731012916457412,-0.8066745939774672,-0.018762345816376032,1.2541484197455728,0.10588704842271754,-0.09674383422209379,-0.03356663744882764,0.03229219184799061,0.024821500226769128,-0.11572560638702306,0.024802252599457966,2.359375
-0.27428251786287683,-0.10580514348281622,-0.0016900423671754733,0.5883737757513006,-0.19344991429799482,0.17246605475679957,0.7311471420251737,-1.099784836663609,0.05282388543999217,0.06787510802663133,-0.012390881344223956,-0.003724964544117222,0.06714521026817831,0.00955862987925105,2.3671875
-0.3993457637756338,-0.2983876701194084,0.2865616681424384,0.9947277945271146,0.7577281372783535,0.15553589631855694,-0.8391184415690754,-0.9818378615516703,0.15003218192174703,0.09101040831957229,-0.0466415513774445,-0.030983490691387245,0.182480858692026,-0.02151327248150051,2.375
-0.29558313303231004,-0.3217793069579454,0.41395304057187,0.8332495694664681,1.285427766170656,0.048454427115284325,-1.9464845129979993,-0.2966894254411559,0.16197403425742263,0.06201244444454113,-0.05472768908132141,-0.04080324290205802,0.19401295388923756,-0.04105262400485054,2.3828125
-0.17597813340764212,-0.1918974826907972,0.2465715609984559,0.4966407848707165,0.7651936838142647,0.02892107633384678,-1.1571829855145137,-0.17792745850822567,0.0965057760412226,0.037023470403665555,-0.03278168150688305,-0.024332213482275825,0.11548990763120759,-0.024741470117266448,2.390625
0.06460971154829856,0.09140073562523528,-0.13376561706868056,-0.20018634923754183,-0.4390785692227347,0.004061387360232544,0.7188859545287337,-0.03338363549348076,-0.04632473644454715,-0.012048150997315316,0.015758056575569834,0.012694794341229406,-0.055291871711263346,0.013460280107944976,2.3984375
0.44807639789977877,0.3854969174548813,-0.4242725773102361,-1.16007536905483,-1.2251325470837817,-0.14005252469652296,1.6338291888492051,0.8711324270147068,-0.19452091500668486,-0.09878344979419912,0.06174992814904458,0.04380311632590015,-0.23543149122144535,0.03535275108996805,2.40625
0.5818283932912032,0.4005358167589855,-0.3501588521668645,-1.4119987656868451,-0.869277526276207,-0.24845161871115903,0.798599324490186,1.5618021199100993,-0.20208642515947106,-0.13380178384777042,0.060377449110125415,0.03913503584352557,-0.24725592924977036,0.021335832748873195,2.4140625
0.1894525553387465,0.05793432806926475,0.030794695052794314,-0.3906246361865781,0.23512490121146365,-0.12877498271097657,-0.688606596805575,0.8153439309398379,-0.029494546517690713,-0.0473401220841949,0.005057818753341747,-8.992999302423055e-05,-0.03883682049160416,-0.011377140100885988,2.421875
-0.28469754758488197,-0.25014613477613534,0.2789559564856873,0.7437608883668819,0.8073859283559115,0.08614485338352705,-1.088546549860115,-0.5405351779485608,0.125687447175815,0.06289880244550597,-0.0407416864299663,-0.028712689089113147,0.15134748827240888,-0.024730884211180193,2.4296875
-0.17881647999924558,-0.09772494067643824,0.055919547472821046,0.4111213666553933,0.07753338739593996,0.09360586610218531,0.10445373426417776,-0.5958528084483236,0.04885623752812606,0.04278894010367572,-0.013900631545945896,-0.007497738902423069,0.0601438162831479,-0.0010701356202741947,2.4375
0.27264829793027506,0.2524304011141797,-0.2944026677895572,-0.7234821303596237,-0.8764765263803452,-0.07334431432183411,1.2351440374105516,0.4517160591319961,-0.12756782737824954,-0.059122327795915953,0.04100946393860152,0.029821340140166817,-0.15405980506271105,0.02572432811993373,2.4453125
0.14459314100692466,0.128295272263459,-0.14532941538542013,-0.3780172923830508,-0.42713532268934845,-0.042399234104476616,0.587050822853723,0.2603400254561053,-0.06495558135705001,-0.03152112142531578,0.020517128735320214,0.014827390830019507,-0.07874248911989183,0.012002446525312167,2.453125
-0.5727937490532451,-0.3907913519433512,0.33660060289088517,1.390261586858907,0.8201346357561147,0.2477043202871904,-0.7162477854177195,-1.5645392089087822,0.196650417438425,0.13247821074996774,-0.05932646930302861,-0.03786215855979442,0.2400125909283258,-0.02136005603486351,2.4609375
-0.7169113953184957,-0.45172298377279463,0.3466014804281422,1.7047958149325881,0.7585997023882911,0.3347407951881521,-0.4056869423285898,-2.11617900733636,0.22732716276056694,0.16774485505119763,-0.06679071565501916,-0.04074837146990149,0.27873354526511673,-0.017382670307120866,2.46875
0.08975096165755157,0.11151735549390435,-0.15412302260307054,-0.2634853506548995,-0.49590349005728607,-0.005025198127768377,0.7886627377610322,0.02394214916648624,-0.05647454620449073,-0.01777096458317799,0.018877232552454895,0.014870022737897807,-0.06769545383845575,0.015022910880004669,2.4765625
0.6561345639387988,0.4147671473402035,-0.3206537409917033,-1.5579469945177726,-0.7118542014356198,-0.3048368667256592,0.40786893430196697,1.9211191214835224,-0.2091599835022511,-0.15298348619391253,0.06072486869824665,0.03753878527480846,-0.25701868308005266,0.014981118042192211,2.484375
0.26214600280750283,0.07907548796652517,0.04551729555714267,-0.5390071451109663,0.3377251201287982,-0.17913417170715215,-0.9771267628591409,1.1350108092349385,-0.039962861146677686,-0.06562885562567981,0.006855553665372236,-0.00038590141872759466,-0.05238422620325715,-0.015822341451798744,2.4921875
-0.17417463769314018,-0.16750342873104299,0.19945937690177742,0.4699569787937888,0.5966239839240058,0.043360005950680895,-0.8539713642724356,-0.272078567279693,0.08411347749254557,0.037863928278014165,-0.0279273510337367,-0.020124844447189164,0.1010372216782034,-0.018928978714857443,2.5
0.03130097248460639,0.03662422359108195,-0.05032891413285372,-0.08966100198351225,-0.161501953014841,-0.0026901078683245973,0.2556335813204429,0.012166136903842934,-0.018917233575972837,-0.006100180289982786,0.005954898159504049,0.004853764032096715,-0.022629498407827093,0.004393155779215643,2.5078125
0.15083099630360988,0.08505339595270615,-0.05399153016381094,-0.34765087697185426,-0.09429476445161991,-0.07638985247655393,-0.02960039080810639,0.4794770230628058,-0.04326762123346854,-0.03549627015757369,0.011662642760779588,0.006861450911494877,-0.05337321724339793,0.0004895306185175214,2.515625
-0.22845018928893673,-0.2095560097332793,0.24215245902472937,0.6069679444050274,0.7122906811586625,0.06320031105812776,-0.9887978447726368,-0.397477015096199,0.1053068900293654,0.05006947629904333,-0.034562117064402036,-0.024642261029016097,0.12696169559886206,-0.022221712566508886,2.5234375
-0.3152015507040195,-0.20402714902809266,0.16363388509055757,0.7555862886284574,0.3710712370007104,0.14348752855007912,-0.24659264937006486,-0.9096191190231951,0.10250565651322036,0.0735659481865543,-0.0306121745183735,-0.018917099710597254,0.1254213059298993,-0.009366251492716643,2.53125
0.10572338084925917,0.16085906036053105,-0.24098671004512098,-0.34019565067902846,-0.797168295623962,0.013593490872476622,1.3173339748951205,-0.09762515424517057,-0.08142672718138445,-0.01937951977941233,0.028259261695846916,0.02275201577940347,-0.09708205601135544,0.025199011152314946,2.5390625
0.13799527828140987,0.1659575572894079,-0.22675182828301949,-0.40302649751795544,-0.7227187586069572,-0.011409925312097884,1.1380878949634594,0.061849583209267096,-0.08399424669165616,-0.027740679789242245,0.028253268424378485,0.02193242612999807,-0.10088306571044987,0.022224799582484682,2.546875
-0.26117803034432324,-0.1804058767795409,0.157255852882802,0.6359923484828602,0.38703407818611846,0.11160551589129779,-0.34822580519030877,-0.7069396012052199,0.09058598771890473,0.06037861698769382,-0.027607809036800282,-0.017605756364894257,0.11011926624865662,-0.010617793648532959,2.5546875
-0.07104908453146427,-0.11409465249273917,0.1733411155183169,0.23670240370751638,0.5712326118379304,-0.012725843909964151,-0.9470913730750414,0.08264309067378826,0.05728775031740374,0.013095364998687175,-0.020678130923468555,-0.01632841942345864,0.06744996411157382,-0.019491790995895403,2.5625
0.5659667287010323,0.29637926405231774,-0.15326630368425817,-1.2839770586980348,-0.17326402569273497,-0.30361050023999114,-0.45581338056027715,1.9191964121139058,-0.1494001053704758,-0.13517916041127193,0.04009867037706239,0.021483608781462386,-0.18588849555877623,-0.0023867978930816294,2.5703125
0.3774991798508298,0.23114146435795943,-0.1698389426439953,-0.887508384490849,-0.35915056373531645,-0.17999658423725276,0.14326899783215416,1.1345771142249508,-0.11659080716781983,-0.08825934245520278,0.033251787600927694,0.020267566152467654,-0.14362596374307024,0.006500922983847408,2.578125
-0.47766522573063686,-0.2289702455427516,0.08616900040705731,1.0675624207173846,-0.015120852358930358,0.2710257384080384,0.6838627847120167,-1.7205398465969737,0.11496291956434432,0.11571591482718785,-0.030314563647823384,-0.014376559608538448,0.1435568688305353,0.0060701020965258316,2.5859375
-0.4750717279479938,-0.20589044174912327,0.04209013589494091,1.0402616459513068,-0.17138963191085976,0.28394357399333847,0.9660905114269122,-1.8047092995476646,0.10322315873479436,0.11625432365437695,-0.02577098441848443,-0.0104143122218769,0.1299498206560633,0.011455932846500032,2.59375
0.43130485252459555,0.2974648048045284,-0.2609796472480957,-1.0478698824982926,-0.6492072310591094,-0.18363915897555871,0.6007718233565557,1.153476887920938,-0.1502257982539716,-0.09909226345846617,0.04478369548116663,0.02911070039584335,-0.18368692386003274,0.01585381467224467,2.6015625
0.656232261350234,0.3952121856129514,-0.2821057762156892,-1.540206313511629,-0.5736013596636726,-0.3175738585267609,0.15518579666193635,2.003153127486447,-0.19943831496450445,-0.15398533690344857,0.056921595818724434,0.03410760245033237,-0.24572231919813955,0.010248720577338305,2.609375
-0.14524212123058608,-0.09492480447192751,0.07600124375908525,0.3488559446215756,0.1727375589678416,0.06602180870987501,-0.11463133873126395,-0.4202307644689427,0.047374806416667165,0.03400980436696482,-0.014378702319001287,-0.00882519850071129,0.057809322346997566,-0.004772601367127995,2.6171875
-0.6063327323362856,-0.4407012194274272,0.4104962466185003,1.4967895519924284,1.0637962718238094,0.24410948922292539,-1.116532498284732,-1.5396801504163076,0.2217633974568057,0.13869776622291238,-0.0681368770695343,-0.044868823401537174,0.26978860831232543,-0.029283875651142776,2.625
-0.21296851273439288,-0.2820121234106628,0.39940508467472924,0.6480355562421826,1.2889054801023367,0.0012120842908146668,-2.0684966057589484,0.0019538970105175348,0.14218019540617738,0.04197995515105427,-0.04945493939441674,-0.03835607380825649,0.16866894136824823,-0.042257248945040356,2.6328125
0.05704095819663453,-0.005518695216937925,0.055378934852055424,-0.09483510484266269,0.23460813999716984,-0.054090807013447616,-0.5073941520368327,0.34119569121951704,0.002686373034296075,-0.015355280750230307,-0.0032455845121030454,-0.0041303666986197305,0.0012732435668936404,-0.009593755605548185,2.640625
-0.17300546006880488,0.07776745689567778,-0.29142503018214194,0.23342440144519747,-1.1661803024009092,0.20501282523448316,2.374257168916867,-1.3153993680419895,-0.0398953355931276,0.050723173818705794,0.020856446986491837,0.023328791622120364,-0.042418304588506886,0.041640046292429816,2.6484375
-0.14801419046837366,0.0590749918643012,-0.23476589707555423,0.20748170027754634,-0.9454065136739445,0.17081753537499206,1.9375217591797047,-1.0955006694205685,-0.030487168234166025,0.04308570207098771,0.016239368343863116,0.018676080235127058,-0.031797573062789436,0.03371118448789639,2.65625
0.2747963579416203,0.02383907460354013,0.1656785897323593,-0.5078713425633103,0.7776167458589222,-0.2266067236664664,-1.7963866449203958,1.4418967499111401,-0.012058068128032081,-0.0719203676914696,-0.0046825272051311245,-0.010811941932092395,-0.020129528578925894,-0.031180920384206376,2.6640625
0.3152879329762382,-0.05085377013664118,0.3474354053574494,-0.5084629887275375,1.456678994101118,-0.3123029568556307,-3.0966691569662808,1.991541573661683,0.025814234781257658,-0.08682666971542652,-0.020836309748774894,-0.026321064860524206,0.022455342657706778,-0.055082855669269556,2.671875
-0.1106926582653727,-0.0772179018911155,0.06833520002742668,0.27143186161455124,0.16683219685399972,0.04682218931773761,-0.15200942123136907,-0.2989497864581637,0.03860259842448142,0.025669913612820495,-0.012054500641647266,-0.0076160988477111105,0.04674069853248864,-0.0050643647776985835,2.6796875
-0.16844839881207582,0.04518229058786963,-0.22244095225630087,0.2570761118343576,-0.9153643339285477,0.17927096048229907,1.9101473012899983,-1.1496171736756249,-0.023301700759931297,0.04772655866331828,0.014208213525212838,0.017272707019261195,-0.023468988513712014,0.03290901128476529,2.6875
0.3204330855350598,0.20926874407441579,-0.17067453697103985,-0.7657089007948374,-0.3990676006050667,-0.144037907778188,0.2964689669572109,0.9057028602495446,-0.10558206184960513,-0.07417291132039731,0.03081075943268006,0.019536379628433048,-0.1295729736878562,0.008642957306965666,2.6953125
0.5455778579980932,0.2428045691346163,-0.06240205286698343,-1.1968750144972695,0.1409708081185782,-0.32086165514179715,-1.001792139269677,2.032206105652001,-0.12232749485896863,-0.13257058481440245,0.030112034584608604,0.013129553739499922,-0.15399634579593519,-0.012905805977170755,2.703125
0.13615390596402485,0.15454955900751358,-0.20445924767610962,-0.38774871566168784,-0.6458438629013388,-0.017420194949506848,0.9976865021806574,0.10002309652942078,-0.07835032233218976,-0.027825968632670672,0.026027609620235797,0.01996738297358904,-0.09397028805191858,0.019632350437903918,2.7109375
-0.31213839442128793,0.05066763510342117,-0.3456308387430564,0.5050836534978973,-1.454253717970325,0.30996844861041856,3.0912735931032773,-1.9839357239103694,-0.026370826779547767,0.0864408544173295,0.020101378547006814,0.026152751865736443,-0.02394126616807304,0.05341300916327813,2.71875
-0.3415861633890178,-0.06988770773869785,-0.12688748802704677,0.6722193262993978,-0.6875287931472817,0.2559219971777315,1.7278023794626372,-1.6329806669754177,0.03466256044361263,0.08779308718564369,-0.002936657868930725,0.006368629786061637,0.04714730362932998,0.027428416659425275,2.7265625
-0.23582170212658843,-0.23919302555094557,0.2952272389189458,0.6471466074457666,0.8991013705584832,0.050064949645465144,-1.3229562900915859,-0.3110934098874603,0.12039677987941598,0.050408712852644165,-0.040161641771397055,-0.029480253382162144,0.14400223369661186,-0.02855557680309245,2.734375
-0.28226432346609126,-0.33378768881629756,0.4488932644256622,0.8205296672739822,1.418387285082285,0.028452781368940423,-2.2107167974044493,-0.16878132644135138,0.16806043553579092,0.05777914315169116,-0.0575115462049209,-0.043704964528932126,0.20039382400318548,-0.04579911363640982,2.7421875
-0.2612086106334903,-0.20345900475219258,0.203806637261163,0.6587553628635868,0.5525846262832986,0.09639542253990328,-0.6526365309239087,-0.6088399681609967,0.1021588715874903,0.05917701962155174,-0.032258770564638495,-0.02172882459356134,0.12380836200665761,-0.016301264458670958,2.75
0.03931875518834105,0.04821462023165714,-0.06689045793433204,-0.11447945348544919,-0.21586741452266348,-0.00228421344096471,0.3454868207332981,0.00872648615630757,-0.02466675292764108,-0.00765416616184788,0.007985643005938068,0.006430641461298829,-0.029595318522560067,0.006131901905955032,2.7578125
0.3870561083246899,0.17025951079652196,-0.040467541816167005,-0.8470323277152932,0.11341688694952978,-0.2287615231244449,-0.733008999842224,1.4480758401729972,-0.08593300629582455,-0.09407138485479047,0.020846838493652296,0.008994166383096566,-0.10815328101856742,-0.009812612274665412,2.765625
0.46401958980175234,0.13762456916589166,0.0853460401888359,-0.9517551260980334,0.6162076660204241,-0.3185519163042837,-1.760504724181993,2.022353925201426,-0.06933952176318141,-0.11639900797727523,0.011806579109065251,-0.001033385130197817,-0.09062880290310858,-0.028124568065131444,2.7734375
0.2823978230932826,0.12480042201493566,-0.030395210388597934,-0.6176134692527446,0.07815782949966538,-0.16659807938447835,-0.5274033708830187,1.0531067936862502,-0.06298071258668955,-0.06853243979051947,0.01522728039937634,0.0066430690573942705,-0.07933634015351368,-0.00721837691822773,2.78125
0.020859117453596476,0.12104044240005579,-0.22686773047795344,-0.15064022396148222,-0.8029027137373329,0.06212814433245694,1.444530243884164,-0.4058488056754276,-0.06127162366834813,0.0011896424176323643,0.023061490248019352,0.020324372498358945,-0.07163854949221676,0.026528410748346668,2.7890625
-0.27220228814498054,-0.06300911903659624,-0.08621690160526425,0.5446619267920754,-0.4955286998342048,0.19920050597757938,1.2823715794983404,-1.2709136777384011,0.03139006301815128,0.06965780685457,-0.003990452987025079,0.0037638750430785597,0.04213315948666852,0.019835782798048453,2.796875
-0.5433377612960721,-0.3529418629768624,0.2838763462410296,1.3017435939398285,0.6496762398506255,0.24664184763742156,-0.4455829100893702,-1.5594047795073378,0.17743513752970985,0.12656828472663897,-0.0527998544602675,-0.03277385216028007,0.21716693761167422,-0.015917338746259474,2.8046875
-0.5002168399170238,-0.3608000573612909,0.33288059535409964,1.2316187567725094,0.8544939062078297,0.20336401743121726,-0.8802850129892846,-1.2832753066586364,0.1812938649189079,0.11460861956986483,-0.05570039349582993,-0.03651351377199305,0.2205556036741339,-0.023487205851904214,2.8125
0.06809465665967211,0.06415009932864008,-0.07673851601782711,-0.18220718627937466,-0.23252330866689255,-0.017172731848729146,0.3345169546103705,0.10285072043293748,-0.032815706442338374,-0.01451715030158452,0.010311079518921974,0.007685340279394083,-0.03994903418038753,0.006350144064568562,2.8203125
0.7505501162295981,0.5296032507067268,-0.47806280392771777,-1.8356627778555101,-1.2131675499441068,-0.3118927027588196,1.1982674032161564,1.9604658101816148,-0.2671577993846973,-0.17199990999014445,0.08057342337649631,0.052775664795148045,-0.326292867254936,0.030967964787834038,2.828125
0.8030157402955317,0.551543339451382,-0.480722728240976,-1.9487160185108399,-1.1876685731288366,-0.3438788220217553,1.07955509790507,2.163191919030185,-0.2781398447797943,-0.1848747496014018,0.08319883191644643,0.053768590702686046,-0.3401019277580809,0.029369895256319476,2.8359375
0.14873300258138217,0.14319683713520537,-0.17167821866027622,-0.3989596613369836,-0.5189735934082252,-0.03630708257211121,0.7495437686591567,0.2203881446435997,-0.07252899016886062,-0.03187007539366775,0.023366324203356256,0.01725271114660511,-0.08755345641959054,0.015084478193616588,2.84375
-0.43727471526852263,-0.2436694448835721,0.14729271812117464,1.0091479381594708,0.23208008303758781,0.22524684707291492,0.1761114470043917,-1.4293914807180585,0.12239390108422905,0.1040649693046354,-0.03445822622840385,-0.01919620236138698,0.15107495172916002,-0.0029386340366413586,2.8515625
-0.4228579344027809,-0.30382019260393234,0.27921671623736866,1.0414503756643692,0.7158773168492976,0.17265124206245455,-0.7296493082730259,-1.0902355581941923,0.1529313853154245,0.09700985376005782,-0.04696383084011369,-0.03066750592099846,0.18607661011020182,-0.019774536386226022,2.859375
-0.1986695751251087,-0.18917249016240884,0.22408686942649553,0.5347782637006883,0.6683970180309058,0.05058491077349072,-0.9501301231111052,-0.31637804427712796,0.0951984670991241,0.04324542865265679,-0.031514954515131414,-0.022642471367591344,0.11432092305615234,-0.0211292317167276,2.8671875
-0.25582976396041973,-0.1628192488988168,0.12652014384001556,0.6105743180497027,0.27870865554521357,0.11874283243740334,-0.1584945868559489,-0.7523931463892375,0.08163828154592326,0.05995494371232607,-0.02437355196306591,-0.014816858586273005,0.10003363158393505,-0.006963459254790081,2.875
-0.3451322247827142,-0.18008316376730202,0.09141362984875295,0.7851038765373322,0.09250661899996111,0.1862250339395535,0.3048593047856446,-1.18235706891256,0.09024538580631059,0.08288720340583007,-0.024871632177333684,-0.012975575263806275,0.11198332029724609,0.000625638757623862,2.8828125
-0.06023298227691215,-0.06241610401781407,0.07752036649799345,0.16782577999178044,0.23522577028750086,0.012229463729334113,-0.34674885838218844,-0.07808528805493599,0.031259736764588215,0.013000322630375703,-0.010792399009883415,-0.007758942887442351,0.0371506084109758,-0.008080168655963725,2.890625
0.3217749742120285,0.09614565889408912,0.057272637634516024,-0.6606378028841824,0.41986699870090827,-0.22034424282553094,-1.2079584816696833,1.3981231079181649,-0.04842022477763807,-0.08061442411872843,0.008262002437142639,-0.0006005493449589046,-0.06368496239052336,-0.019507484521458052,2.8984375
0.30927890412196984,0.07458359379628586,0.0909073661930865,-0.6176907366896806,0.5311828353337995,-0.22350111432700837,-1.394114334628675,1.418988949085162,-0.037712982573168914,-0.07839783443565519,0.004393030640281676,-0.0037219996819152653,-0.05079142445966883,-0.02315795463372863,2.90625
0.08886746234537574,-0.01397791694153534,0.09715026168839155,-0.1420981220548408,0.4044085545858233,-0.08750311863238987,-0.8597867145840024,0.5548136790483916,0.006719851269525321,-0.02424292242401194,-0.006020816974727942,-0.007342354688523033,0.005743846932374717,-0.015864269828072184,2.9140625
0.1893253413827416,0.14313966332321315,-0.13953358022977963,-0.47061118774875293,-0.37700021953764906,-0.07232831731669337,0.4335430596536186,0.4500340748969011,-0.07245014782689232,-0.04272836775441233,0.021968879387569366,0.0149898356542252,-0.088288836032428,0.009671617760920983,2.921875
0.4983091302363148,0.4506216551563858,-0.516047795582609,-1.3132426710515697,-1.5192788857756923,-0.14143529255845938,2.102810047209195,0.8766786886084662,-0.22742658174702315,-0.10883440339970278,0.07309347552023447,0.05259184371075915,-0.27479295153122246,0.044855626276820965,2.9296875
0.3735532636836119,0.41397250416243614,-0.5404616282929613,-1.0578068468135302,-1.6902712003392064,-0.055128547725915814,2.5875228013923754,0.3285458027984296,-0.20911567820351273,-0.0773886642007334,0.06990706520934555,0.05298798253361624,-0.2507776854489911,0.052406106891803854,2.9375
-0.2831567616769566,-0.09547498968545388,-0.03026639313406656,0.593657159569267,-0.3011644082994182,0.1875345282630526,0.9420987751900031,-1.1951238454589106,0.04759309460192443,0.07085540964134986,-0.010027798249230656,-0.001331143974232542,0.06116595939894406,0.013362607611593592,2.9453125
-0.7455385365145315,-0.5273046268914212,0.47623560756171684,1.82689275720485,1.205300208758816,0.3095874644498718,-1.1852305162090604,-1.9534406273140141,0.2653955668136358,0.17124944566272288,-0.08088697389518873,-0.05260126596050103,0.3236093446452064,-0.03231074775643954,2.953125
-0.48482949506184614,-0.3972333861927572,0.4186801708310816,1.240612317198397,1.1739723495977812,0.16533941190941537,-1.4848425463448696,-1.0393065077943993,0.19995167627138632,0.10851623732243619,-0.06352837997600795,-0.04386220065655843,0.2420157760365496,-0.03470704325493471,2.9609375
0.04711300594111945,0.000768549350355255,0.034433505434901465,-0.083105461572036,0.15277152212689796,-0.040653086023570505,-0.341612668658882,0.25630982454402734,-0.0007019703058840323,-0.012291977797188396,-0.001688796261797892,-0.002428290417070735,-0.002091651406589836,-0.006657720470450907,2.96875
0.10529191827190369,0.06527245015691975,-0.049910390030212005,-0.24805152997373442,-0.11067557546056675,-0.04918680297743815,0.06147219931633178,0.3078485252405296,-0.03324481736580893,-0.024364858315797173,0.00926112442304454,0.005840753459792447,-0.04113513692084253,0.0016306453548728785,2.9765625
-0.19200966640892572,-0.14108657978510236,0.1326123311839711,0.4764443581895203,0.34425335515664124,0.07653466378035156,-0.3656623007952828,-0.4847553588520935,0.07084213466075341,0.04400344076834965,-0.022088188508036087,-0.014480584416860131,0.08581520511790262,-0.010072031732290869,2.984375
-0.08387727644466655,-0.026691968393335798,-0.012173258097881353,0.17585643961694108,-0.10336234830651476,0.05663705642516241,0.30584282249237726,-0.36388667108679934,0.013208978418550303,0.021214777484989594,-0.002864640011585367,-0.00015379807565193716,0.016695401131637946,0.003865839244478931,2.9921875
0.47987988901491374,0.4084745717335463,-0.4457426289751334,-1.2390025452305111,-1.2807583432894374,-0.15295939630067756,1.6913288277357172,0.9522394438012226,-0.20618036487656102,-0.1061001443820956,0.06529274285506394,0.04613026634319631,-0.24962690478643831,0.03685733203866673,3.0
0.6252055636624961,0.4319472692787758,-0.37991661413539535,-1.5188332598701106,-0.9461644913816623,-0.26565178775894793,0.8801173852615863,1.670378734350457,-0.21794679651298954,-0.1436480982440526,0.06518738754955478,0.04236673361164911,-0.2663791919215993,0.023434423718174446,3.0078125
0.06225248047644928,-0.10915114466039696,0.2666349039915909,-0.003841298917166514,0.9966857144320604,-0.12695270721268456,-1.9081749309453713,0.8117927682214026,0.05495757528720109,-0.02221935490730001,-0.02411579670743401,-0.022734057563057204,0.06198232582114873,-0.03588574705256161,3.015625
-0.26443719988222436,-0.3342584622335215,0.46392037812709375,0.7900977152156735,1.4849788755065954,0.012292553239084212,-2.3562625397625503,-0.0658876168567739,0.16842511393260567,0.0529739393684331,-0.05824049535275632,-0.04478411747059943,0.20054233430051113,-0.048342369790188564,3.0234375
0.1701226896638288,0.1421105771683525,-0.15258243374304656,-0.43590245578831194,-0.4362759237378516,-0.055991419655856585,0.567546986443243,0.34656782677839854,-0.07189217027230226,-0.03764065497166993,0.022361904881096087,0.01586468050137891,-0.08725875289800442,0.01195480761585108,3.03125
0.34869839214670967,0.35147437177290614,-0.4333966761450607,-0.9529349373120289,-1.324343564421396,-0.07485945773899516,1.9505390134061253,0.45705752593726234,-0.17757636943717947,-0.07410501065627177,0.05820145024221988,0.04323009864195461,-0.21353222345543135,0.04014497870675253,3.0390625
-0.48846665442606846,-0.3386132265696582,0.298086034803333,1.1902856541831004,0.7382192360204831,0.20762100826320787,-0.6806043516923056,-1.3113050575459255,0.17024005163496997,0.11267294350317626,-0.05173834024604913,-0.033245926022303036,0.2076651625927907,-0.019646499914124926,3.046875
-1.1540576126782478,-0.8825240626909092,0.8701054534376613,2.889784332346163,2.343492685902434,0.4352856492329686,-2.7106065019598757,-2.7372459732327385,0.44436276675285363,0.2613952013441664,-0.13818076503914503,-0.09322234393803788,0.539720404974016,-0.06601958561700745,3.0546875
-0.3787526755964029,-0.26717010486204135,0.2398997467913592,0.9272901737747069,0.602948587842599,0.15806291135862718,-0.5849878130358676,-0.9985378529785353,0.13418756549631813,0.0871545761075791,-0.04103938980779733,-0.02659514459114558,0.16337898806507758,-0.016476710800333524,3.0625
0.796002261605153,0.6315995103071843,-0.6473722756845105,-2.0140531143439615,-1.7907272770662304,-0.2843191177980678,2.191972922165059,1.7799803189666095,-0.3186879203739811,-0.1786433373310147,0.09940686633941673,0.06839007117475583,-0.3870199096383554,0.05023877070794815,3.0703125
0.6381623833213911,0.5159526688908193,-0.5384470712852499,-1.6236368638465402,-1.5050740639078,-0.22152686435902452,1.8861712050658954,1.3847903985515508,-0.26029544102946717,-0.1426555717532735,0.08153226631045973,0.05652247210993394,-0.3159052513251837,0.042515414542544254,3.078125
-0.3129519385431329,-0.1512073893732912,0.05834825443631023,0.7002233056236984,-0.0028861102124378684,0.17681717006429434,0.4363036275232437,-1.124237629696788,0.07584769277744785,0.0758043082455804,-0.02014292040650427,-0.009627793161443451,0.09445029819158623,0.0034817669019459744,3.0859375
-0.32123121323167214,-0.16788617151064456,0.08531039181380513,0.7314824190174479,0.08793052186851034,0.17317007884430735,0.2804741301406292,-1.1001612294079484,0.08418828788976158,0.07714859893099399,-0.023205921601482743,-0.01208720813802203,0.10443209450994226,0.0004655862697639051,3.09375
0.4555520194785923,0.2802898484581061,-0.20778755873257326,-1.073027212818869,-0.44130987789140425,-0.21636750319535913,0.1876063719417207,1.3629709621059563,-0.14145641935725184,-0.1064597515634277,0.04052940242870971,0.024788135250972843,-0.17392399347500512,0.008353094956103018,3.1015625
0.526594928303454,0.2736263615733475,-0.13849292211974368,-1.1925044903735393,-0.14452765451601096,-0.2838435075325655,-0.4517334699267043,1.793380113760366,-0.13792066271127187,-0.12585728318939648,0.036840166318954516,0.019641956368083212,-0.17139568670795183,-0.0027995885858580496,3.109375
-0.1045864847130247,-0.06130842234122661,0.04119936722463088,0.24561898227630485,0.07539602716342532,0.051985972824658215,0.008785553732143682,-0.3327293574438129,0.030667232096898856,0.02489227808639682,-0.009136198198852558,-0.005150556764751139,0.03764886266460018,-0.001987344542454139,3.1171875
-0.22610889414069751,-0.0640957780143171,-0.04853710820894222,0.46298624937571686,-0.32919566236041303,0.1578001777615338,0.9143931664046092,-1.006978452652269,0.03186953905544887,0.05727937052927595,-0.005656436535303417,0.0010857123921002413,0.041504323147596646,0.013537304821506816,3.125
0.1977704913983413,0.10646002459226639,-0.060074764714306894,-0.45109567727965905,-0.08606755480686658,-0.10383211973323196,-0.11168768430371852,0.6542064652476828,-0.053881112579850295,-0.046881715290882434,0.014416033285111216,0.008082938376661354,-0.06731084143188182,-0.0004619937521837246,3.1328125
0.23554006545503858,0.0031488360642219462,0.17743513610753128,-0.41867905307096637,0.7913239371912737,-0.2060558484098073,-1.769880296504163,1.310950061525325,-0.0016198795557972542,-0.06259850015447464,-0.0074164536622545124,-0.012402483996991433,-0.007551012939432977,-0.03115229970720252,3.140625
-0.14946046829911164,-0.17504682155431905,0.2347893750326024,0.43399361295242794,0.7380974583866476,0.016114475101779425,-1.1451722278970073,-0.0981546050686779,0.08793959839561055,0.030738057822440733,-0.03026154008323255,-0.022909057483094422,0.10484904568844938,-0.024206460699570647,3.1484375
-0.36973422582888543,-0.2066985597603897,0.12560968008489531,0.8542663250428586,0.19843609192152128,0.19026277688609694,0.14425841724512056,-1.20727178356999,0.10361494183821561,0.08800665822297826,-0.029299948948837296,-0.016355728412373663,0.12788753173754489,-0.0027017878549495714,3.15625
-0.48124806050172353,-0.35629983559509526,0.33835085735994996,1.1950528582203537,0.8869928844396183,0.18981040489246043,-0.9653008029940707,-1.1965228435839155,0.17914838692451562,0.10984721072397387,-0.055440243959340336,-0.036741156307995626,0.21767763724847394,-0.024897425681412417,3.1640625
-0.6484279547597415,-0.5559000290273087,0.6089922600039251,1.6824861477329522,1.7454686188619544,0.2049841292258972,-2.309450810802356,-1.2835601790643096,0.27993860807702126,0.14378960244679118,-0.08976196754427478,-0.06303514003647952,0.33806470886705087,-0.05221648419437338,3.171875
-0.3960452372925834,-0.2594060110176504,0.2112905252634165,0.951284275646889,0.4884756094795443,0.17835991307937987,-0.35141296034061986,-1.1284818809078108,0.13039529821480836,0.09218979578153244,-0.039026246707960975,-0.024307111868993515,0.15947270838487992,-0.012329344053113605,3.1796875
0.39252809869186095,0.4255793636677511,-0.5484837338405015,-1.1020956839757319,-1.7059668297796173,-0.06434758694717362,2.5908179705121435,0.38636704462075006,-0.214905898883519,-0.08184555931683356,0.07154203917919943,0.05399411068712981,-0.257751811487742,0.05271056936993308,3.1875
