AF3,AF4,F3,F4,F7,F8,FC5,FC6,O1,O2,P7,P8,T7,T8,time
-0.3250177480759621,0.1307102684011689,-0.2430102911037931,0.6634933090250182,-0.037024781879515474,0.06063828156132683,-0.013419648117259582,-1.3525927826934248,-0.017729412132348743,-0.022163124014497094,-0.03713413800552633,0.021243240880762602,1.2487220853724648,-0.07711474677512747,0.0
-0.29711052513352915,0.11942511764390457,-0.2229751667886591,0.6084208461927318,-0.034075086640044154,0.0554440007975109,-0.012421657682352415,-1.2383592401252925,-0.016229514408477894,-0.020179579524129715,-0.03394318359318663,0.019453878869163384,1.1424365161289107,-0.07048434080952144,0.0078125
-0.016642874225160066,0.0071170696537071615,-0.012466635254593126,0.03488670921650536,-0.003393952636217915,0.0018731859520393472,-0.0016234869270779439,-0.07007955030654126,-0.0004861435326323435,0.00028650728457338555,-0.0018368692730507128,0.0006783230799427734,0.06420511301161412,-0.0031751659833349015,0.015625
-0.06930990570507711,0.028322121837119643,-0.05143622196933333,0.1418421793369862,-0.009100488968857295,0.011809101681493425,-0.0035856729733735296,-0.2889643502309584,-0.0034069872584847486,-0.003535146077431998,-0.007931418478293031,0.004143842506368,0.26610144181009737,-0.015774476737441204,0.0234375
-0.2036100609558893,0.08212569277728922,-0.15154157708733976,0.4151142281107002,-0.023710643676952452,0.03736718703580157,-0.008704433228126193,-0.8468571557227885,-0.010901133362377526,-0.01329377425991257,-0.023308612256383525,0.013083980769218101,0.7817976171038996,-0.047989429490508884,0.03125
0.01879381175429805,-0.00702263565521146,0.0157863190614316,-0.04135924128908467,0.0006823134525014083,-0.005083555619558917,-0.00015132095795187444,0.08179241556977349,0.0016161078701116588,0.0029779753000019732,0.0022720957991103565,-0.0018056030607907175,-0.07364122067705951,0.0053687214942273334,0.0390625
0.07707674551550577,-0.030333629900989582,0.058836716749826996,-0.1594254103725259,0.006986125711138935,-0.01612035392203594,0.0020347767620324405,0.3231509759491949,0.004843718332531058,0.007187537359905434,0.008969486994147697,-0.005654426981225482,-0.296802472116332,0.019347104147311615,0.046875
-0.6203826623441855,0.2491790576671463,-0.4662849534309014,1.2717697239620027,-0.06951173963379276,0.11713959547090444,-0.024870081425640074,-2.5883712354768047,-0.034434213801268286,-0.04384648118053754,-0.07109055354340076,0.041104301911420345,2.3871167243106513,-0.14801300955025012,0.0546875
-1.2820696589787985,0.5143017577645188,-0.9634931910098496,2.627666291321159,-0.14197230599816218,0.24345562748317004,-0.050328776626273684,-5.347920526766069,-0.07163183218041747,-0.09219330246282001,-0.1470254808076862,0.08539767689758035,4.932190312879132,-0.30676387313774206,0.0625
-0.735244331323467,0.29520817765871366,-0.5512170240765115,1.504506773821338,-0.08193507525337286,0.13888196022166535,-0.02918320729877393,-3.063784305205273,-0.04079198487664721,-0.05214331989037905,-0.08425910898633288,0.04868224472308894,2.8269631444746253,-0.17548144729916496,0.0703125
0.566731006653805,-0.2264039088156042,0.4284153109771293,-1.1659173710354178,0.060779139966947615,-0.10986427747154641,0.021022402364653348,2.3692659681661277,0.03249792499390575,0.04307362359744811,0.06515141040907428,-0.038588107117665985,-2.1830237134361647,0.13700121074358512,0.078125
1.1579572158972509,-0.4632630230941076,0.872392153665153,-2.3768051335012106,0.12548230234941568,-0.22271265546462432,0.04375795007626015,4.833993861292001,0.06571449878958321,0.08624987275538532,0.1329827609841762,-0.0781519977511926,-4.45692837302448,0.27885626395898305,0.0859375
0.7809194054140493,-0.31224278100035197,0.5877875240487062,-1.6014596199782207,0.08405301278287813,-0.15055058604688076,0.029146921603442132,3.258153809633453,0.04441665039444243,0.058612560265463964,0.08969751097328514,-0.052804816254473565,-3.0045938303466846,0.18829888523103985,0.09375
0.37028945997048496,-0.14778779787917054,0.2787192826502343,-0.7587095088242434,0.03904098775119179,-0.07206684997953994,0.013297977289956653,1.544320616675266,0.021284114213608814,0.02857497650612038,0.04256009280245649,-0.02526330630001759,-1.4238451222779036,0.08970019301085837,0.1015625
0.27089497901537263,-0.10801559552354816,0.20469846441409753,-0.5561835263943435,0.028238735800322677,-0.05317005481630966,0.009519784913477812,1.1315278755774347,0.015739142221059866,0.021358432304632562,0.031147836460759384,-0.01865127908616808,-1.0421156569945964,0.0658490738371284,0.109375
0.13289252293535345,-0.05274736345536511,0.1015764994577486,-0.27463498208333675,0.013188750825533103,-0.026901773036877442,0.004252561197358183,0.5574940305060686,0.008022727302974828,0.011314911158727495,0.01532104098778652,-0.009453198107634307,-0.5121135281154603,0.03275794795922458,0.1171875
0.07969902927016542,-0.03140353882718684,0.06128246489693891,-0.16528312255664343,0.0073173072822531535,-0.016710466943076163,0.0021830072246273612,0.33477401746736773,0.005011785345302349,0.007405993162716843,0.009233931859025966,-0.005874081737530641,-0.3071541998285207,0.020009566597599705,0.125
0.3318740922293389,-0.13237731851946352,0.25013816439527903,-0.68102641345651,0.034848197398479726,-0.0647794129647514,0.011843170345296361,1.3847381740013127,0.019146358304720376,0.02578944273499278,0.03818515670681888,-0.0227211976846708,-1.2762046453526366,0.08053905586850095,0.1328125
0.23727868409916408,-0.09450115325032421,0.17883596092289153,-0.4867585934290023,0.02446036405516187,-0.046682912864071474,0.008184024191596882,0.9898157595245755,0.013814502330565347,0.01887016766857184,0.02734294621866756,-0.016370467364590146,-0.9119755223154966,0.057847941935574534,0.140625
-0.7258569398741886,0.2912491633986621,-0.5447733069516674,1.4867734366659129,-0.08098513719437038,0.137213569506037,-0.028883859681967227,-3.02608383066114,-0.040320853146187496,-0.05148463699752419,-0.08316385223477714,0.04812358919956762,2.7922423777639334,-0.17329657480858945,0.1484375
-1.6250110236060173,0.6514191248931984,-1.2203402785933912,3.329079554686977,-0.17942493115816727,0.3088907505659936,-0.06348858418859735,-6.77528883700167,-0.09085669443329014,-0.11717542723940874,-0.18633720018845812,0.10833203913651636,6.250004621740475,-0.3890992239779937,0.15625
-1.2895743194088716,0.5171197466560876,-0.9683511687764069,2.6415839021053875,-0.14270035647491866,0.2448418794393676,-0.05057755969216367,-5.376588015557786,-0.07199459224627636,-0.09267970101926025,-0.1478548672475546,0.0858679579977256,4.9592934317110515,-0.3086034166779004,0.1640625
-0.15058865976967473,0.060948172645207806,-0.11259272179291227,0.3076899368507732,-0.01799748784099551,0.02736926441352745,-0.006740170856898418,-0.6272028521316333,-0.007968183394746088,-0.009476680859082109,-0.0171709142505776,0.009595730268235497,0.5783180816636879,-0.035250165336774074,0.171875
0.5487205325211512,-0.21913196782947233,0.41303360758930713,-1.125557485032597,0.05859394044764086,-0.10618348144422263,0.02019001714853081,2.289284909741457,0.03135415112627516,0.041618552145452334,0.06306027365742602,-0.0372464656096315,-2.1116816209135942,0.13258488541158667,0.1796875
0.6323296560398384,-0.2525980705612039,0.4765005272731947,-1.2982143718778607,0.06782997634644797,-0.12225994329146943,0.023463243714232244,2.6395188428448653,0.03610352168265726,0.04776131845081224,0.0726371950822923,-0.042893415161073284,-2.4342708164221096,0.15266098530912642,0.1875
0.7391327501944063,-0.2953959688157238,0.5574966855183817,-1.5185699192476467,0.0796189833147754,-0.14278825852560145,0.02764097499865695,3.0867441971970457,0.042163206827392295,0.05561609672573689,0.08487842982602253,-0.05010307923900757,-2.8458446022603816,0.1783115098583807,0.1953125
0.8880929544647167,-0.3551440753485904,0.66940400796023,-1.823398293289887,0.09593491243465316,-0.17122112013172638,0.03337372503733536,3.707813021634136,0.05052616962108441,0.0665172231084312,0.10197390738635971,-0.06007398423897603,-3.417794536948571,0.21405856609802348,0.203125
0.5979178969117951,-0.2389832119969526,0.4504279649293905,-1.2264887724692417,0.06405460394064945,-0.11562689529276017,0.022121028780285337,2.495363443012238,0.03413646122260853,0.045276606964237784,0.06869265282510455,-0.04056171654492887,-2.299502435533272,0.14437276188134232,0.2109375
-0.024870119785713993,0.010479788375641324,-0.018370552961825163,0.05125258436705063,-0.004253193576978289,0.0034610785486143165,-0.0019267477266132246,-0.10384884856133234,-0.0009294083245523934,-0.0002748772092037666,-0.002762001806234007,0.00121604584192734,0.09700828869984367,-0.0051431886194951,0.21875
-0.408967114006722,0.1643411674090401,-0.3068233882629707,0.8376706786907788,-0.046324787540199135,0.07678732626439451,-0.016703750537469857,-1.705330589507738,-0.022506961707431366,-0.028340416125157617,-0.04683907114738274,0.026927097683293034,1.5734761816728329,-0.09732293765736096,0.2265625
-0.43976821212260425,0.17664190610438305,-0.32921098622829786,0.8994462427848573,-0.04962463062846773,0.08253557463821166,-0.01783265494718561,-1.832153908434959,-0.024202788516254244,-0.030559789550690514,-0.05037371151730087,0.02892822502558169,1.6905731381412679,-0.1046676664486864,0.234375
-0.4313476172773329,0.17326329080842784,-0.3225097824803746,0.8819448293247605,-0.048639899835530055,0.08085026533171608,-0.01747989572490472,-1.796228591089108,-0.02372370993279475,-0.029929739388280075,-0.04940245343699517,0.028331772022175235,1.657790614098043,-0.10261148174319737,0.2421875
-0.4225414924838792,0.169809297100176,-0.31617567256785195,0.8645421209263193,-0.047682468870988266,0.07920452437355308,-0.017161228467661136,-1.7599630669978252,-0.023241127125985524,-0.029300311221092334,-0.04839233938647195,0.02776322816456677,1.624450233162342,-0.1005027631724611,0.25
-0.18459850544929501,0.07455323923935657,-0.13786170876019263,0.3775050792617505,-0.0216776092639718,0.03384268125469522,-0.008039783859973913,-0.7684107428035484,-0.00987610181444277,-0.011938652181102351,-0.02108579627817412,0.011867346175126345,0.7099481290896866,-0.04341022866384647,0.2578125
0.19925394801250088,-0.0792305061844065,0.15029772035091143,-0.40895450653696996,0.02032379474352686,-0.03943396059033021,0.00671444436720078,0.8319905009615541,0.011685633464760488,0.0160848882690742,0.022987594373541666,-0.013821687393191309,-0.7661262065922788,0.04873023018282972,0.265625
0.3476830322890038,-0.13869916407375452,0.2618808208908216,-0.7135333710395056,0.036598395863391704,-0.06783762007859233,0.012443247268961122,1.4510711135337497,0.020020323267947834,0.026920180377391793,0.04005301493083708,-0.02378148684476739,-1.337325060087032,0.08439211847343156,0.2734375
0.15744087951134964,-0.06243589019742786,0.11933479994210841,-0.3247194724698174,0.01582363101348659,-0.03160383302269312,0.005170361863787522,0.6584809261628403,0.009358999702260458,0.013047028892362837,0.018216227334376344,-0.011087671766030724,-0.6064479043515647,0.0387546609682809,0.28125
-0.08017513406702494,0.03277013049531168,-0.05869441735477249,0.1613457702576379,-0.01015380202072282,0.013735608718022064,-0.003933406122693967,-0.3312496744736194,-0.003939146785099064,-0.004261594511310541,-0.00909869043713056,0.00478990963318233,0.3067360584279873,-0.018295162688042366,0.2890625
-0.13666095748901735,0.0553186555894933,-0.10110449097109496,0.27756820356724177,-0.016363534732317688,0.024595126680065273,-0.006123057727920976,-0.5665981597479843,-0.007099813010219443,-0.008370189681267333,-0.015618452099063315,0.008591163297715988,0.5240544916098885,-0.031900662538472596,0.296875
-0.0654197154476339,0.026711119793858495,-0.04826066333134466,0.13315687065171194,-0.008651503321371866,0.011112983297286395,-0.003445007322160573,-0.27116826036986513,-0.003148414046133703,-0.0032110558120874715,-0.0074447825850982065,0.003886095789647213,0.2508399457999675,-0.01485155553165627,0.3046875
0.03117637185908789,-0.011950864780139573,0.02365043140035652,-0.06387317552824544,0.001855050075966494,-0.0072760312525278256,0.0002318462432754468,0.12973122463932474,0.0022301486655118465,0.0037934545084886214,0.0036454964310668157,-0.0025343978613773907,-0.12007677036327778,0.008294606885928882,0.3125
0.12388874340016391,-0.04904312383122201,0.09357947936868533,-0.25472701850456797,0.012042725813182964,-0.025034535961094746,0.0038295284329643363,0.5167309869624298,0.0074601006086975705,0.010581086548643766,0.014281751269162373,-0.008764478899367533,-0.4769789026685225,0.03053334058400224,0.3203125
0.14474829206509318,-0.05744511993799931,0.11023097855976674,-0.29904689074654434,0.014439733851027257,-0.029113528846379706,0.004694317792857321,0.6061835495378457,0.00869195853393966,0.012172281536095753,0.01669272963745151,-0.010225328013933664,-0.5580484666478374,0.03557394309954322,0.328125
0.0559343597727231,-0.021939720570214,0.043985720484865924,-0.11738945334659308,0.004771130232324894,-0.012186475362764203,0.0012966691924029084,0.2372311163883856,0.0037184402096432333,0.005718738841264061,0.006541695438940281,-0.004309426789662161,-0.21669446306679885,0.014327689355470206,0.3359375
-0.012956654828316793,0.005687910411629669,-0.008381420206918169,0.02506815881020277,-0.0028400891919596245,0.0010249022372186918,-0.0013959266861764618,-0.051559824317075266,-0.00020010842362430594,0.000643045692420943,-0.001349928103136045,0.0003364249082154783,0.04909143471450272,-0.0021663915451388804,0.34375
0.04467710535845404,-0.01728230764572647,0.03401966867215447,-0.0916934689273263,0.003373832713740911,-0.00991452707294737,0.0007716197586497348,0.18635672612976537,0.002985023812944616,0.004782629002277001,0.00522577806597723,-0.0034729143499069802,-0.17153525759688923,0.011634982314308276,0.3515625
0.09748203011584482,-0.03836633345150203,0.07363405733281285,-0.20011657409525263,0.009162685701524126,-0.020018217291188585,0.0028051254543575237,0.40639293991514197,0.0059523299445086155,0.008622355706573326,0.011242701582699448,-0.007007692260016446,-0.3745433261136475,0.02425724220317911,0.359375
0.0032523382177548233,-0.0006587486968505039,0.0036608656054634477,-0.00859407667320328,-0.0010511027025715872,-0.0021304146291302945,-0.0007682595703781767,0.015728459621923613,0.000704684326276442,0.001788291621150947,0.000432300244495144,-0.0007516736377237051,-0.013128537352960722,0.0016470071249579262,0.3671875
-0.1312634912097846,0.053155832516166485,-0.09676646297033549,0.2659135106882756,-0.015714136002447494,0.023479264308651892,-0.005903992526973823,-0.543429039872361,-0.006819354353651508,-0.007988781856630243,-0.014969897009723912,0.008210442260775119,0.5032775844069196,-0.030585661185089152,0.375
-0.15528119984613786,0.06276638194406776,-0.11518402725206313,0.31578593213771816,-0.01840224659177085,0.028118752041275695,-0.006853729447711782,-0.6445594076436791,-0.00819226188502449,-0.009757826028102979,-0.017703867121005,0.00983983776105417,0.5959356523336067,-0.03632520020711307,0.3828125
-0.11741626500880187,0.04763533052763872,-0.08762543636784327,0.23991046469226085,-0.014363706188705316,0.021016689126038976,-0.00546011453172175,-0.4890616246963258,-0.0061200196729138704,-0.007045886509052788,-0.01335901757381509,0.0073666486548123085,0.45157019280157196,-0.027257746832566987,0.390625
-0.10791739710630878,0.043838075985408655,-0.08071529380729758,0.221143062642998,-0.013344177579274407,0.019249381068040788,-0.0051134636992383785,-0.4501315120461764,-0.005601621286356482,-0.006365368556738712,-0.012275506553801462,0.006753081288470285,0.41570379942151575,-0.024993965813833313,0.3984375
-0.0971198197485476,0.03947098751038476,-0.07190065692760393,0.19788475297752783,-0.01208002133489557,0.017108630636830897,-0.004647479002274222,-0.40336762068931636,-0.004945587988150022,-0.005526736662773479,-0.011039686027059056,0.005987371224415369,0.3733933919283217,-0.02239555558696005,0.40625
-0.05194506598541065,0.021341619580522747,-0.03734576037211453,0.10391065210370512,-0.007070302501546991,0.008412430200305522,-0.0028613964991856234,-0.21342791322999713,-0.0023553920553680287,-0.002180215576426129,-0.005852856118133397,0.002921653434869487,0.1985711998539037,-0.011558148434879555,0.4140625
0.005721031638757295,-0.0017562824314154362,0.005654829200506692,-0.014099470246954649,-0.0007985549826370955,-0.0025501371448232186,-0.0006641434672075948,0.026366237446942026,0.0008748455889463622,0.002017308887532066,0.0007764319064101991,-0.0009178124130183816,-0.023127432222615055,0.0022575710465453655,0.421875
0.06671786347956896,-0.026209086329980973,0.050686591571491836,-0.1376917661151167,0.005789326078804167,-0.014104002491984272,0.001624153027258585,0.2790656591724721,0.004253107816118847,0.006423819910116524,0.007784909110897723,-0.004948873471523458,-0.25695161913924913,0.016888593321474327,0.4296875
0.08752035848834153,-0.03461312043540926,0.06609262520665245,-0.17954862555356965,0.00803935335920749,-0.01807187149101729,0.0024068975960644975,0.3655836524026216,0.005404411115842999,0.007922348891159958,0.010156218802326731,-0.006326769166652719,-0.3371042170343883,0.021893239365390876,0.4375
0.03204926502054494,-0.012441838105454725,0.02500718780974148,-0.06665288461643759,0.0020316384255467863,-0.007567659680271225,0.0003132682299154747,0.13575186289020313,0.0023216441461633317,0.003893474171320166,0.003756546492681474,-0.0026475534853302543,-0.12492932211825855,0.008573901300656734,0.4453125
0.08084772006475972,-0.03192824484149426,0.06238442501470557,-0.16798154416693134,0.007470262370117649,-0.016963356741961005,0.0022428353867920757,0.3406657888963534,0.0051073878135591885,0.007495327501854716,0.009338647643964013,-0.005957361416968352,-0.31320036923376326,0.020257646918740584,0.453125
0.4137395113626366,-0.1651249623463598,0.3126208723125841,-0.8505236828075167,0.04395876003755552,-0.08052964835778714,0.015070532315344866,1.7286482702704054,0.023823648378895102,0.03182987447943813,0.0475485819587828,-0.028262168606739788,-1.5925988160070463,0.10014623892869548,0.4609375
0.6779269967680699,-0.2708177370681448,0.510584321095842,-1.3909867979375272,0.07283205945730385,-0.13091517709837888,0.02521002032560383,2.8286120223697737,0.03863746596065129,0.05110571318687308,0.0778732514693347,-0.04593197347027843,-2.607233639122951,0.1635760368161937,0.46875
0.2957348517021503,-0.1176935477627518,0.22277380178509346,-0.6066294178955336,0.030891246716851617,-0.05787106171494314,0.010450305434459023,1.2331894682743227,0.01710811509073293,0.023131193938337836,0.034006747422596,-0.020297780125695133,-1.136768480632871,0.0718581698922376,0.4765625
-0.5383551392121146,0.21634349247417886,-0.4040789570825333,1.1028014174694283,-0.06047022165632524,0.10140635460006633,-0.021680941973805493,-2.2450126697176116,-0.029794766522876874,-0.03783939651593609,-0.06171252609067017,0.03558285048742418,2.0706357612625905,-0.12834405250630107,0.484375
-0.9238748509650949,0.37067551601694076,-0.6932840233905447,1.891863397460456,-0.10262658887547285,0.17495896738118702,-0.03649309175210593,-3.8510735001239556,-0.051435974829075075,-0.06597727941101687,-0.10593575438830873,0.06137530268368613,3.5525604547094507,-0.22086440824288409,0.4921875
-0.5196535866682227,0.2087204959474283,-0.3889762891503476,1.0623088409358536,-0.058299832044925615,0.09770476354184374,-0.02087721741779591,-2.1639918607287734,-0.028661368359408603,-0.03637569466452761,-0.059522163137604375,0.034247062929401946,1.9974495794682043,-0.1237976835269896,0.5
0.045382079668288826,-0.017607780114523332,0.03569827157645197,-0.09593539953983922,0.0035639220630901245,-0.01017764667059264,0.0008922646634523462,0.19221985808639303,0.0031210427214937004,0.00494536664867617,0.005342469924644462,-0.0036192846491811767,-0.17571076827468785,0.011851447465788409,0.5078125
0.2033480173751773,-0.0808953347433246,0.1538978417005535,-0.4186519951817338,0.02079329170550552,-0.04025006272732437,0.006927062571578828,0.849601147826328,0.01195981595223791,0.016453250936084098,0.023478526128585253,-0.014156102140118037,-0.7827254563202656,0.04973696803532002,0.515625
0.09111671387342599,-0.035959178598628065,0.0689177222994909,-0.18699751307501944,0.008445283442105779,-0.018746640422499794,0.002549354792533461,0.3800210076146309,0.005587632094690831,0.008186420733183566,0.010576368521163426,-0.0065784391829436925,-0.3501425464116231,0.022756402500725557,0.5234375
0.014057152328880003,-0.005076337199245771,0.01093451290279538,-0.028381462737457383,1.558163618777437e-05,-0.0040692414030554505,-0.00041212137783584615,0.05831157585936969,0.0012421302976979224,0.002533969725457134,0.001689209176478247,-0.0014164040964064492,-0.05333899883898444,0.0042743039549157725,0.53125
0.0027457836285743873,-0.0005459728601734861,0.0031789714595889655,-0.006420987875795108,-0.0011398152251875905,-0.0020293508918837215,-0.0007832608524611454,0.012899977415995073,0.000662175717208391,0.001756361929583765,0.00037537702753663094,-0.0007210347044473127,-0.010818192039266145,0.0016068567650131158,0.5390625
0.04341715664935156,-0.01693233589149891,0.03457726918014438,-0.09160129641151062,0.0034057400300323416,-0.009865479549880431,0.0008241782425947893,0.18521317131716944,0.0030109691479164448,0.0047876227835724474,0.005079894605663848,-0.00348675725451242,-0.1689323651035907,0.011362792411850538,0.546875
0.17417084259588833,-0.06942280061890055,0.1327407161909989,-0.35972052204068117,0.01772451050324928,-0.034763031813887166,0.005820704089041671,0.7312461990855833,0.010358857327650576,0.014338115176605952,0.02012945356506429,-0.0122046122421703,-0.6723209016231617,0.04267339748392878,0.5546875
0.2893484033783186,-0.11553177993354388,0.2183469495558008,-0.5941249624028128,0.03023767353991917,-0.05662093471103209,0.010184956121363904,1.2093763091133776,0.016778458189526117,0.022697354009410805,0.033342950559515104,-0.019844701259974912,-1.1140633754277611,0.0702630495553838,0.5625
0.24593841869936403,-0.09796299371859521,0.18512870605622025,-0.5040820294745585,0.025405753563349117,-0.04829110743453848,0.008502024706377738,1.0259038126019766,0.014309478359581832,0.019494094215158242,0.028315593196718253,-0.016922324362509678,-0.9458007534695827,0.05986366974506145,0.5703125
0.09570106338601446,-0.03761968964949765,0.0726835880466562,-0.19719955910354864,0.008994119302611096,-0.01970220450352706,0.0027800595899978558,0.3995766826924166,0.005900770375689485,0.008547820142808143,0.011039402555295445,-0.006920773383740473,-0.36816736187962257,0.0238574741755163,0.578125
-0.03864859871360594,0.01620833531820964,-0.027502247173595836,0.07633985924358418,-0.005622478027018564,0.005837970131019028,-0.002335129846212668,-0.15861265227887333,-0.0015994016973859093,-0.0012241567002425331,-0.004368792212796939,0.002019577432621526,0.14746631975333463,-0.0083669125820758,0.5859375
-0.1292666853093876,0.052419206362641114,-0.09558517281962657,0.2616651294129331,-0.015529222693340138,0.023142685379995937,-0.0058390799016385395,-0.5356747677189045,-0.006695192238152824,-0.007849071543653127,-0.014728635572493461,0.008102098842039511,0.495673763526932,-0.030134593297709143,0.59375
-0.14280032563429107,0.057808726746076865,-0.10653140246529692,0.2907959238539336,-0.017099214692676497,0.02582728353693774,-0.0064231334089511075,-0.593905599906165,-0.007514389072921676,-0.00888834221849588,-0.016264526026854364,0.009069634073238029,0.5486750239633812,-0.03340974378820231,0.6015625
-0.04188348401609308,0.01746787672634848,-0.03133959807387631,0.08560871537140413,-0.006136069502927524,0.0066375850180782165,-0.0025737675451317867,-0.17560102853244505,-0.0018955182790326287,-0.001559216674932147,-0.00472247193938465,0.0023442063681140303,0.16170805059067703,-0.009201968040969037,0.609375
0.05484649148812774,-0.02121656651028835,0.04159107969360129,-0.11240660197990253,0.0044696541761645074,-0.011853434628694226,0.0011758369654530215,0.22747125674545635,0.003546741783993911,0.00551571867279459,0.006323690985302711,-0.004164272641705712,-0.2102575475818866,0.014023312787287296,0.6171875
0.008671129994643846,-0.0028348324213258243,0.007834836633310058,-0.019116144245723835,-0.0004859940566140455,-0.0031304025236650016,-0.000548518406591078,0.037570615634134635,0.0010076453026206717,0.0021980387495566336,0.001031824374734291,-0.0011304376091561944,-0.03398839505799045,0.002973894828017624,0.625
-0.09783978419803849,0.039620455413901835,-0.07153239587712298,0.19783434577754613,-0.012075847781547567,0.01714109791413811,-0.004626198663835129,-0.4037638137665928,-0.004934011005248045,-0.005536675164164404,-0.011123355027395204,0.005977100267195533,0.3741726272707222,-0.022551401340402774,0.6328125
-0.15877233084517872,0.06396462274558527,-0.11772940596974467,0.32317428049247643,-0.01879798512624375,0.028822371230163235,-0.007008064778866171,-0.6583421030707911,-0.00838132048999993,-0.010009625266327085,-0.018074943989877634,0.01009433107355004,0.6086618941125591,-0.03716633164415229,0.640625
-0.2748563056152674,0.11059060775740887,-0.2060551523214469,0.5630471902776549,-0.03163525850173715,0.05111647023081707,-0.011539816214775364,-1.1457701666022793,-0.014977224541710125,-0.0185601857930722,-0.03142429879400637,0.017933808007658248,1.0570616158358612,-0.06505328548109854,0.6484375
-0.42160243178078943,0.169479712930611,-0.3167196963198085,0.8647253145183272,-0.0477408063397751,0.07919486073451346,-0.01720444638844897,-1.7594063881019388,-0.02325584377140749,-0.029302697523163578,-0.04829705511189606,0.02777998708388706,1.622939484833288,-0.10029440152959844,0.65625
-0.2652877236040276,0.10683069343261348,-0.19829546268236567,0.5426641304949981,-0.030494502763116917,0.049234999917812744,-0.011120558794005909,-1.1049331413925108,-0.014406388469223094,-0.017808516584472085,-0.03033830500372372,0.01724808686146565,1.0207591782177046,-0.06276046319340725,0.6640625
0.22140429491224112,-0.08818515874167947,0.16855002626870008,-0.4571766480990161,0.022946948468924352,-0.04385653182000235,0.007692517002937918,0.9282310497300671,0.013036559232605542,0.017832065871864654,0.025549575860246563,-0.015420918724190089,-0.8533208116516945,0.05407493105615393,0.671875
0.490274546418014,-0.19586994541947533,0.37033203884738286,-1.0081932964095923,0.05236378286818982,-0.0951955842706918,0.01803020529105508,2.0492555807121353,0.028148507574937198,0.037458179731543174,0.05640124911983232,-0.033412768833802696,-1.8879525112914621,0.11858897445559545,0.6796875
0.30993733459077216,-0.12358610416088865,0.2335921617966987,-0.6365212799037233,0.03247005262117933,-0.060620118472159104,0.011003225178130353,1.2941131006519373,0.017934539841106642,0.024192748150280243,0.03567883446854509,-0.021250141322495423,-1.1929338138169174,0.07526000474713554,0.6875
0.21462936643521524,-0.08539558475381694,0.16162943814142786,-0.4404335824625897,0.021993193978508338,-0.04237325803590089,0.007302435437090441,0.8957059263277631,0.012546866164396507,0.017193983631335126,0.024730770993794567,-0.014836380577333007,-0.8256568993120682,0.05236717280614189,0.6953125
0.46576968940216323,-0.18600536745014717,0.3513289105274141,-0.9567865544889448,0.04960861363067623,-0.09044545876127981,0.01703444455222546,1.9453845088020294,0.026723515871482875,0.03559785159139866,0.05355106231358157,-0.03171977178571117,-1.7926864095048425,0.11266219055537817,0.703125
0.5037992476457909,-0.2012498993975421,0.38059898402593295,-1.0358960200216505,0.053841558453005776,-0.09778769309238099,0.01855321533681954,2.1053592331194753,0.028907850971246856,0.038423514395172886,0.05790103634512637,-0.03431969399953042,-1.9397496583707776,0.12180316656350587,0.7109375
0.05386350000672526,-0.021005897096305102,0.041815973917745684,-0.11232097000348659,0.004471730439760496,-0.011773665536144727,0.0011933539256032768,0.2267486372988576,0.0035695381905718644,0.005514636205787792,0.0062464967962805795,-0.0041475645012715575,-0.20812125658021488,0.013808267691992117,0.71875
-0.35772399232534535,0.14392077327618152,-0.26861147638466715,0.7335468120174171,-0.0407416556859696,0.06698049260455742,-0.014729969215466154,-1.4928803153178223,-0.019645311256077887,-0.024627293678417407,-0.040995424669821985,0.023493561411164515,1.3765525671665422,-0.08498463690393003,0.7265625
-0.5117775689802525,0.2056707711789661,-0.3848015867347805,1.0500760775569684,-0.05765667911554319,0.09647019796225649,-0.020694516777393483,-2.1363086862861635,-0.028329375106533366,-0.03591140207697389,-0.05867604859564813,0.033845975972977345,1.96960905120597,-0.1219754678915389,0.734375
-0.7458935857049346,0.2993979887902997,-0.5604501570564135,1.529164073931756,-0.08325992225719404,0.1411534004277323,-0.029690001095034165,-3.1117512892965444,-0.041465887703771874,-0.05299600683395207,-0.08554403070080865,0.04951380212054899,2.8697185450186096,-0.178193935473068,0.7421875
-0.7657009867086829,0.30726707741622644,-0.574646746673913,1.568319240516313,-0.0853563255767008,0.14483888688946028,-0.03040219405854263,-3.192760214762422,-0.04254057449653272,-0.05439857416437899,-0.08780593869653402,0.05078965045113761,2.9450238955808086,-0.1829377248057795,0.75
0.05030304464376658,-0.019538433336393955,0.0395729924311209,-0.10601040382246417,0.004119293377214154,-0.011141868795522716,0.0010867569369828413,0.21251132640346868,0.0033843374819346062,0.005276516145153808,0.00586885043382496,-0.003948505436904358,-0.19514219314357045,0.01298930290534065,0.7578125
0.9679497495059726,-0.3870197109515985,0.7297732533585933,-1.9879961264359367,0.10469340098381508,-0.18647269846224568,0.03645509972813752,4.041168922593314,0.0550072058389504,0.07235488700879215,0.11121552210905189,-0.06546134714493934,-3.725893682235724,0.23330498903775926,0.765625
0.5991124129244946,-0.2393506339688596,0.4519076640786687,-1.2309641103922278,0.06424002246836429,-0.11595486897975993,0.02219626149652774,2.502161175103847,0.03423261636037183,0.04537316131213166,0.06891367903606717,-0.04069959493671856,-2.306308692680599,0.14476121343934392,0.7734375
-0.6063601689342943,0.24331554538637304,-0.45526855271479627,1.2421727532978146,-0.06790626201747837,0.11439412151196533,-0.02431287893204157,-2.527500478328268,-0.0336205393358942,-0.04277045932974086,-0.0694312786303975,0.04014823259500359,2.3325707206021917,-0.14463535706032804,0.78125
-0.8276425387846329,0.3318806956667973,-0.6216721680331857,1.6963778526928903,-0.09214610121448476,0.1566393167489995,-0.03283592865727651,-3.4506876702186013,-0.04607313972013251,-0.05894983603873712,-0.09486609098705913,0.05498337150101155,3.1842689216571274,-0.1977682729660257,0.7890625
0.1518515348250411,-0.06035673184902329,0.11563597113869392,-0.3130862427365193,0.015254198389847306,-0.030560711135895296,0.004973409973536429,0.6365967870443403,0.009079464140130854,0.012681167605938945,0.017500865957585755,-0.010715373109176663,-0.5850451130041409,0.037357999945208026,0.796875
0.774404981172501,-0.3096509598006173,0.5843119067993712,-1.5907154231047882,0.08350793665272356,-0.14949561799679686,0.029001028999601594,3.2347020323560374,0.04414983066049419,0.05822488974016421,0.08895458280613174,-0.05247521435522672,-2.981197526937633,0.1868039415761955,0.8046875
0.42965066286922876,-0.1716088438891241,0.32458820518396525,-0.8831447565846187,0.04566708655811116,-0.08351522188106081,0.015667585703613124,1.7956685341449208,0.024732985344511172,0.033011797628388906,0.04943286728365828,-0.029330596172484215,-1.654430147816749,0.10403523725725115,0.8125
0.036579180449430794,-0.014174928825898511,0.027961474247255726,-0.07514371917735725,0.0024891112345668052,-0.008293066823204003,0.00044119363722065053,0.15346371519129745,0.0025457070675320085,0.004214658646224419,0.004324735238364904,-0.0029125588430830443,-0.14069386920253477,0.009648552036299949,0.8203125
0.04140805047212469,-0.01597933061519008,0.03110521159448307,-0.08404987686803095,0.002980528000918464,-0.00921486665540709,0.0006130460447299105,0.1718197737807519,0.0027762903866076698,0.004516463808444228,0.00482020685143863,-0.003217111472427688,-0.15851045349629078,0.010783872692448652,0.828125
-0.035193887411632485,0.014831059781326723,-0.02595558111463219,0.07172710931688281,-0.00534868781635238,0.005297794324982529,-0.0022766928005066357,-0.1471098352919875,-0.0014979323323337853,-0.0010621004028944353,-0.004011498522125848,0.0018598513331556563,0.13547676679760426,-0.007593482931475268,0.8359375
-0.23157270015692946,0.09346057417891575,-0.17278088511429854,0.4724468120011098,-0.026782305110421487,0.04272603473623332,-0.009787991568316534,-0.9642945426669255,-0.012485100079602908,-0.015350771344995422,-0.02651542757049522,0.014965769544102676,0.890058395378695,-0.05471213434893398,0.84375
-0.11788345607662065,0.047811762536581516,-0.08718146300319275,0.23911905350387788,-0.014324388922551268,0.02105923399136239,-0.005423042984407523,-0.4893344265592249,-0.006079470625672882,-0.00701305857503418,-0.013414191947755866,0.0073637387463676525,0.4528860915480465,-0.027432351295217067,0.8515625
0.1222259607914541,-0.048378143526205154,0.09265880645712597,-0.2517007814984072,0.01189605009974421,-0.024700031245479197,0.003768734292327571,0.5106394769753221,0.007379168717053936,0.01049207668153495,0.014142672636145624,-0.008666834522804454,-0.4698977099321469,0.030178795573163303,0.859375
0.0011406510430243277,0.00020826422667384655,0.0010660337038296132,-0.0024446075922238456,-0.0014428626438307412,-0.0015549226903602493,-0.000924047347265475,0.0037932657270096466,0.0005252762564686579,0.0015842636410552768,0.00021015186954505692,-0.0005317374647290399,-0.0038012687086977914,0.0011273320452581369,0.8671875
-0.2762523962862912,0.11133559218134115,-0.20704854687105684,0.565304228991369,-0.03178935534587603,0.05132304502081228,-0.011570441657396619,-1.152310203706635,-0.01505428562141568,-0.01867741221325954,-0.03163220690839251,0.018006131102871255,1.0622785478138377,-0.06540396346109509,0.875
-0.224892661113548,0.09063115827117295,-0.1673339216748589,0.4580584418438976,-0.02602653349585247,0.04138211672376749,-0.009521115531749428,-0.9346605668070714,-0.012091203073500804,-0.01484405089449786,-0.025703889447424112,0.014491609685241902,0.8630262687994895,-0.05303437661721945,0.8828125
0.023759181194257937,-0.009116358753013728,0.020158411501500644,-0.052437373973447374,0.0012988490453574237,-0.006151788237617057,8.713651639396566e-05,0.10478065488833176,0.0019375588246594885,0.0033817067774607225,0.002861792279617027,-0.0021950197807159393,-0.09441580475140311,0.006653820287060426,0.890625
0.07235410526571935,-0.028586011746302233,0.056064623659819665,-0.15071885569223967,0.0065609925782579,-0.015355527215120022,0.0019163114977088995,0.30612081534671287,0.004632717832594109,0.006895930507074249,0.008432069501991466,-0.005406976846409252,-0.28066677865536066,0.0183021561592231,0.8984375
-0.03332169314112346,0.01385910158466628,-0.024447316412618842,0.06786185194703631,-0.0051447445702061225,0.004948354436099583,-0.002222182783339937,-0.13778417002888493,-0.0013804163431975817,-0.0009014709893161392,-0.003721878503169418,0.00174066477033893,0.12745238096466585,-0.007081120072041698,0.90625
-0.05710710354113481,0.02347134944976638,-0.04261715822910432,0.11708414488687717,-0.007788099737674404,0.009535151690107279,-0.0031550962912875596,-0.23810170055885657,-0.0027333267973566333,-0.002655357899436152,-0.006468337276118334,0.003355456289326777,0.21988816794314237,-0.012806754017626203,0.9140625
-0.03062357508445814,0.012853247948463388,-0.0220208037099288,0.06152880305690905,-0.004799487568875463,0.004406945149504884,-0.002086978566099976,-0.12594094186993418,-0.001196265392125215,-0.0006683600992224784,-0.0034299409046372104,0.0015405403743788861,0.11759524668033079,-0.006457455078752771,0.921875
-0.023925490544996795,0.010142438626282096,-0.016326277950225215,0.04660143833816701,-0.003984864276240464,0.003048231495101119,-0.0017838746502261574,-0.0964216222774761,-0.0007830421819600515,-0.00013920568084745268,-0.002657249849595029,0.0010479500948608641,0.0910536564846516,-0.004848085307531053,0.9296875
0.06294090719679013,-0.024637534702035647,0.04873943626070283,-0.13102190073342185,0.005492502227197799,-0.013505661946878014,0.0015414632996194693,0.2649740026556091,0.004075088096212349,0.006185222734764848,0.007314422556377788,-0.004757533419700201,-0.24288674277688244,0.015993314884775442,0.9375
0.20979213183023823,-0.08344385349804778,0.15835721759401414,-0.430547616831057,0.021481924188171284,-0.04143401591075965,0.007135523355329175,0.8753523986012722,0.01227508725541992,0.016865897091686337,0.024172987913846974,-0.014539339012567478,-0.8066146253972956,0.05121602222885509,0.9453125
0.20516087380430836,-0.0816083802444332,0.1545953978037701,-0.420475366641355,0.020958699692245904,-0.040509065338532005,0.006932868283674643,0.8555721631523161,0.011994189257195111,0.016513659808643756,0.02365169715058165,-0.014204023450702975,-0.788005707353967,0.05009039120944289,0.953125
0.01609914869528295,-0.0058844355981533605,0.013036745676488446,-0.03413708872900429,0.00033165322855573467,-0.004493810528254554,-0.00030369841259633473,0.06866690120429825,0.001403839390238959,0.0027341161371935386,0.0019587681300575325,-0.0015787337953343866,-0.06130598926286852,0.004727257357209586,0.9609375
-0.12706041119973654,0.05150029218219054,-0.09392410381575805,0.2577659888610883,-0.015291175172528447,0.022752815458395477,-0.005760504432256785,-0.526988668928916,-0.006590666543474225,-0.007688013654202006,-0.014482069199727804,0.007957980969937191,0.48798820341766913,-0.029610915974163404,0.96875
-0.0779187856243999,0.03183900589415701,-0.05710330166720658,0.15712849806687926,-0.009958876380899593,0.013394754183922176,-0.0038729112834925096,-0.3225767658673423,-0.003823350242371575,-0.004106150631285145,-0.008857915421248093,0.004669801838890144,0.298123951331396,-0.017812960513186975,0.9765625
0.06777453055272208,-0.02655818585798801,0.051654162725828845,-0.13998552587937974,0.005901816407451504,-0.014338822853992602,0.0016795041209194785,0.2834351109988877,0.004318889487350481,0.006489620204002453,0.007862776252933542,-0.005035543110037379,-0.2619970466931637,0.01714822418928236,0.984375
0.15781103245242176,-0.06264009360278933,0.11891097176452571,-0.3238427523023687,0.01573275342632274,-0.031520453752100684,0.005118511802641005,0.6583037337242547,0.00935046064218635,0.013041300078324564,0.01820429846517691,-0.011040928380421007,-0.607759255503132,0.0387641796332404,0.9921875
0.14573414179080227,-0.05774291982006865,0.110326853943535,-0.3003195918468546,0.014473871020517382,-0.029306043031831704,0.004701531634322862,0.6090034649736145,0.008710068057361749,0.01219541769003379,0.016810571854213162,-0.010277402438521216,-0.5615143801003459,0.03588480980263764,1.0
0.10404547802698012,-0.0410213839086928,0.07983025755023714,-0.21632858752236947,0.010000456962000671,-0.02144076084781578,0.0031621252184195507,0.4368245927425046,0.0064236496963537585,0.009205422007372769,0.012012899809024462,-0.007545566518659805,-0.40193385017878797,0.025892782600936404,1.0078125
0.11090689962729129,-0.04388438663395186,0.08517931725902693,-0.2301032449424772,0.01079356329094735,-0.02275693594459525,0.003424446709915358,0.4662238036919648,0.006804098843330231,0.009708704708787467,0.012819351041358194,-0.00800180833274614,-0.42859579165680245,0.027536938148260463,1.015625
0.07134135099777016,-0.02817049899908317,0.05479470861118173,-0.14740729798409202,0.0064157706174790136,-0.015110407864242437,0.0018320686816168882,0.3004018423578274,0.004517042159163015,0.006764291684910112,0.008322336982248884,-0.005287298484344119,-0.2756773139544369,0.0180244165493779,1.0234375
-0.2103926375754171,0.08468733641659748,-0.15770249059962843,0.43121651251170673,-0.02453894061036732,0.03881479820659622,-0.009075303715686716,-0.8763954617822614,-0.011367578945660352,-0.0138625642616496,-0.02399955679758677,0.01363722413975811,0.8092029842841009,-0.049614312853532044,1.03125
-0.6531428858534002,0.26212921158421376,-0.49057819082752246,1.3387519460271375,-0.07309331684077754,0.1234283792479314,-0.02612122125450695,-2.724124903905364,-0.03625145769267241,-0.04620117825783171,-0.07485084447327768,0.04328955297616931,2.5130059845834714,-0.15588658832213892,1.0390625
-0.8349784972812333,0.33500940967270293,-0.6266731178491138,1.7107054091492877,-0.09296657785973136,0.15809660492808542,-0.03307384216796711,-3.4818266932991113,-0.04643737521074596,-0.05944447989969409,-0.09575832684506212,0.05542227684794082,3.212238479491403,-0.19951495766594823,1.046875
-0.4910929660126419,0.1972853118149628,-0.36748112461828375,1.0046461308079648,-0.05519269254125077,0.09229723843121598,-0.019777197496796413,-2.0456519422759305,-0.027061762139627667,-0.03427807931626013,-0.05629460655379271,0.032335461085129455,1.8885190534572165,-0.11695285848651325,1.0546875
0.15456921354626552,-0.06125802003187632,0.1180919267846827,-0.3196668288128853,0.015588533403295437,-0.031074901304775308,0.005110333834101522,0.6483948084879964,0.009269754755412906,0.01291927857433208,0.017817101576585566,-0.01093666099046923,-0.5958300056784608,0.03802511415073259,1.0625
0.6822139724166948,-0.27254950750794665,0.514272073170138,-1.400714194101579,0.07334129792121856,-0.1317845648303078,0.02540170903009783,2.848265570327983,0.03892520772171233,0.051459644865116796,0.07837560413094335,-0.046252394184238335,-2.6252566449039185,0.16464438502805562,1.0703125
0.8346235428466247,-0.33366936831787375,0.6280558814283428,-1.7116177327155262,0.08995152061876631,-0.1607895273928459,0.03120937587302786,3.482166131974181,0.0474367845727556,0.06254569192005954,0.09587571812149982,-0.056399361750337766,-3.210685875617391,0.20117951734901757,1.078125
0.5737657918433821,-0.22929517884913342,0.43159553882296925,-1.1764056593085181,0.0613485889031184,-0.11095386317634767,0.02113174233979289,2.3934639075265887,0.03272499580280976,0.0434397326644956,0.06596252818436939,-0.03889310076756479,-2.2069485936274633,0.1385430034734941,1.0859375
0.10455434498095297,-0.04135408584602578,0.07932518878393022,-0.21597297679191577,0.010000396722773289,-0.021426215244961924,0.003098819101141445,0.43747495124897606,0.0063670145664183365,0.009165554542695362,0.012130723857022647,-0.007499307582132558,-0.4026846624985108,0.02594792461617113,1.09375
-0.1928882168466566,0.07785330773138523,-0.1435478489045235,0.39234288936570477,-0.022525068221231886,0.035310976197036985,-0.008300081917354396,-0.8017839594135013,-0.010301472510700897,-0.012518752158834206,-0.022013115559071247,0.012367818128342992,0.7407742460506972,-0.04539694643992463,1.1015625
-0.14851035966004358,0.060075175985981846,-0.11013388936706603,0.30199411267803594,-0.017682475361048302,0.0268720768231005,-0.006594905784079585,-0.616889937732549,-0.007802372590857713,-0.00926196298850187,-0.016941793426517433,0.009397391024408314,0.5702267617410668,-0.034732036708759795,1.109375
-0.014179075361039345,0.006219626758614286,-0.00989382948592174,0.028550329096260058,-0.003055448583562021,0.0013075099326465506,-0.0014806508961685693,-0.05836966007341729,-0.00030459677181490774,0.0005050583634934537,-0.0015423994479057325,0.00045892284809610475,0.054259085075203696,-0.002511877183720493,1.1171875
-0.056189271114521676,0.0230688099245363,-0.042050503953618215,0.11544363765695116,-0.007712962862624131,0.009350381482584257,-0.0031288828559976533,-0.2348512918105245,-0.0027028987913125255,-0.0026116814939215693,-0.006370182656097361,0.0033057256312613893,0.2161445808268818,-0.012599944332112796,1.125
-0.1696196193084984,0.06855504984948728,-0.12689373761063127,0.3467223946975271,-0.02008279382719411,0.030932934177853554,-0.007454971122403403,-0.706869783231671,-0.009044985147305267,-0.010875721532578334,-0.01938338866035205,0.010861851452130788,0.6517690372856649,-0.03979821452326566,1.1328125
-0.14854741046733633,0.06004726829933042,-0.11003778567535512,0.30186618112238395,-0.017661276628751593,0.026830381037221115,-0.006581970985018785,-0.6163077791864341,-0.007790806131328402,-0.00925832775386162,-0.01695110243332846,0.009386813637296347,0.5696887089903753,-0.03472582659856855,1.140625
-0.0595256963169403,0.024242703031068357,-0.04270360395493564,0.11921249731855273,-0.007871584263126122,0.009851887143510048,-0.003147012240187973,-0.24365142178746546,-0.002758768757546174,-0.002708073727828098,-0.006722929946012859,0.0034161787339506513,0.22703900330557206,-0.013378347244038852,1.1484375
-0.08694059482836607,0.03521825701519294,-0.06399480195904224,0.1768468083189357,-0.01095904111687745,0.01519056317065802,-0.004255791007086204,-0.3596831906145304,-0.004343743316139704,-0.004750540924795721,-0.009875855000114217,0.0053055890423020355,0.33341383512042944,-0.019981782778868945,1.15625
-0.21049420589584733,0.0848953625826582,-0.1578287274684376,0.4315386793302218,-0.024596842696871103,0.03886420038708447,-0.009066003583345847,-0.8779057973898596,-0.011355643269055731,-0.013859179405650304,-0.024079717876438162,0.013632181652746999,0.8097781959468761,-0.0496465537592532,1.1640625
-0.24846445113720142,0.10026378391654914,-0.18644588903807682,0.5091422034571749,-0.02874867536947785,0.04608879437802779,-0.010521886535023174,-1.0369120384090655,-0.013502397393259256,-0.016660960293019115,-0.028454367575921083,0.016168566936579868,0.9558950657121226,-0.05876794939375011,1.171875
-0.10624794129132203,0.043273148058713976,-0.07866645284085137,0.2158296019028422,-0.013056352033608271,0.018819514679663734,-0.004983842070472073,-0.4414549723211221,-0.005449455666468789,-0.006209154434641697,-0.012118871621532695,0.006585733706193489,0.4079298418322717,-0.024633601590014025,1.1796875
0.1254000681209275,-0.04961036383810706,0.09616030236680835,-0.2604329413759862,0.012400967012359832,-0.02549942771962039,0.0039866449330567075,0.5267913255677986,0.0076297456218931,0.01078960195082272,0.014501930660982458,-0.00897509345937877,-0.4836746884493598,0.030988196279321763,1.1875
0.26287490108663125,-0.10470340174045208,0.19913698580815983,-0.5416237675449076,0.027412182731574395,-0.05171434538544939,0.009258840596983954,1.099374205301097,0.01534032801728316,0.020828632176966805,0.03030225416004658,-0.018163993639874806,-1.011892488279308,0.06400745381369864,1.1953125
0.2124555834509731,-0.084512714406622,0.16034739072707335,-0.4364101237620615,0.02178018589378052,-0.04198229823090855,0.0072500016014661805,0.8868931061692898,0.012439276887388025,0.017076996479077244,0.024509101838365407,-0.014728094882001514,-0.817087344198152,0.05190318854467571,1.203125
0.07297936132266426,-0.028701523912066127,0.055286295273445155,-0.14973054825280138,0.006476787436620402,-0.01532481434979169,0.0018539552716966333,0.3048398713764227,0.004573089791346545,0.006853932138776349,0.0084809156039625,-0.005364252012266441,-0.28062643735199005,0.01841522948349717,1.2109375
0.00526499685955088,-0.0016336164386839872,0.0050411306472615755,-0.011986293097675644,-0.0008590372038335543,-0.002485917611876096,-0.0007080419012705372,0.02423870202313688,0.0008085357471453707,0.0019440218396491516,0.0006934468085570204,-0.0008685535738142918,-0.020997173395233732,0.002164292533607568,1.21875
0.031162223865967262,-0.012002886782810722,0.025047839384689317,-0.06620932601568778,0.002041542496450719,-0.007503663330235458,0.00033340348207560325,0.13350937193426343,0.0023050406444716197,0.0038736532055485477,0.0036592571723417172,-0.0026419215854918345,-0.12123860114678893,0.00838038521596254,1.2265625
0.06068578632980775,-0.023793067197262253,0.04693174836887931,-0.12631598599956792,0.005231062865294852,-0.013086889887422765,0.0014479906012029556,0.2556927520270017,0.0039463781009463515,0.006010105175739058,0.007053451409714092,-0.00460086669604935,-0.23455375561469144,0.015456670238946162,1.234375
0.05893866871472803,-0.023047168708042673,0.044882991855582824,-0.12143156635024821,0.0049488363965832,-0.01263463738129291,0.001324190027338365,0.2464757399571269,0.0038001842309020872,0.005839464382167597,0.006870853853335145,-0.004434770604073181,-0.22677045519869696,0.015034033936475047,1.2421875
0.05145289037210267,-0.019991110156133557,0.03897902917947983,-0.10562809321015301,0.0041054327344806065,-0.011151689944358006,0.0010188611071437126,0.21442712987772836,0.003365165379796367,0.005287898375984329,0.006023508497460074,-0.003914928785637706,-0.19696015799181968,0.01323519074776158,1.25
0.032985573007367916,-0.012578591230543976,0.025578586120107164,-0.06868051802677833,0.0021452680169477423,-0.007676456450689274,0.00034585765387739877,0.1383810930253191,0.002361044692234706,0.003968359506729513,0.0038886222197898946,-0.0027054265869604186,-0.12634683935911173,0.008777932422527428,1.2578125
0.011205884069457644,-0.003915904170353995,0.009941991252263634,-0.0252905979691358,-0.00016914597074969094,-0.0036143119991641787,-0.00044541704297274253,0.04929402327347983,0.0011798151131823906,0.0023956944256646236,0.0013575105435642153,-0.0012872471916439221,-0.04462084304864458,0.0035241780008207885,1.265625
0.05142514915972307,-0.020077533014084596,0.04039117748942126,-0.10809219621173145,0.004241595185985428,-0.01135132588832909,0.0011148146056023328,0.21775795210615193,0.003451570755336601,0.0053255913438255715,0.005960970226947963,-0.003997111577080444,-0.20086863532521282,0.013195210872604585,1.2734375
0.1229001949718441,-0.04866634269380074,0.09357027683152262,-0.25382289332687463,0.012006553582307358,-0.024971650369449126,0.0038370542957931893,0.5147251206551577,0.007441620756809897,0.010528711189867878,0.014182599044985823,-0.008762130677466192,-0.4749292503481687,0.03039896164501692,1.28125
0.020346981471960523,-0.00751846819447358,0.015797594344262617,-0.042613334028789356,0.0007047121689414185,-0.005318462975603044,-0.00015171812394394965,0.08531526040090139,0.0016369711771819066,0.003017693607983485,0.0024375485248230478,-0.0018559149202960067,-0.07852141848805383,0.005810688653272105,1.2890625
-0.3415325712555537,0.13743310556073043,-0.2562371374594384,0.6992917553648911,-0.038933763116040805,0.06380260612789365,-0.01409447619927353,-1.4241818824597967,-0.018721803127174443,-0.02343151366188483,-0.03908630873777018,0.022390680608457558,1.3138443566415468,-0.08104713874986662,1.296875
-0.6467828166618629,0.2596464954201131,-0.485049589247364,1.3241590260087508,-0.07229502327979231,0.12203521393950947,-0.025813205379904936,-2.695727961351018,-0.0358548920135972,-0.0457096535242577,-0.07412061091189276,0.0428009907941283,2.486984782368898,-0.15430581277300323,1.3046875
-0.4881198848585244,0.19604938840613803,-0.365221104559009,0.9980309343244402,-0.054839522009653585,0.09168906713188443,-0.01965907276597873,-2.0322912705577254,-0.02688181648788213,-0.034053461464665785,-0.05590875546753585,0.03213351315055347,1.8763128212611344,-0.1162174580300859,1.3125
0.05628419066204055,-0.022028977282400986,0.0440001652111186,-0.1179501409434586,0.004798420202043113,-0.012235950377066125,0.001310570819091917,0.23856283119944896,0.0037549770914729577,0.005768914051046542,0.006570267484388971,-0.004331201143091243,-0.21721411033576216,0.014418347084521556,1.3203125
0.4617951326549659,-0.1844406024966427,0.3483560360084527,-0.9481380876897971,0.049153286848978094,-0.08958598305924963,0.01688344381426314,1.9284685060009519,0.026518772282855797,0.03536199844758152,0.053092689637230926,-0.03145364721981526,-1.7766739380007233,0.11169488389130929,1.328125
0.41386038561045535,-0.16517981931750472,0.3117502799914715,-0.8484196435564463,0.043832586978214585,-0.08037762445952455,0.01498796995653272,1.7264464080388782,0.02374679919359181,0.03177423867674111,0.047569932428707884,-0.02820474977983667,-1.5919266594144412,0.10017571028548196,1.3359375
0.14207888108063838,-0.05625916639764558,0.10722100738378988,-0.29085432198321903,0.014052500179313403,-0.028509080855898775,0.004519766374623904,0.5919242327185058,0.008429680571701138,0.011883707445212041,0.016377965012027672,-0.010001591987188448,-0.5456392051807695,0.03498700942693804,1.34375
0.0049149920414148585,-0.0013442588161744096,0.0045487675379494615,-0.011002975667434854,-0.0009075434964983451,-0.0024143073631493544,-0.0007129622981428491,0.02125604259648906,0.000764465360112707,0.001912992248658988,0.0006591149462617194,-0.0008542319950114088,-0.017928144012031823,0.0021104182156298835,1.3515625
0.03306974482432664,-0.012732644605981,0.026402327090569864,-0.07040979711613415,0.002249212734449332,-0.007860454530156135,0.0004087085539228261,0.141179895170468,0.002412483654458105,0.004019334531778085,0.003913400243163103,-0.0027707610629744755,-0.12778981941728332,0.008857833713565015,1.359375
0.050463688073821164,-0.019793788848458643,0.03948929761821736,-0.10598189091857617,0.004144045284747583,-0.011134201145902703,0.001047143873432337,0.21435717984125532,0.003385747478571405,0.005262684215365173,0.00591616556037131,-0.0039092208162702325,-0.19612111097695387,0.0129801723515481,1.3671875
0.01313542453536445,-0.004829788929385393,0.010642333960323961,-0.027837767417344544,-3.700788456176877e-05,-0.0038864865140973794,-0.00045688817470343127,0.05676989714945935,0.0012282331102354538,0.002472224041730009,0.001626021806382566,-0.0013481072140636042,-0.05203038396219556,0.003984738181432342,1.375
0.007060766503731357,-0.002290588336862378,0.005564905334254244,-0.014725051658698503,-0.0007627077073795912,-0.002687856874443395,-0.0007034401287294369,0.029726228673285893,0.000866767373647452,0.0020168007748324235,0.0009166073711083522,-0.0009247736000110093,-0.02752657495868741,0.002537072614349464,1.3828125
0.0375769579831353,-0.014408980465367477,0.029022827962332128,-0.07866307772431712,0.0026314682380766804,-0.008615607983160157,0.000536122781715638,0.15773689542870964,0.002633876839834755,0.004298287133070707,0.004402417987721581,-0.003024726060662182,-0.14519390957046666,0.009895409377342953,1.390625
0.028650898180900462,-0.010814745999746427,0.023175591574993194,-0.06192846096874768,0.0017481557925991716,-0.007032125389328545,0.0002593320604185456,0.1224253510025208,0.0021890150575804616,0.003697775886223879,0.0033660510666569934,-0.0024895911643573474,-0.1119974671462627,0.007780351789195628,1.3984375
-0.011986277778565159,0.005416641529500939,-0.007281297962354819,0.021580762499457937,-0.0026925046385916297,0.0007169296091531042,-0.0013066591681317407,-0.04670642837483166,-9.805300967544577e-05,0.0007284691108625257,-0.0012960517759138506,0.0002325323216188994,0.044175115328120844,-0.0019564968697467966,1.40625
-0.009596374995375767,0.0044538502590346285,-0.006232055221671985,0.018230278324419986,-0.002521106048513133,0.00034971568317692894,-0.001268818385954325,-0.0385693079728871,-1.5259431935326862e-05,0.0008590590249330581,-0.001015454220758229,0.00012328510498703246,0.036031037189022556,-0.0013753599489685516,1.4140625
0.019667471044257683,-0.007202042226420053,0.01510420145792478,-0.040594792724831665,0.000602394391361543,-0.0051519219810281115,-0.00018369346598223947,0.08147956858018066,0.0015850514360291883,0.002958351134785288,0.002338086411526326,-0.0018000472395097713,-0.07550107054241899,0.005637953535902158,1.421875
-0.012121065357994724,0.005549760104116386,-0.008597975491751987,0.02438292278869542,-0.0028528012017751117,0.0009289411821415876,-0.0013987292729490174,-0.05093779338447076,-0.00019941930866505358,0.0006468722507358954,-0.001317936321348148,0.00031524726403130653,0.04695352277207022,-0.0020153597677270963,1.4296875
-0.10482193310451791,0.04255853455229065,-0.07742021405710288,0.21324445924493093,-0.012897487167724275,0.018576015232830718,-0.004928013698353899,-0.43512021111666516,-0.00536690595287913,-0.006071699779902642,-0.011943103147798043,0.00648206554332662,0.40282021512689337,-0.02427739611930906,1.4375
-0.19156533419672692,0.07714898421698763,-0.14208958814959638,0.3902275783273806,-0.022335799100606773,0.03510174480343009,-0.008250977098794578,-0.7948487001070773,-0.01021082626830394,-0.01237685732665056,-0.021868617471909407,0.01227564458420859,0.7355934660780059,-0.045092352477025026,1.4453125
-0.28375407272930625,0.11406903332341212,-0.21191007265374107,0.579933430159771,-0.032499105435144234,0.052756803864740215,-0.011839638387473803,-1.1803466710652877,-0.015422731745336435,-0.019153737310601267,-0.03244112822674936,0.01848973971113275,1.0903486565536755,-0.06721867838523747,1.453125
-0.39464972522600317,0.15861452142779806,-0.2962700580029372,0.8090126756258386,-0.044758292964680424,0.07402667347495577,-0.016166644988961747,-1.645783844999396,-0.021723752405438588,-0.02732860096256945,-0.04519365552508123,0.025973072330422797,1.5182694503326677,-0.09384328280315214,1.4609375
-0.3632063882749912,0.14609693772854296,-0.27274984066409125,0.7450498568025777,-0.041313777138498875,0.06801677460881933,-0.014952581028909478,-1.5153888450475577,-0.0199710122868577,-0.025036517211327682,-0.041604505701900246,0.023862141692049844,1.3981205650902642,-0.08628560915380908,1.46875
-0.023860974181590857,0.010133214701618126,-0.01660607783884168,0.047546441920241655,-0.004011121718434006,0.0030717163922959713,-0.0018072842917960035,-0.09725244081072776,-0.0008203015189131532,-0.0001608019209901553,-0.0026442071067595448,0.0010551926823231417,0.09162392804075636,-0.004803271115088395,1.4765625
0.45235946040238917,-0.18065831789824627,0.342262665983961,-0.9308491882643021,0.04825229739839175,-0.08799751969059312,0.016598585856439065,1.8916763516271937,0.026032017542177734,0.03470597874785852,0.052033379951826574,-0.03090660096298635,-1.742023209331465,0.10951394974774806,1.484375
0.6690958440446788,-0.2674508171701688,0.5047469629909777,-1.3749745332359056,0.07193448435480088,-0.12934976550105082,0.024920532283819095,2.7947742899944368,0.03820696032566938,0.05051764337193782,0.07690822346265005,-0.04539526420804215,-2.575875266008595,0.1615044414265939,1.4921875
0.5017579612293896,-0.20041568248092279,0.37778301753624516,-1.0299139571616387,0.05346922019538533,-0.09724963843007413,0.018391529300705676,2.093966553325679,0.028722349437409245,0.038207901844424345,0.05769290159283225,-0.03409852078916153,-1.930842521591854,0.12129051002707879,1.5
0.24519499226750557,-0.09769372772507594,0.18445625551796668,-0.502950172632973,0.025318109109982303,-0.048186938298177905,0.008469226427303732,1.0229031089520004,0.014259875256304592,0.019421535203413203,0.028245427427784218,-0.0168681928019039,-0.943277866304758,0.059684296420200206,1.5078125
0.1851180308876824,-0.07364779638294987,0.13991392983451592,-0.3808930750712427,0.018807764892502674,-0.03678737414048032,0.006198119373987063,0.7738396458909241,0.010921565535078807,0.015066779068318,0.021346208905390178,-0.012882487053267973,-0.712915858306329,0.04527291358600148,1.515625
0.21090476285478107,-0.08391993409150326,0.1600197651698572,-0.4350215870821712,0.021704552500915672,-0.04180436715400145,0.007252045949906894,0.8825816880194168,0.012416991087130552,0.016998662635178536,0.02429194407816355,-0.014669454689386685,-0.8126539420667431,0.05149308099096111,1.5234375
-0.0030181515861587693,0.001846134857165889,-0.000919438457043829,0.004094730820305582,-0.001755648122881595,-0.0009287094989889406,-0.0009888002927730226,-0.010732703228317946,0.0003689368520313521,0.0013608642510860656,-0.00026632109231553133,-0.00034470439977773456,0.01098728834124841,0.00018754261371409779,1.53125
-0.47295791563007666,0.19013482391847497,-0.3549934699259264,0.9692839699365298,-0.05333340785805264,0.0889362777373697,-0.01914739267209465,-1.9730871355322899,-0.026119179007784203,-0.033033633435016176,-0.05419497135975035,0.031183018140457933,1.8198279295451392,-0.11258092755891554,1.5390625
-0.7745322776853113,0.3109431069254313,-0.582200448523606,1.5884005770222918,-0.08642723669463613,0.14660955498856768,-0.03080292124620567,-3.2320658584677253,-0.04311039006167929,-0.05511018160989089,-0.08880385029573638,0.05142210287142111,2.9801495621216154,-0.18497961526180515,1.546875
-0.622399352340585,0.24993903000110165,-0.46740362483393777,1.2755495553934357,-0.0697062824415138,0.11751494288161933,-0.024918683501108745,-2.596301976407143,-0.0345258977544211,-0.043968943561776025,-0.07134482688188745,0.041215361866595336,2.394318501357615,-0.14851328304532965,1.5546875
-0.3352062413920811,0.13478484196174387,-0.25054527595755127,0.6850563953311085,-0.038129518067852475,0.06256430355832839,-0.013799356682949975,-1.3958685378090552,-0.01831733374532762,-0.022918492104301344,-0.03837766403799791,0.02192640549969266,1.288590771698513,-0.07961307228360026,1.5625
-0.2851364871265703,0.11470690421782193,-0.21232609435902627,0.5814322245653839,-0.03258406599161871,0.05294132158885068,-0.011837287390104072,-1.1853392005194712,-0.015462838669708063,-0.019222531204089673,-0.03262897952104538,0.018530587134709214,1.0948249010551163,-0.067574562345947,1.5703125
-0.15854948060413393,0.06411973163022393,-0.11734537923115938,0.32214248396943973,-0.018746581644590206,0.028768655071156436,-0.0069695301445699635,-0.6574998729495245,-0.00834170993849985,-0.009985433721996898,-0.018114280380075776,0.010042756709315885,0.6070542850497458,-0.037145385351312225,1.578125
0.4821084342426899,-0.19243927665912583,0.3637143169484024,-0.9902586056411495,0.05138486343000477,-0.09356630885467877,0.017676248237668474,2.013713274806966,0.02766256553362261,0.036806525698472786,0.055404933700992906,-0.0328464493815722,-1.856750393483333,0.11664060678876229,1.5859375
1.1403039544324594,-0.45621998835174254,0.8580912198454973,-2.3384402686459183,0.12347151060249936,-0.21925982213253686,0.04299888647457276,4.7583892240345405,0.0646437559588272,0.08490203452663879,0.13095696143065946,-0.0768940919113298,-4.386505795552199,0.2745989719916147,1.59375
0.9392222933647985,-0.3758302579930477,0.7068727608306642,-1.9256865100779585,0.10144864613874732,-0.18085513451060156,0.03524924518279434,3.9194215847527873,0.053317279472832754,0.07021707955336214,0.10788989001311514,-0.06340466785915512,-3.611373537847616,0.22632715081098465,1.6015625
0.09411495790209772,-0.03729590570597529,0.07191473997734418,-0.1940364562132569,0.00888461257306293,-0.019474845212474643,0.0027286329579403823,0.3947971872028474,0.005810717152533309,0.00846893560894382,0.010904036230362141,-0.006822817451678873,-0.36131633620292797,0.02351743159959396,1.609375
-0.36821160977130746,0.1479743524300886,-0.27518116684318944,0.7521572259337826,-0.04173730508817378,0.0687996825211601,-0.015048329478080887,-1.5325452019927068,-0.020151951594254928,-0.025307664376492463,-0.04212516448031221,0.024107695225770907,1.4147916272703007,-0.08742253812852335,1.6171875
-0.23708992460468017,0.09544458686040769,-0.17673823465765695,0.4831378068393817,-0.027385734800939487,0.0438126179084604,-0.010023067291825725,-0.9854963320379441,-0.012785348400752017,-0.015741076600011623,-0.027035215465815988,0.015343307380515581,0.9095395666838297,-0.055984357922977214,1.625
-0.1899674748070632,0.0765999672792459,-0.14226143325351123,0.3884800040810209,-0.02231058453652756,0.03494737115193793,-0.00827852781030327,-0.7913751715511526,-0.010204042034117346,-0.012357513676722647,-0.021645233551940528,0.012258957592508878,0.7299524148078578,-0.044745483656920326,1.6328125
-0.4073166697094503,0.16384972969723893,-0.30648095050950397,0.8358275045293361,-0.04620116938867242,0.07652523698752332,-0.01668061707537611,-1.7009803351371755,-0.022480736210497045,-0.028296895607492996,-0.04666983017292427,0.02685507646720493,1.5680109179048176,-0.09694609318055014,1.640625
-0.4245162663037746,0.1708775144253815,-0.3190265827222311,0.8702187440080453,-0.04804321277224154,0.07970960085655354,-0.017289129391857783,-1.7724113296403894,-0.023412656081492355,-0.029532180635592428,-0.04868952764078313,0.027957391353338416,1.6339646358926916,-0.10104315301433045,1.6484375
-0.1719544615690273,0.06959294118286591,-0.12792735166505706,0.35002959105034953,-0.020248604727845784,0.03132480847472627,-0.007488401999524825,-0.7153725378135289,-0.0091239689334666,-0.010994797194332223,-0.01966675048932666,0.010963439383402161,0.660466280289569,-0.040381258151998146,1.65625
0.008818232087726056,-0.0030140149811576766,0.008600129494839513,-0.021423189071216098,-0.0003928460658627427,-0.0032188348938838084,-0.0005182723518265459,0.04096504284465572,0.0010769897279480193,0.0022569553403350017,0.0011269190353903967,-0.0011610431968081005,-0.03617502160779037,0.0030122211435925942,1.6640625
0.06786486081062855,-0.026667463284032154,0.052384455110314476,-0.14097921330763033,0.005996063451518137,-0.014393187250462068,0.0017033152309623022,0.2856838256471444,0.0043533884698994454,0.0065343258648464355,0.007892712674764317,-0.005067319208882036,-0.2624803613334424,0.017164182757698543,1.671875
0.09541963917554884,-0.0375764382540077,0.07217300898286678,-0.19583739960033492,0.008917415088169815,-0.019584272999512476,0.002723052672025186,0.39781037990718293,0.005846463473145861,0.008499147655859162,0.011021481243130665,-0.006865761808457035,-0.36658957959344085,0.023769776047838375,1.6796875
0.050705372087866,-0.019646937175028713,0.03850828598273947,-0.10437424777337824,0.004030616080951642,-0.011089641843504649,0.0010169449036547507,0.21116543781209432,0.0033346061428251267,0.005243690647569208,0.005887002609180697,-0.003877122025476641,-0.19383787288572538,0.013049678503825154,1.6875
0.16604478971907508,-0.0659639541717118,0.126134010317342,-0.3424571782662463,0.016780605831260367,-0.033238542170509595,0.005519033755955004,0.6951451072521588,0.00988574968682556,0.013733737788783028,0.019137261848041286,-0.011658531871936531,-0.6389945900664709,0.04074995779559785,1.6953125
0.6833130816678407,-0.27325078871998837,0.5158363846458348,-1.4040488699556306,0.07354223362429005,-0.1321244442430701,0.025488362647354657,2.8554408477808866,0.039035133095965464,0.05157436988100476,0.07849988059356698,-0.04635800974561944,-2.6310639065880075,0.16491724642617314,1.703125
0.9576553241947934,-0.38311948362836906,0.7218072825297028,-1.9657875955420638,0.10355873315597121,-0.1844876383875248,0.03603211957673296,3.9991313844950045,0.05444308861639147,0.07159153634464817,0.10998224002563034,-0.06472099186850098,-3.6867758902839274,0.23077470677913833,1.7109375
0.16402585247662732,-0.06514871954020417,0.12405210789717135,-0.3368800641254105,0.01647720843506228,-0.03275521898561515,0.0053855103373899585,0.6853504788868487,0.009720007255693816,0.01351994035245761,0.018919879239164463,-0.011488616342089487,-0.6318501751844294,0.040290754994987375,1.71875
-1.0383291330362434,0.4164973198338377,-0.7804196719617704,2.128988574902781,-0.11531333106874048,0.19700140651827622,-0.04096972369389034,-4.332007086954708,-0.057957396386432894,-0.07438060784154836,-0.11904419861136757,0.06909338554804569,3.995066917990873,-0.24830479112851753,1.7265625
-1.1696502004392504,0.4690532029014689,-0.8784022430642092,2.3970189366785912,-0.12960792875322089,0.22201813181018198,-0.045981686743369526,-4.878001489255725,-0.0653027081076518,-0.08393161646812944,-0.13411000794308386,0.07784488505621158,4.49945731761072,-0.2798304132893284,1.734375
-0.22488938858732485,0.09056603567625596,-0.1671806315954704,0.4584590375814257,-0.02598362885067271,0.04143208442021542,-0.009522911227193,-0.9343161167573525,-0.012097390832459516,-0.014828014573101534,-0.025694876419666935,0.014491565998733018,0.8634110341922047,-0.0530712616418009,1.7421875
0.3982791365924251,-0.15902934059958448,0.3010581327084504,-0.8190261506186725,0.04226056605822312,-0.07759102084055662,0.01447021065239714,1.664820385508893,0.022951404370935558,0.030704234912021275,0.04581580570701002,-0.027239935966603544,-1.5337917665857184,0.09648723631678897,1.75
0.1528361097983707,-0.06065302787382042,0.11542915750771052,-0.3142618339801687,0.015237993728408863,-0.030572881897164585,0.004941442434467063,0.6383228943538374,0.009088171813904694,0.012702131142204552,0.01765066561389864,-0.010719757163099088,-0.5882358877466434,0.037549026046661854,1.7578125
-0.17073896906562092,0.06897225572448243,-0.12819781738004946,0.34979416927177176,-0.020254750553810954,0.03129064735112993,-0.00755323206016706,-0.7122872972009787,-0.009134300166769792,-0.010975376340078382,-0.019476976179882772,0.010989774886331283,0.6568638758547053,-0.04011936457526558,1.765625
-0.07994788038837508,0.0325927605119718,-0.05913657043469209,0.16243881204123786,-0.010212098638623357,0.013844076754969842,-0.004000067594799042,-0.3316163524750002,-0.003980036389991396,-0.004294405569294531,-0.009054086179640906,0.0048533824833812255,0.30670669501025377,-0.018289719943119585,1.7734375
0.07185777735882047,-0.02817644345520833,0.055738127341192836,-0.15020147519770424,0.006501114778318824,-0.015259397690213767,0.001912064400309734,0.30311558773791986,0.0046113455748488736,0.006861939438804008,0.008360591697898337,-0.005378240999200125,-0.277535261729097,0.01818190572344952,1.78125
0.08662893851956635,-0.03403793567918445,0.06653923860571678,-0.18007781667991743,0.008074243513685615,-0.018043421104443798,0.002469604808495436,0.3635496126600533,0.0054290135623104195,0.007939619594001659,0.010036017542980075,-0.006354169523567216,-0.33339889527127387,0.02170795185194327,1.7890625
0.18971561222188113,-0.07533365026008455,0.1431309925758371,-0.3896027249465455,0.019263788350640385,-0.037621537584863265,0.006373060191263656,0.791291115506327,0.011164406570044971,0.015412091642108456,0.02184353898941763,-0.013191854562694122,-0.7289768985191539,0.04639645430488682,1.796875
0.37072901956839643,-0.14787178270700876,0.2787639465335706,-0.7598382707773826,0.039056017161040575,-0.07216490251512261,0.013312627435086644,1.545578454265804,0.021315988841429503,0.02860677887964388,0.04260863129435297,-0.025281050558894003,-1.4250348039456704,0.08981460826265061,1.8046875
0.38728921974861497,-0.1545146071257807,0.2916699064124737,-0.7950362363005984,0.040930710884937334,-0.07540959784624184,0.01399412374984324,1.6159730096488458,0.022291518200227827,0.02986125197349143,0.04451823644244825,-0.026426376627002462,-1.4891079922188977,0.09380201569371988,1.8125
0.28659561307539977,-0.11421234990587664,0.2168935902285472,-0.5902884037517174,0.03000206916211815,-0.05628078103446398,0.010182617676197471,1.1981013951592812,0.016687923058665614,0.022561778839623382,0.032967583081601685,-0.01974878568233821,-1.103014154188585,0.06965453005585513,1.8203125
0.24218364609761042,-0.09649553385263383,0.18403283342469,-0.49918673766422156,0.025197564866478863,-0.04783345095444262,0.008485760512631411,1.0140652934018872,0.014188827205497198,0.01930058917513297,0.027860234623055223,-0.01680326838859212,-0.9340524382536786,0.059004961050514344,1.828125
0.09931033617987832,-0.03929472019844568,0.07626712030320623,-0.20481638471411762,0.00951012777437976,-0.020483994605546032,0.0029324147557626716,0.417448942136594,0.006099125132031678,0.008785243935771413,0.011462412507955478,-0.0071994673442992195,-0.3853079233570354,0.02472125536666424,1.8359375
-0.34447711182581686,0.13851220529006186,-0.2581415483270514,0.7059052119407216,-0.0392096886762639,0.06439230460345666,-0.014218822738512807,-1.4354157050717828,-0.018899810345732702,-0.02368689725464182,-0.03944183958451221,0.022581178191904354,1.322968191173893,-0.08178514707077632,1.84375
-0.8048626886793527,0.3229408986234506,-0.6045021493791213,1.649456290587047,-0.08970981007666999,0.15239362217163538,-0.03196191379242135,-3.3567008917322427,-0.04478771259854677,-0.05730435759402513,-0.09225600867957928,0.05343205393728167,3.0955208445645845,-0.192276638479804,1.8515625
-0.7952444206556751,0.31904656114734803,-0.5967036279834814,1.6290094943684217,-0.08861181568005229,0.15050504074021095,-0.03154877354814821,-3.315706841933321,-0.04421644144988319,-0.05655101418407011,-0.09116419635144918,0.05274445819929052,3.058585641496544,-0.18994893000504565,1.859375
-0.3577064843086111,0.143791810037148,-0.2670751001664511,0.7311027242750687,-0.040577045787697795,0.06680910730325194,-0.014639747647961733,-1.4888482891479025,-0.019569533459287875,-0.024537076256670065,-0.04095652272803795,0.023383690420696445,1.3745719984552889,-0.08489581948434873,1.8671875
-0.004637984944597441,0.002452537099562164,-0.0016304664426049394,0.006341181834252674,-0.0018551171983822309,-0.0006868628337594636,-0.0010249147959370225,-0.015212160017791165,0.0003159889288556616,0.001286418083299288,-0.00039417220590710173,-0.00027078269873043084,0.016442453046319,-0.0001296577010235626,1.875
0.05864271228412224,-0.02285376926668208,0.04520519077530298,-0.12313505203926284,0.005010479547400036,-0.01268919009486729,0.0013638990928098625,0.2476792124911077,0.0038553501247083066,0.005897985265155627,0.0069149380411296845,-0.00445309751910941,-0.2255820187240078,0.015030016031342545,1.8828125
0.1152563613677634,-0.04560800249438139,0.08692328798208344,-0.2372862941897549,0.011105431248197302,-0.023368134114527744,0.003475535781558224,0.4815837488010864,0.006976152486979951,0.00998569388876111,0.013391937005700303,-0.008174064199287763,-0.442094520713835,0.028549499383581756,1.890625
0.30910421138431265,-0.12334157408014011,0.23245186192978318,-0.6332090245668486,0.032308214964761384,-0.06036894785559838,0.0109297050966764,1.2889566011629379,0.017845708094504486,0.02411671696542161,0.03557032649317932,-0.021139161878832486,-1.187934752258769,0.0750271813970444,1.8984375
0.43792613307233896,-0.17491347538875604,0.329907341949357,-0.8982021798559786,0.04649523495176524,-0.08508045393681951,0.015952542922551025,1.8273040190328467,0.025133323295521866,0.033554842038078694,0.05031404523568282,-0.02981957427529127,-1.684644190655039,0.10594846614935267,1.90625
0.4584199590635819,-0.1830192191968552,0.3460898194953286,-0.9420679533880926,0.04883483437695405,-0.08908753262665224,0.016803177448335083,1.9144793182245545,0.026342562539493672,0.03510006606228945,0.052670605634190376,-0.03125881259147695,-1.7642877472319691,0.11088710357195769,1.9140625
0.5488505166917448,-0.21918254858417574,0.4141441503917519,-1.1275062414652524,0.058743626651245134,-0.10632544604945088,0.02027557287263152,2.2916476225076163,0.03141737357553434,0.041705778608348384,0.06305369664497489,-0.037324483933976374,-2.1119883832197877,0.13258626533871604,1.921875
0.5737063005804016,-0.22913996736648495,0.432104369791978,-1.1767523607497057,0.06137448684998777,-0.11096920919505655,0.021168180408028855,2.3934065049950917,0.032748612543549833,0.04345656537775566,0.06589280342290414,-0.03893544061143649,-2.2070472497691522,0.13852675196108072,1.9296875
0.18776659516727665,-0.07454429348862768,0.14133973835115493,-0.3846180610521669,0.019023941205966854,-0.03721717664571411,0.006264188759509899,0.7821602177537748,0.011003548849794036,0.015193352387392839,0.021596509299674185,-0.013039576538006206,-0.7223040318019868,0.04589252953010962,1.9375
-0.45618312992970494,0.18339873519439245,-0.34242160038139996,0.9343200593280216,-0.051477589085906605,0.08570251898861919,-0.018507001065447563,-1.9026747264223938,-0.02517714734709869,-0.031848379974713646,-0.052281462176519036,0.030067988562050174,1.754134701189054,-0.10862066350780723,1.9453125
-0.7864288506814904,0.3156054424692898,-0.5896307153344397,1.6093085944917456,-0.08754479542565137,0.14866815724723756,-0.03116120390980067,-3.2770454453630578,-0.04367373727193201,-0.055902963251587834,-0.09014387038297648,0.052117005276427604,3.0230928377144184,-0.18781534778834222,1.953125
-0.6250124899114351,0.25081161921391854,-0.4676534956355794,1.2776170834807659,-0.0698126727731455,0.11779755856104812,-0.024916631599356007,-2.6016715106910833,-0.03455331019471181,-0.044052631930233704,-0.0715937049922744,0.04126929896707158,2.4008835147185423,-0.14903070863682258,1.9609375
-0.32396670430221425,0.13016775716776643,-0.24183854709732847,0.6616003156574987,-0.03690193754805594,0.06037163320638574,-0.013362505505386884,-1.347077387959117,-0.017655035925238524,-0.02207632342220082,-0.0370424057851324,0.021146483717129877,1.2432377254096454,-0.07679201751775643,1.96875
-0.14989868793487154,0.06052652236363428,-0.11198516816713856,0.30650929935902704,-0.01793167201134224,0.02724337924165906,-0.006720477830036135,-0.6238871883071142,-0.007931224910327238,-0.009407554594553126,-0.01707835036367374,0.009557610067165434,0.5759646670065053,-0.03506701117905512,1.9765625
-0.06040077946086201,0.024784496430790098,-0.04500684283066366,0.12351829971180708,-0.008134261850372547,0.010187982134113212,-0.0032835301151475727,-0.251774478766426,-0.0029164862925448597,-0.0028671308627795655,-0.006822628268724378,0.0035821204771950394,0.2336965916840971,-0.013626299666811722,1.984375
0.018645445124485408,-0.006862918116311655,0.015070853965555114,-0.039631194379922886,0.0006122842019712747,-0.004988084420120725,-0.000186222815167187,0.0794035456945631,0.0015744194234464765,0.0029589030385753622,0.00223341995845549,-0.0017578323033860023,-0.07073988156648311,0.005340949919304707,1.9921875
0.10053503453412925,-0.039703670127613305,0.07724114369733538,-0.2085217043252589,0.0096461905954926,-0.020714152686101262,0.0030140128023625453,0.4224586127358693,0.006218771346168821,0.008968260872769276,0.011618483590054164,-0.007286834899081956,-0.38738637582559127,0.02500547346952103,2.0
0.2018566033541128,-0.08029897773167241,0.1531032023741085,-0.4156664976825004,0.0207019931656198,-0.04004194999379472,0.006895268446013995,0.8442661618494949,0.011890443050377997,0.016337303567323467,0.023247737650021933,-0.01405935162231377,-0.777500779635763,0.04932975892025534,2.0078125
0.2897928668690165,-0.11551073334755937,0.21843459093926998,-0.5944543388496657,0.030245572543247685,-0.05674374154542388,0.010224411345716642,1.2091429767281543,0.016777919496914293,0.022714098212701685,0.033354264772822065,-0.019903038933089822,-1.1146501802052102,0.07044336299271416,2.015625
0.31959890731073176,-0.12745882183085697,0.2407026844284838,-0.6550820164918882,0.03349740886711965,-0.06241732449275705,0.011359963422456917,1.3331686002817387,0.018441237200201813,0.024888095773512395,0.03678054683407831,-0.021890918959114727,-1.2287703377217931,0.07761318150050628,2.0234375
0.33081795952322807,-0.13197272552125727,0.2498423468306691,-0.6792769280099,0.03481015930124311,-0.0646587192426386,0.01184381216136117,1.381731477373128,0.01911865250429888,0.025745949021808316,0.038054243337657084,-0.0226885437931053,-1.2729431686259303,0.08031586578512856,2.03125
0.31445102333175157,-0.12541912077328604,0.23812441890297437,-0.6471376537143989,0.0330868489148793,-0.06162276927078906,0.011257038785595093,1.3150526426613085,0.018241656712518903,0.024574173865523456,0.0361644738349525,-0.021631368747756542,-1.2112592233119595,0.07637556424162727,2.0390625
0.1452937605457144,-0.05764382069053865,0.11059868285713967,-0.30023633455209764,0.014510865806326037,-0.0292668193720794,0.004713189552699764,0.6088316310466221,0.00871296221896195,0.012184852342021123,0.016760894853827493,-0.010274809295899913,-0.5606100208483182,0.035749911679237745,2.046875
-0.15187605514672367,0.06142827271632437,-0.11372028760658055,0.31041681168743335,-0.01815870974897149,0.02762586933577986,-0.006801425084539781,-0.6329450980607266,-0.008054585259834306,-0.009587163078392058,-0.01732620007946547,0.009695713400350194,0.5835134726214032,-0.03558742486915557,2.0546875
-0.3435156798828915,0.1382434281848493,-0.25817356550677817,0.7040169464057892,-0.03919835744082696,0.064277901430454,-0.01420808329918542,-1.4334433708152794,-0.018858042757724743,-0.023617359480792407,-0.03931261964811581,0.022558963888329172,1.3213690573543841,-0.08157095420118579,2.0625
-0.34791829080086334,0.14003302021841368,-0.2608879386319096,0.7118565370086488,-0.03960340148557776,0.06502577341580885,-0.014332915188692568,-1.4503800185400777,-0.019067932485706453,-0.023908043693375246,-0.03981877724437261,0.022812227688694814,1.337825670038304,-0.08260895179177526,2.0703125
-0.2939973055500551,0.11840807202950311,-0.219454016509102,0.5995791853976261,-0.03359665435322327,0.054623239410326804,-0.012194622484017655,-1.223261358439971,-0.015974388593740948,-0.01990898838019059,-0.03363384912310215,0.019140746062487748,1.1294370581827191,-0.06966328494716718,2.078125
-0.1761794129123235,0.07117001502459802,-0.13062494237615963,0.35796815525549824,-0.02068288335200314,0.032134580305210665,-0.00763858771450052,-0.7315675998189554,-0.009329101087055654,-0.011261605635918435,-0.0201208962473169,0.011232413689774375,0.6760559229617282,-0.041388292937861955,2.0859375
0.07668900506181589,-0.030149108876764055,0.058944182083753724,-0.15873392275666673,0.006948589385632907,-0.016069256733118428,0.0020685979271661396,0.32153563303686555,0.004854996751718729,0.007212173159824289,0.008891739034584005,-0.0056721177344104985,-0.29572284637389706,0.019305444041501908,2.09375
0.2462990538992412,-0.09811937537656205,0.18582131715736755,-0.5050017810252397,0.025481774453122115,-0.04841018866278965,0.008554218576929931,1.027882811476751,0.014346218856003198,0.01957371497792717,0.028357803676857595,-0.016987865737855802,-0.9471498425307799,0.06000166871121695,2.1015625
0.08100164246681416,-0.03194623432507675,0.06149527252678542,-0.16639208000248368,0.007394069003368388,-0.01686531857465004,0.002167796398642833,0.3390838242046214,0.00504069609179326,0.007464783582030282,0.009385507995247408,-0.00589867294106546,-0.31129977886551957,0.020289721894615885,2.109375
-0.21309502444091857,0.08584105061763937,-0.1590767631713603,0.435158410070408,-0.024766983971688795,0.039233800649639675,-0.009131697290119735,-0.8861321122570114,-0.011465864891273684,-0.014024531317862922,-0.024378069586499726,0.013773220630231571,0.8189927317014914,-0.050314942063915236,2.1171875
-0.26470733311691874,0.10651414640421636,-0.19731481572032789,0.5399473502449583,-0.030370514831367944,0.049021643944598035,-0.01106725845855952,-1.1003341754044524,-0.01432705040454788,-0.01775688204210089,-0.03029507203805263,0.01718016270274651,1.016572878858287,-0.0626528390031715,2.125
-0.093367668938198,0.0378608501128386,-0.06846762776447841,0.18882556741616832,-0.011593010136339428,0.016289627619516765,-0.004449079200240801,-0.38559919856154795,-0.004682475574426588,-0.005196259200258147,-0.01059089999757781,0.0056839866444483465,0.3576826569665608,-0.021459138577338267,2.1328125
0.10162067658583744,-0.040251419918057425,0.07754537018063462,-0.20972430372624767,0.009705995832515754,-0.020864011844762113,0.0030176971736398566,0.42631507975889604,0.006242620313788163,0.009037652529689797,0.011814020244758052,-0.007337348023749175,-0.3911039498716839,0.025341781154593963,2.140625
0.33231890922361584,-0.1325814406990093,0.25034369153485536,-0.6813092018820306,0.034888513416946626,-0.06482577592450517,0.011846567643365856,1.386298030883449,0.019157423247570242,0.02582399938422053,0.03825333932205463,-0.02273856200153225,-1.2776196526772843,0.08065433014941628,2.1484375
0.5508033215658342,-0.21996216818571607,0.4146076355558917,-1.1289787387126933,0.05880558491828314,-0.10657569587626008,0.02026596062786476,2.296619993093394,0.03142802370462766,0.041735986469390675,0.06326164034300537,-0.03738162629717148,-2.118667190921582,0.1330750599419236,2.15625
0.4488593174324309,-0.1790510460106989,0.3386307268492117,-0.9212722163953931,0.047721542969825434,-0.0872367137869259,0.016402953358272607,1.8729372811101415,0.02574343308284363,0.03431196657043077,0.05154205454165457,-0.030616276975420464,-1.7279365669580475,0.1086582770223516,2.1640625
-0.017956599964157334,0.007905346806651363,-0.011841194491971052,0.034316713898565644,-0.0033395945568668326,0.0018456431922518573,-0.0015368722488227472,-0.07202401860004996,-0.00045165211874464354,0.00026240291372837737,-0.0019966028249929595,0.0006193068880173916,0.06719095223284373,-0.0033477171681364007,2.171875
-0.3681540616249311,0.14810116372569457,-0.2755050474053284,0.7523917479969203,-0.04173607934165412,0.06880856004375303,-0.01506290831665564,-1.5326712425918771,-0.02014900428656064,-0.02531384973983907,-0.042146811843298895,0.024123188967108675,1.4150551355118863,-0.0874383501372353,2.1796875
-0.247005539959243,0.0995241829203693,-0.18528706824634542,0.5054300716007434,-0.0285675474026637,0.045806225353585736,-0.01046740594472263,-1.029309794962869,-0.0133907551052141,-0.01650255404994313,-0.028227790435112636,0.01608157601240969,0.9501610143741107,-0.058424037605953064,2.1875
0.0739989337794205,-0.029051102739988247,0.05569578567363926,-0.15197628646515052,0.006548651833744524,-0.015457098820291405,0.0018752039731582718,0.30823577812486436,0.0046306229206464255,0.006927803265486442,0.008608943059678199,-0.005402446333967368,-0.2841577506293597,0.0185993445251074,2.1953125
0.1309488076110474,-0.051848424192458324,0.09907568641830082,-0.2697953893138678,0.012844314958771391,-0.026403100097271107,0.004114515287848346,0.5467265212030674,0.007868864878242477,0.011119166713659184,0.015134895572057267,-0.009264129369553214,-0.5036818886057428,0.03227971569060532,2.203125
-0.16413032756801998,0.0662825378636531,-0.12186853421303123,0.3335303854896302,-0.019380210627379144,0.029862918201894056,-0.007195485256704238,-0.6815935694784859,-0.008663971202337646,-0.010390882405541145,-0.018725924263797898,0.010449945279000469,0.6302769846206921,-0.03852841423418805,2.2109375
-0.5506516468005604,0.22096764948400632,-0.4121396927800476,1.1256284010157365,-0.061682982150132896,0.1036676284257458,-0.022078883551437126,-2.292320146808757,-0.03038526052653415,-0.038619725593290244,-0.06305539231117509,0.03633973246040064,2.1162384511175327,-0.1312848500078101,2.21875
-0.7064111872357546,0.2833022013075943,-0.5298420937233606,1.4463069316147035,-0.07881732032218867,0.13349291718726303,-0.028129380529495783,-2.9433644239491947,-0.03919654752676524,-0.05004593607937079,-0.08091423993076285,0.046822831618324554,2.715810858248613,-0.16867182112684612,2.2265625
-0.43555868421917876,0.17493634278675663,-0.3270573138313291,0.8925513912761769,-0.04925554381341786,0.08185206241044682,-0.017747012258777867,-1.816545768179303,-0.024027744495103497,-0.030317129319607016,-0.04987297580224049,0.028726839600045392,1.6752677234046078,-0.1037031683495432,2.234375
0.1610789875645905,-0.06388171570139485,0.12152781829144642,-0.33063856309176176,0.016102213393428117,-0.03212173515989515,0.005250149245910865,0.671257738247471,0.009526210293029224,0.013275702802390463,0.018530648120844463,-0.011259301694424783,-0.619285218581757,0.03946929708017468,2.2421875
0.6820922509346707,-0.2725485542446039,0.514302286728684,-1.4002193033412529,0.07331741802273954,-0.1317832609908241,0.025399873565309698,2.847110781020989,0.038893734312580974,0.05142081873100814,0.07830770171357117,-0.046250103403740916,-2.624503781423408,0.16457944943645028,2.25
0.7995371905353619,-0.3196613086953311,0.6034638547065547,-1.6419224785358917,0.08630591231592719,-0.15434938331270961,0.02998649757590573,3.3396927866921073,0.04554923519853249,0.06006998837273989,0.0918235518937468,-0.05419143253455656,-3.077389665150267,0.19288333977706137,2.2578125
0.5770195176085118,-0.23053980311868616,0.43569960378222355,-1.184789352881344,0.061880456788635796,-0.11181484140939045,0.021386930512688692,2.410626230705515,0.03300511854173449,0.043784188797681575,0.06631091721133736,-0.039260565137704324,-2.2210217827032888,0.13952129907384814,2.265625
0.27559735961919357,-0.10974886804763469,0.2078922745185395,-0.565149995309543,0.028711808399178813,-0.054091502468827865,0.009694841940447632,1.1502709401825324,0.01598523880042843,0.02167836073346998,0.03171231686584002,-0.018979577365944373,-1.0602195377101198,0.06711891781688742,2.2734375
0.003988039831563379,-0.0009443208443819476,0.00329695821856297,-0.008053106936723805,-0.0010949980272624473,-0.0021363099948679696,-0.0007992215894720447,0.01635907504411508,0.0006945376102296934,0.001806208670894335,0.000544537963137366,-0.0007417001568347784,-0.014930878553908383,0.0018698368460998785,2.28125
-0.24719451096447112,0.09962402221781613,-0.18488864186344525,0.505472688393757,-0.02853392603062529,0.04577617483273801,-0.010430597975316895,-1.0295507330245117,-0.013381537403426331,-0.016500483385511817,-0.028265044296618316,0.01604970889760645,0.9505466547063529,-0.05842127591839945,2.2890625
-0.39620181893915307,0.15928073180736543,-0.29641418689741766,0.8097269746351603,-0.04480102856818306,0.07416599975236801,-0.016130977220001196,-1.6497227790078495,-0.021721453751300832,-0.027355990395790276,-0.04536504609515803,0.025998844817495988,1.5229299989067937,-0.09418903426045339,2.296875
-0.3620395082030364,0.14557605743171934,-0.271166255317377,0.7401207339897762,-0.0411164722621968,0.06768959355482895,-0.014846926269515594,-1.5082155776593296,-0.019825336946823927,-0.024891865886801475,-0.041448953468438035,0.023742978025974665,1.391675997464363,-0.08602968228963524,2.3046875
-0.25062979278857933,0.1008873899374177,-0.18814010732781447,0.5130564559651051,-0.02900110157085741,0.04652873840331334,-0.010621439808366289,-1.045125279562457,-0.013614838115883952,-0.01679582988196312,-0.02863995187950098,0.01633756951726963,0.9639671566600679,-0.05932087337534576,2.3125
-0.19078082299579438,0.07684752664552692,-0.14320521527575525,0.3908119528975251,-0.022451259787420526,0.035145896223162644,-0.00833453111898327,-0.7955341813288774,-0.010263171656081408,-0.012418761853869411,-0.02174450416247043,0.01233889871934618,0.7341839233379147,-0.044952976960469765,2.3203125
-0.12384004168715522,0.05004809579777819,-0.0922232327974228,0.25259951901563976,-0.015041360913580817,0.022285794607405193,-0.005707830042497764,-0.5149265794386534,-0.00645711790630389,-0.007487660639252202,-0.014080663135675547,0.007810369137353912,0.4760715659134694,-0.02888038921103325,2.328125
-0.010984014531546725,0.004935436724494942,-0.006772819016820013,0.02006741991939403,-0.002606305781652703,0.0006171270946302489,-0.0013037072152853315,-0.04305618892217706,-6.615187351182117e-05,0.0007833757678494686,-0.0011750254629682695,0.00020262143960188625,0.041008215927354034,-0.0017901747614280383,2.3359375
-0.022749801895464907,0.009733031277750862,-0.015684299699862878,0.044170126422798474,-0.003899873932504414,0.0028317040393461257,-0.0017502038041741304,-0.09242790956045334,-0.0007307615834046162,-8.694516261183658e-05,-0.002536252055123866,0.0009820280886341987,0.08624743354530034,-0.004584291749878428,2.34375
-0.1712592395548661,0.06924255104020569,-0.1278799489684151,0.34952550686452666,-0.020234420287353734,0.03125932404389021,-0.007508430702095379,-0.7131337926774189,-0.009120683348682148,-0.010965315612992504,-0.019550562624783097,0.01095434481753548,0.65833485521063,-0.04018957751289471,2.3515625
-0.08652695165191854,0.03528133871480411,-0.06442322841244237,0.17633235938235958,-0.01098467292464012,0.01512006075405055,-0.004270061920648075,-0.3602393256549905,-0.004377560211210668,-0.004789823262127469,-0.009815324818758868,0.005294869014260166,0.33261330337383105,-0.01985564963213548,2.359375
0.3681414657283912,-0.14686931007563542,0.27788849744857647,-0.7561958952567753,0.03888839178173668,-0.07178345443245601,0.013267019223791005,1.537386337163431,0.021210791877293994,0.028442973587105812,0.04232971826029745,-0.02518104608254952,-1.417267014970033,0.08923368696750564,2.3671875
0.6673507305931932,-0.26673127388749096,0.5035892620496002,-1.37032116175814,0.07176621924306288,-0.12903564074540375,0.02484244637916792,2.7871144478244387,0.03807659055511715,0.05034040515363594,0.07662758843901554,-0.04526514780390078,-2.5690631781693836,0.16103811287544742,2.375
0.39530528248572694,-0.1577332951107279,0.2993082058637194,-0.8129536670496674,0.041983270833765844,-0.07709316275566123,0.014391946254404429,1.6528021460230522,0.022805935039476737,0.03049843054925575,0.045402885432892795,-0.027069011469769193,-1.5224591722811809,0.09578175036350241,2.3828125
-0.02886828483906813,0.012219755145447197,-0.0200410823496444,0.056883039458111344,-0.004559750102756455,0.00400725106054779,-0.0019641536778074713,-0.11752989451681688,-0.0010489038153117462,-0.0004897433015689785,-0.0032471643484085063,0.0013545750423476788,0.10970861889678904,-0.005985750471045244,2.390625
-0.06625617914140206,0.027189901223685854,-0.04893825787495774,0.13456966676306364,-0.008741525397449264,0.011250759789934332,-0.0034582153784298384,-0.274998508625901,-0.003191854215146131,-0.0032600313017015214,-0.007503881576960856,0.003907302977583625,0.25405763460698166,-0.01496361933058047,2.3984375
0.02942653789374521,-0.011227737340228383,0.022311084286997074,-0.060047743286937086,0.001697575575486161,-0.006964956822153441,0.00017055088390651365,0.12278407336186484,0.0021237164578661893,0.0036781358487876985,0.0034972939763083825,-0.002439530114296604,-0.11286079492465721,0.00796597197556787,2.40625
-0.20595458929793053,0.08295691565470327,-0.15477442541488,0.42305845688175014,-0.024087081122453433,0.03798201871416085,-0.008906741100978579,-0.859474128676378,-0.011144491705437845,-0.013532977079915449,-0.023508195122133303,0.013350835002276648,0.79386516587146,-0.048538866696725635,2.4140625
-0.4956069335477622,0.19896224993301015,-0.3718481515076532,1.015307039675876,-0.05576691620095154,0.09321357669156795,-0.020009252622086332,-2.066272309638542,-0.027385717678135437,-0.03464903159687021,-0.05674455060198549,0.032703955439714986,1.9076986467486319,-0.11801902460476527,2.421875
-0.3133709348590884,0.12600545904005195,-0.23392667262421576,0.6394811536637043,-0.03572534607302662,0.05830578507217843,-0.012928815922524052,-1.3036825380131838,-0.01706051644748516,-0.021281237986453778,-0.03582462846415654,0.020429356181808078,1.2045440518440471,-0.07424675386921584,2.4296875
0.13775331752171013,-0.05467835086735623,0.10529007046371448,-0.28557020818273016,0.013707938548796574,-0.027838339008055872,0.004433774929039063,0.5786862081383156,0.008317510720316754,0.01166552602899304,0.015943931704575906,-0.009782267177230453,-0.5322135549274616,0.03398461951625119,2.4375
0.2595122251827225,-0.10343951692335955,0.19593375451824427,-0.5332683793711863,0.0269561250689089,-0.0509544495673863,0.00904904837496304,1.0842741203033426,0.015098329683569956,0.02049351010056837,0.029896164344459346,-0.01786227220987013,-0.9996168589271204,0.06312248089017986,2.4453125
0.009529812978248828,-0.0032374454732069747,0.007359188376944085,-0.019498654245594785,-0.0005116565252459287,-0.003124598992234319,-0.0006116620937940284,0.03916972802679778,0.000997938197985768,0.002197723479025221,0.001182563594297979,-0.0010801373303474043,-0.036238337748687545,0.0031032215429017567,2.453125
-0.18404268621862485,0.0743865724725811,-0.13770345924808586,0.3763439585614436,-0.021673969363128147,0.033769063315721444,-0.008013520855505486,-0.7676721336030187,-0.009847938316741934,-0.011902090954230032,-0.02104440824719865,0.011834259783664675,0.7085224754559729,-0.043304397686771905,2.4609375
-0.14055504985275677,0.056954068382634365,-0.1041286923077504,0.285507734548659,-0.016796382050421776,0.02534091282777593,-0.0062784837152003396,-0.5837166967462297,-0.007342713858173424,-0.008680061408410714,-0.01605960149966712,0.00886005349395206,0.5396295607563601,-0.03285353057965085,2.46875
0.00015325859549898322,0.0004979655562053451,0.0018006707204868458,-0.0030870933950523562,-0.001348394349212887,-0.0015441003362074552,-0.0008723630301314877,0.004302045038385086,0.0005680775006324559,0.0015761892755366894,7.440420712215534e-05,-0.00055474421217978,-0.003078259216206294,0.0008526658295787363,2.4765625
0.10716566212684508,-0.04237361961388795,0.08154766965192244,-0.22107465024474388,0.01029195668552638,-0.02189848940245095,0.0031927391039075614,0.44895443410640073,0.0065311556597661335,0.009335882811957581,0.012341911682808742,-0.007670545560712774,-0.4143745880300679,0.026498133265032794,2.484375
0.09383166412308187,-0.036902270654600486,0.07084410655603876,-0.19255776862563204,0.008743009323812093,-0.019298337107883104,0.0026591441318550347,0.39089034716614623,0.005742629244117465,0.00834794397357923,0.010818275020974428,-0.006759191218538992,-0.3612546881989358,0.023361618294636913,2.4921875
-0.03355476111853449,0.014202318244585569,-0.02476817672660788,0.06826636105023882,-0.005194405249155185,0.004989026185799522,-0.002208232845041946,-0.14059835150584976,-0.001401487811916461,-0.0009069780663855944,-0.0037731418142117144,0.00173746539146604,0.1299961644565475,-0.007117245427129501,2.5
-0.034841998997430644,0.014590185617644334,-0.024789373028787053,0.06931950047841097,-0.005222634855916101,0.005132725367476879,-0.002200096977488305,-0.1431344811705974,-0.0014122608196807935,-0.0009254912072805487,-0.003885158823130745,0.0017675300475273076,0.13400407568659017,-0.007388269188588317,2.5078125
0.23293030865902947,-0.09287020374417385,0.17731037891276927,-0.4808982541146891,0.02419826575203555,-0.046079752403650316,0.008138825623516553,0.9767140254011708,0.013692274142964003,0.018680874993973067,0.026875901528249674,-0.0161996689732059,-0.8979843678324305,0.056875159981524204,2.515625
0.4120347759964319,-0.16465622697583174,0.3116528261063658,-0.8474802210045222,0.04377706024136711,-0.08024445358312736,0.015003889329623677,1.7233750391431866,0.0237425711161482,0.031738586519526664,0.04743945498407541,-0.028169559275677648,-1.5872574327385522,0.09985446322645967,2.5234375
0.13546581739497093,-0.053761398159977214,0.10264126591613049,-0.2784905620978524,0.013356663704135739,-0.027294127709285465,0.004285500406296988,0.5665843612093068,0.008117846494587282,0.011454659547492632,0.015675884814314565,-0.009575201775655821,-0.5216911165057115,0.03345077701369701,2.53125
-0.2783956000597353,0.11209826462492034,-0.20898335411323968,0.5709710365158207,-0.032028020805915484,0.051819840170381104,-0.011681572563430886,-1.1614454741626086,-0.015191352853336768,-0.018824439091928567,-0.03185356736696749,0.018182370727410736,1.0715748101552829,-0.06592238067782615,2.5390625
-0.29171228929984355,0.117415131008652,-0.2182915667746919,0.5970030512167479,-0.033400589784151634,0.0542935876729053,-0.012147595127709347,-1.2153254870607557,-0.015895410299192714,-0.019753740892834777,-0.033386770884927225,0.019032326167471355,1.1221411203659344,-0.06913280145094373,2.546875
-0.0008026915140920012,0.0008622357593622066,0.0011836547971871636,-0.0010925674508730323,-0.001444123462522654,-0.0013667338952889725,-0.0008874657262058543,0.00018025224300112684,0.0005208982722108637,0.001559931686816365,1.7995459716040642e-05,-0.0005103162201152801,0.0019579050781185687,0.000708148134157114,2.5546875
0.14576966140172795,-0.05782786949046625,0.11100212131863048,-0.3012061143189765,0.014567029616065071,-0.029336744215323656,0.004737764672459365,0.6107114628384486,0.008746270417505739,0.012247755151429411,0.0168407250205987,-0.010309650774419483,-0.5616512877575236,0.03588614237342978,2.5625
0.08146559387893411,-0.03204399875364728,0.06160750664156224,-0.16737865026842103,0.0073994690093657795,-0.016936351044316556,0.002185507593241834,0.3398896810497659,0.005060086461010443,0.007470129911902503,0.009437108446865131,-0.005928284068880068,-0.3131759426588996,0.020418620119188987,2.5703125
-0.03553404689555657,0.014823228100542155,-0.026678987117146672,0.07335032762078866,-0.0054582404492983135,0.005459675233283331,-0.002353392367014184,-0.1489477255835281,-0.0015482833840830543,-0.001114335840747216,-0.004005436157989464,0.0019380531001860007,0.13724001336285105,-0.0076777233250995254,2.578125
-0.20514916013761442,0.08275449651471507,-0.15347110027539862,0.4197262367850084,-0.02395940759270819,0.037773156919934416,-0.008839170113524537,-0.8546834792398251,-0.011041980100155979,-0.013469475432338653,-0.023467164558451784,0.013251699415996371,0.7888789246590016,-0.04836818266489741,2.5859375
-0.33223560715091155,0.13364507553454885,-0.24828201266841948,0.6786369435932759,-0.037799443433270415,0.06194338777311492,-0.013675574251029509,-1.383004125643712,-0.0181352078650155,-0.022708635764608416,-0.038052603143327694,0.021710948028672527,1.2768379435864108,-0.07885821071544775,2.59375
-0.1813687558678066,0.07319782043888257,-0.13497103180858394,0.369478026798938,-0.02128514233145689,0.03312858841705327,-0.007866295539892591,-0.7539384265310928,-0.009653999978345163,-0.01168385099031351,-0.020743760288799536,0.01160980023105894,0.6963867206931954,-0.04265712747218392,2.6015625
0.12865624651597807,-0.05098830041857422,0.09749704549331087,-0.26477467762542467,0.012609757853863389,-0.025996114562357057,0.004027760196715472,0.5378556259218135,0.0077382447482818775,0.01094337895507778,0.014848807205930403,-0.009114070453465477,-0.49575288254137057,0.031743814023818234,2.609375
0.21799625553886848,-0.08676888897418944,0.16439963895958357,-0.447422310402411,0.02236985176017236,-0.04299333482677463,0.007443739705535962,0.909974880299808,0.012747527645371994,0.017467682278791637,0.025122707584646947,-0.015073970538899284,-0.8390206436482316,0.05317419164863406,2.6171875
0.07354806461391855,-0.028901539456501625,0.056141214836408826,-0.15224030508711464,0.0065844087023433015,-0.015429730130485878,0.0019087626731172276,0.308205764797249,0.004660106059419279,0.00694760498216954,0.008544940705956629,-0.005416860093572483,-0.2831763188711015,0.0184870749962322,2.625
-0.04900728952564902,0.020234753341458262,-0.03545437521672894,0.09780649220913022,-0.006785167516552538,0.00788984238070248,-0.002760168804914405,-0.20209106000370694,-0.0021932474907089996,-0.0019703153320097927,-0.005530757671671533,0.0027461756392073056,0.18805705688591196,-0.01090529079916013,2.6328125
-0.10743192453501015,0.04373094160919447,-0.07905086106632317,0.21725672280133487,-0.01315266503072788,0.018970010216137305,-0.004982669786420131,-0.4454973136703654,-0.005483421675783759,-0.006244955978894536,-0.012227443637608987,0.006617168017866472,0.4117899628430798,-0.024848468989958048,2.640625
-0.06379740059362958,0.0262979770712435,-0.046274800427475,0.12828871064722241,-0.008370467147382172,0.010617094037498845,-0.0033136155909507374,-0.2635315319401718,-0.0030611011282107754,-0.003097394237352205,-0.00720397520932998,0.003685228335474587,0.24263412502194645,-0.014319531373111734,2.6484375
0.27342589724494104,-0.10887515643914283,0.20689412350309277,-0.5622184920930908,0.028542490636937992,-0.05373822854727794,0.00963779994038674,1.1429027774827525,0.015884039607622292,0.021520251337921275,0.03149066185806639,-0.018868857463737905,-1.0544830807026415,0.06657980057769379,2.65625
0.6721867549625307,-0.26876905410281865,0.5062281377027078,-1.3787961270829996,0.07217957567187407,-0.12981322312997615,0.024959661133580405,2.8056807648277604,0.03830540909558763,0.0506747004058912,0.07723434429574957,-0.0455287878713169,-2.5863531380009364,0.16221007129488302,2.6640625
0.5268278996015421,-0.21062300254595812,0.3968444690312288,-1.0803799879191314,0.05624110453002317,-0.10201514972456435,0.01935558235640624,2.198971919701914,0.030133205023490064,0.04008141674097615,0.060548061698550086,-0.035776056763615206,-2.0252475738799705,0.12730874057397057,2.671875
-0.11137067176713174,0.045063349516609175,-0.0825202783022009,0.22721113496973047,-0.013627310995563326,0.019819136807583872,-0.005188843419859814,-0.46241383635308103,-0.005735432176482582,-0.006534911426387965,-0.012678433894614663,0.006936751871712593,0.42942909268252344,-0.02581103972625001,2.6796875
-0.501585592547383,0.20143664491145707,-0.37548269644074916,1.025923412341536,-0.05633218906740996,0.09428631596423716,-0.020185467682478333,-2.0889259984480226,-0.027645854922605687,-0.03504164239412019,-0.057437061243477104,0.03303883712648413,1.9289041448226023,-0.11942311715134557,2.6875
-0.4476181317433209,0.17981729502810812,-0.3353103672920858,0.9154524937756087,-0.05046913072052668,0.08403605881614354,-0.018139752457801816,-1.8641896320442297,-0.02461938114268771,-0.031122317493533017,-0.05122905479420302,0.029455772374848022,1.7210554785663097,-0.10649160903947326,2.6953125
-0.46179057432071247,0.18546356018742965,-0.34698126330027024,0.9464669277045151,-0.05213656921981432,0.08687333452124461,-0.01876480007544981,-1.9256506928912727,-0.025486281445250704,-0.03222835355259596,-0.05287940151976519,0.030487926989781606,1.7768503327505647,-0.10995957099085904,2.703125
-0.5969472991012778,0.23963566248007362,-0.449056356467825,1.2248892366460182,-0.06698916768078238,0.11270927895913634,-0.023994875734234717,-2.4912353887232666,-0.033139529663472674,-0.04216272424365313,-0.06845225873795727,0.039574397876834734,2.297233442195365,-0.14244842519107345,2.7109375
-0.33405419757898047,0.13442301622946493,-0.25065378232195307,0.6846005803802142,-0.038101112178096724,0.06236380375122677,-0.013795086912323184,-1.3936236747316875,-0.018315105748612056,-0.022918025472645175,-0.038316902912418904,0.021896179832340632,1.2845620867394536,-0.07934237441383533,2.71875
0.30950467323048225,-0.12331476411598229,0.23433792475508317,-0.6373015141072494,0.03252473083808498,-0.060670090936385986,0.01107735587211551,1.2934608084093482,0.017961400648628643,0.024207692177734295,0.035582332916626394,-0.021304101783876792,-1.1925363590315248,0.0751603273727177,2.7265625
0.6994607942490686,-0.2795534915504992,0.5277722610696644,-1.4374374264546828,0.07526759931697313,-0.13511015525774187,0.02609324417465827,2.9210860946147106,0.03991316952536295,0.05274752832445874,0.08040116016466207,-0.047434814181924904,-2.692473964165057,0.1687651378166492,2.734375
0.5968957344040613,-0.2384964969016363,0.44990766429128765,-1.2255407446208806,0.06394631043156777,-0.11540611245027603,0.02207264387111521,2.491632131447026,0.03408758918844212,0.045195736085486986,0.06863202009706174,-0.040500139845541,-2.2968674107220077,0.14411902624629627,2.7421875
0.3342270518560587,-0.13322949236208795,0.25176822151046874,-0.6855841198609361,0.03509310067227606,-0.06520603471502436,0.011916939783225115,1.3940781460206235,0.019264403526965908,0.025928942212560233,0.0384331496579174,-0.02286313314111298,-1.2861092924983935,0.08106047659449729,2.75
0.1313713967898887,-0.05193260067118722,0.09954433580182533,-0.270283294149075,0.012896886142198036,-0.026537053294464357,0.0041365034495855525,0.5484336514048087,0.007877174313923426,0.011111782049135452,0.015127043631962328,-0.009303289620053848,-0.5064787464834349,0.0323999683205162,2.7578125
-0.042261627121197555,0.017548881130108218,-0.03015278840699145,0.08398239448627422,-0.0060191339352839235,0.006536248386917878,-0.0024942741426696407,-0.17322438461700534,-0.0018211567908910508,-0.0015050747597798256,-0.004767366192788703,0.0022734357828580877,0.16072084789295926,-0.009238846571937681,2.765625
-0.15933144792082882,0.064339332083918,-0.11782160717613849,0.323289400999571,-0.01877997311269271,0.028875037294376918,-0.0069852763802553865,-0.6598482768022467,-0.008369274951326574,-0.010012755903619759,-0.018162427805466914,0.010100086652795059,0.6111997925624476,-0.03732392110588508,2.7734375
-0.2292667645593901,0.09234196691257923,-0.17101378632442377,0.4677905490601463,-0.026504329865254934,0.042302975695898304,-0.00971954097397334,-0.9528908900283076,-0.012338691860036267,-0.015153202886431034,-0.02618018380304192,0.01482481757732273,0.8812204671224775,-0.05411023427778003,2.78125
-0.3802740601885436,0.152871560859643,-0.2854521670087154,0.7791110205006686,-0.04317723204033856,0.07125491138761492,-0.015597871176823831,-1.5856132164432386,-0.020900574449886404,-0.02625453056149967,-0.043521000149183656,0.02499707236035696,1.4631828583217443,-0.09035835128187904,2.7890625
-0.5178346283652567,0.207947667056346,-0.3890015892648704,1.061573832307115,-0.0582891616413646,0.09756251515309836,-0.020910845948102788,-2.1602318608915607,-0.028657360371124548,-0.0363233288702771,-0.05931458692039601,0.03422296524798757,1.9924904159376557,-0.123378075522171,2.796875
-0.3292909098671101,0.13236029051431034,-0.24642234859574544,0.6737445008627048,-0.037534938087735496,0.0614541493544645,-0.013590493476697225,-1.3716507979221153,-0.017999453307570724,-0.02248696210193289,-0.03768033558915177,0.021537034640639125,1.266233130220111,-0.07811556662246577,2.8046875
0.14091622101547685,-0.05596405537485979,0.10779942750969515,-0.2915124455412124,0.014080320382647145,-0.028465568936240353,0.004582621962302886,0.5916219763560547,0.008500357613105842,0.011929043671242694,0.016270777332368737,-0.010019669236249421,-0.5434768526186851,0.03475513082908994,2.8125
0.4088178423435247,-0.16317788355120486,0.3088072252736194,-0.8400868311604965,0.04339152171816344,-0.07960313717512223,0.014881945941347783,1.7079403978919676,0.023543747701935003,0.03147813355116997,0.046998441064602776,-0.027946009687869346,-1.5736627340742984,0.09904292243133803,2.8203125
0.2635517581935141,-0.104951707784242,0.1985774415700997,-0.5403364911090901,0.027356084166844635,-0.05172520790213427,0.009210044816150061,1.09930290107427,0.015300289033410292,0.020788090786548773,0.030318392024253377,-0.018139651267978927,-1.0135744748369522,0.06414403632506885,2.828125
0.08061230210869415,-0.0317238180797272,0.060813230780280315,-0.16469383219378908,0.007290565258402321,-0.016747394728184848,0.0021393694516948923,0.335783206898488,0.004988571971057997,0.007403475553176883,0.009333237520740082,-0.005861467920780559,-0.30931986345569423,0.020231811067502527,2.8359375
0.17755446285608725,-0.07059055855093986,0.13457779700151457,-0.36513676806607975,0.018021629456199825,-0.03537817641575466,0.005934880687191708,0.7425472469229643,0.010497636721154044,0.014547193245269579,0.02047386107334427,-0.012416428485567363,-0.6831953428057853,0.043524150364216356,2.84375
0.31468239433013656,-0.125485423787883,0.2384430650964182,-0.6480689511225921,0.033133007231201744,-0.061660139877678974,0.01127101335012862,1.3164294148560758,0.018265948741425904,0.024610026229063078,0.03621119997245427,-0.02165367560000093,-1.2119719392091701,0.07642761113240483,2.8515625
0.1576663794230872,-0.06254073100815592,0.12002661707440869,-0.32582889971682844,0.0158770301608271,-0.03159715632560048,0.00519024885916821,0.6604211061687287,0.009416358564439465,0.013097269124550734,0.01818041972040293,-0.011099669383370866,-0.6080690827138753,0.03868628460297688,2.859375
-0.14557712064866835,0.058955507837481526,-0.10894407844095001,0.29751789715658267,-0.017464212494321875,0.026452987147056347,-0.006564733501690397,-0.6069107268361171,-0.007702373313601546,-0.009134069277105732,-0.01661947150059818,0.009287114752274398,0.5593824871391887,-0.03412623134428163,2.8671875
-0.2585733246774022,0.10423025740575748,-0.19426673454736443,0.5296977300777088,-0.029878167905417877,0.04804102712810884,-0.010938816720678417,-1.0789771578935234,-0.014083813894056307,-0.017416989984244294,-0.029571255330350127,0.016874743212174095,0.9946193070886356,-0.06121536807541539,2.875
-0.2143127085689174,0.0864780370526873,-0.16038372739552564,0.4377611364899119,-0.024954280869290236,0.03947268326928354,-0.009186257043321024,-0.8927557234399701,-0.011556151384141481,-0.014147286437428824,-0.024485310608590067,0.013864071797583684,0.8238081087400864,-0.0505525502395846,2.8828125
-0.2209007522207006,0.08904478466897837,-0.16450515899776214,0.45004817009764847,-0.02559303203914805,0.0406491441921491,-0.009384393989854127,-0.918336855440293,-0.01187248324312399,-0.014573912070279554,-0.02525358527601644,0.014254736334013604,0.848232260834213,-0.052127835418107234,2.890625
-0.19856798550872523,0.0800403995045664,-0.14751704331867532,0.4044105199922753,-0.023139170795908503,0.036410522204561174,-0.008512691863581976,-0.8248796905880003,-0.010602634974341017,-0.012911959231308051,-0.022700572776915864,0.012745221425963033,0.7620677032832006,-0.04677069502224929,2.8984375
-0.010211937144720564,0.004601184974819362,-0.0064496638324781095,0.019375466277533906,-0.0025633894780012073,0.0005160879809764725,-0.0012892990238291427,-0.04041554191683847,-3.9587138417656744e-05,0.0008437492451367034,-0.0010755173027685824,0.0001517494202775254,0.03804366607923461,-0.0015562644540514786,2.90625
0.12534831054202944,-0.04967319671807919,0.09482570582534078,-0.2576322641675073,0.012223970573122755,-0.025307610616720724,0.0038936348982115594,0.5237185806475443,0.0075508342168113494,0.010728285725484574,0.014498734922755186,-0.008891861298428207,-0.48262029981446825,0.030976627116507158,2.9140625
-0.006704559839807968,0.0032056506499864128,-0.004475225747432298,0.013122988056287187,-0.0022525345079356567,-7.010224655505707e-05,-0.0011968614602840349,-0.027301894124358298,0.00012394407727964678,0.0010815292387610935,-0.0006517884932779812,-3.592017472602682e-05,0.025875002014929354,-0.0007241040357455181,2.921875
-0.13738366317843229,0.055541995778279576,-0.10207098219539097,0.28027500344470324,-0.01650593485303993,0.02481641911691462,-0.006186686519477254,-0.5712927793123652,-0.0071927766835727085,-0.008437934436095562,-0.015666851894426004,0.008676063378383106,0.528429127862016,-0.032061335858496326,2.9296875
0.04007301553067656,-0.015480450892048378,0.03196501597648789,-0.08442221783959607,0.003020585477973707,-0.009209082936419538,0.0007018951464292976,0.1703428293703251,0.002821441991083467,0.004550601832566398,0.004669965395927663,-0.0032688994498931857,-0.15485072277268752,0.010579469521362175,2.9375
0.29440501611251296,-0.11728663940954669,0.22308115963539765,-0.6059584269750102,0.030902855106745307,-0.05784211826275045,0.010501732276978534,1.231514946086488,0.017126129465896103,0.023122811558046467,0.033846610788264134,-0.02030997674257838,-1.1335249415437323,0.07163156944369654,2.9453125
0.2742221457962213,-0.10921198515314978,0.2071925393734409,-0.5635827487250711,0.02861814186310649,-0.05388501635325174,0.009665508190269647,1.1459712819711088,0.01594817174830835,0.021609165141575123,0.03155208399504005,-0.018896127346599352,-1.0553153602987162,0.06674006512941189,2.953125
0.08592856497946581,-0.03385135542659303,0.06501665562331212,-0.17629682850002554,0.007905091397681563,-0.01777656775301768,0.002347292424263146,0.35879073426998226,0.005298890711783747,0.007804574983215774,0.009975569068073783,-0.0062215817304298385,-0.33023829271507665,0.02149687234594357,2.9609375
-0.03769064443487847,0.01564291354885653,-0.027880125116975196,0.07720517431381571,-0.005638418133930105,0.0058447342822549155,-0.0024221605301379076,-0.15715878725404112,-0.0016767770494576035,-0.001257038373556552,-0.004200896743282106,0.0020571774027614725,0.14509199455562996,-0.008179866824876102,2.96875
-0.14226221487592877,0.05756268135279338,-0.10590361717904613,0.29016340853718,-0.017018238880490196,0.02570249526572944,-0.006398599356795382,-0.5918637436940857,-0.00751743822693057,-0.008883253889207647,-0.01621244966202289,0.0090092381073089,0.5462632674441958,-0.03325430407216064,2.9765625
-0.21049366466906289,0.08491147653585453,-0.15667337412961727,0.42871810230068325,-0.02443485409970585,0.03866867530784125,-0.008979177315298521,-0.8749004846874996,-0.0112921217982781,-0.013817605593761533,-0.024049938381504408,0.01354200729026941,0.8080166307215738,-0.049618976051769764,2.984375
-0.02620423202496435,0.011055488065590762,-0.01826797572572635,0.051361945609114446,-0.004275795776164139,0.0035443142960181195,-0.0018947811438914492,-0.10637605646122068,-0.0009143006587509404,-0.0003216908353263916,-0.0029004982789403396,0.0012200883570722305,0.09956209015355814,-0.005410346544908889,2.9921875
0.27822839847781716,-0.11092560793109117,0.20981702958321943,-0.5710617112177965,0.02898072008158622,-0.054487836233328237,0.009771460422836373,1.1616332430780334,0.01616030402686813,0.02188834098542089,0.032026286655385115,-0.019108824925699507,-1.0704950873619026,0.0676150910583795,3.0
0.2315947665706838,-0.09221350077500247,0.1741420606155045,-0.47477209739367726,0.02380653364354333,-0.04556885430755023,0.007944133369402818,0.9656205601045412,0.013497919161759691,0.018423518762636426,0.026652771791169157,-0.0159486589327427,-0.8907954034412814,0.056399589953923586,3.0078125
-0.16363998523709186,0.06615926283237572,-0.12262768552353018,0.33420204821732297,-0.019454167874475164,0.029823144295882432,-0.007238403490169523,-0.6822787212085536,-0.008705479271860467,-0.010450726653448416,-0.018713315344241713,0.010489754600577546,0.6287829521743178,-0.03844067151164466,3.015625
-0.3647498799470568,0.1466744991956555,-0.272740603456058,0.7447861694507347,-0.04137667050616419,0.06814234336312057,-0.014915705843431763,-1.5186688954689689,-0.019952300235914204,-0.02506391766073221,-0.04177094758924452,0.023886833261286957,1.401514339640792,-0.08665935371359865,3.0234375
-0.1704167546858241,0.06870763555791921,-0.12605186775546012,0.3462589694156822,-0.020027996393802705,0.03102998338617786,-0.00741088806911851,-0.7064767394530985,-0.008994437551691124,-0.010794083275213945,-0.01943750496119344,0.010838030692208222,0.6541576537155547,-0.039977578908480096,3.03125
0.07010797270365338,-0.02765030066738954,0.05421513412189622,-0.14532674983610405,0.006260574431209083,-0.014829629348505732,0.0018090325298864187,0.2954520346950164,0.0044919964647826376,0.006754958590741519,0.008163586030411635,-0.005235513021373458,-0.27003308726806785,0.017752928353193743,3.0390625
0.14689730225702186,-0.05823121915210287,0.11103912383718019,-0.30130888030684966,0.014575828662345577,-0.029441229537406632,0.0047204728702848805,0.6129094207048941,0.008745546142588703,0.01227631039438041,0.016932869224519278,-0.01033341929208395,-0.5648793613658051,0.03615905898016279,3.046875
0.1572962677822215,-0.06223729954254436,0.11882785862500908,-0.3227755230869234,0.015721229553764923,-0.031465941146036215,0.005131612966254839,0.6555618818825509,0.009315015162094617,0.012995792793118927,0.01809444445067002,-0.0110426134493922,-0.6054961664528752,0.03864461394487644,3.0546875
0.08046126894962587,-0.03152240761444745,0.06191169899750573,-0.1668025970361167,0.007415585892824204,-0.01688495893685438,0.0022239845731861483,0.3375087745291499,0.005043576857471049,0.007433874374877002,0.00930580957526623,-0.005950558420548484,-0.31088272019242985,0.02022774844180206,3.0625
-0.12975608670678698,0.05251128452241692,-0.09560360779101366,0.26297304977842073,-0.015541848700315667,0.023223521661335223,-0.005847746283866035,-0.5369906120251435,-0.006730848532372901,-0.007864941241474679,-0.014758211380439255,0.008107891384982833,0.4975975216751869,-0.03019808048480053,3.0703125
-0.2465199374747159,0.09923222597294051,-0.183940023307315,0.5029763376438802,-0.028396669666202325,0.045592159020866135,-0.010383833714821041,-1.0248772674687487,-0.01331655828956745,-0.016414914291059044,-0.02813621201327033,0.015973567349658557,0.9475303972807927,-0.05823285881160805,3.078125
-0.13609720953711527,0.05507090602525947,-0.10188481813554336,0.2783809536814723,-0.016415767104121327,0.024607731626483782,-0.006193756423128645,-0.5669617515577412,-0.007168496223202356,-0.008416032320482294,-0.015493981896636097,0.008642800408053878,0.5237263724491719,-0.031769223761526084,3.0859375
-0.04299562070497532,0.017812847507590327,-0.032093701250608626,0.08831093994505455,-0.006240042705406592,0.00684573903952818,-0.002623025343912591,-0.17946825784367945,-0.001955795960435049,-0.0016392405631244931,-0.004843716739459909,0.002423052859425255,0.16584462664840818,-0.009443302187793167,3.09375
-0.07633167858327904,0.031141187237622665,-0.05643786896778102,0.15553063326219535,-0.009807394709070105,0.013127415321195997,-0.0038566314714294017,-0.3168011674879246,-0.0037854291363605755,-0.0040287003633173255,-0.008678189355667085,0.004610285579089037,0.2933920829618813,-0.017434456271044865,3.1015625
0.02543283253640569,-0.009623989331235509,0.020742368625075707,-0.05463324114149049,0.001410489479485436,-0.00638115312837063,0.00011640377572595392,0.10922605525322512,0.0019918848274891234,0.003462393816684277,0.0030065683486876103,-0.002255047542014563,-0.09892991861707333,0.006993511593235619,3.109375
0.2775006098012562,-0.11057962933842952,0.2100441462435597,-0.571352320120357,0.028985064168238702,-0.0544817314337581,0.009813308755401685,1.1599814018198489,0.0161624167007176,0.021878925307138676,0.03194504033585798,-0.019130748399221787,-1.068605285377,0.06747777691639215,3.1171875
0.3240169625899133,-0.12924479245868364,0.24425124456266956,-0.6651968080628992,0.03398570389275101,-0.06326231642112846,0.01154374060411985,1.352253664258293,0.01872284884828621,0.02522792893856214,0.03729310184755455,-0.022195605337296906,-1.2468341827711182,0.0786357464648351,3.125
