AF3,AF4,F3,F4,F7,F8,FC5,FC6,O1,O2,P7,P8,T7,T8,time
0.29658995335528066,-0.11820775800935614,0.22431603622581478,-0.6089932445471252,0.03105580583548872,-0.05810891243078427,0.010537025742871131,1.2393037584659121,0.017213906820466047,0.02324024927239273,0.03409322705901848,-0.02041670922751627,-1.1432301801865807,0.07212260910936989,0.0
-0.3350320408087247,0.13470130418574167,-0.251380147627372,0.6871598784575291,-0.03821866687643737,0.06262684883818183,-0.01386554139082795,-1.3971069153228648,-0.018380836995568164,-0.022975028993495693,-0.038348373225887696,0.02197164181399288,1.2885181191382666,-0.07950928654549766,0.0078125
-0.6770192106777478,0.2716378370269453,-0.5088340837866443,1.3883477335024892,-0.07570079297318723,0.12794924816310235,-0.02705965247871289,-2.8245384514845577,-0.037652550270044376,-0.047990699291911215,-0.07755183835236003,0.04491162339289305,2.605514586732582,-0.16161182877897604,0.015625
-0.31825549179641194,0.12798685043878444,-0.23855525813257242,0.6516137760255724,-0.03632797851181719,0.05932906019405018,-0.01318304023428857,-1.3270327303996665,-0.017432050364267287,-0.021725630036986347,-0.0363936474985525,0.020828947227901125,1.2251722011731718,-0.07549353225959445,0.0234375
0.19431344205397505,-0.07724246372020438,0.14760051316560246,-0.40060339131329625,0.01990680405597332,-0.038653123312629954,0.0066250706791041395,0.8130258380304458,0.011472802434038688,0.015803137322583233,0.022388710284543135,-0.013573295239434659,-0.747688105073534,0.047548115848828267,0.03125
0.25170952213651226,-0.10021315866647347,0.19079439296811557,-0.5184019737130945,0.02618942001768629,-0.049576902386055534,0.008825628820555893,1.0530625068361605,0.014720054695263066,0.020011250785241293,0.028974489209792585,-0.01741845125227331,-0.968862033287971,0.061322890898461276,0.0390625
0.06663422763242563,-0.02610541109078311,0.05090731905054244,-0.13788524524549528,0.005823438902854294,-0.01410074651894328,0.0016289904528176786,0.27954244660297356,0.004262646948619693,0.0064386325494715955,0.007764341039704636,-0.0049603492286644695,-0.2562395196233818,0.016868702544415422,0.046875
0.06363445108737728,-0.024883923387522926,0.04809782077797298,-0.13108813061339492,0.0054296676779623625,-0.013456360001258369,0.0014801832476892937,0.26544160610500245,0.004061876991785051,0.0061841393744802966,0.007420341257565757,-0.004720125325194769,-0.24416814649244467,0.016102524598832758,0.0546875
0.07754747016060243,-0.03038805425522999,0.058895687643158744,-0.16052244744384903,0.006995022537297309,-0.016185492309288726,0.002060153589248102,0.3241000194326382,0.004882456464143767,0.007222499504454041,0.008985533898389067,-0.005684121160042251,-0.2983828746572486,0.019438813484170033,0.0625
-0.1777909765325507,0.0718937032108143,-0.13225543312199414,0.36156011722297865,-0.02088550211695705,0.03245196166158914,-0.007712191793981509,-0.7387095049539126,-0.009418753752608654,-0.01139410573513981,-0.020329395398781258,0.011358881689073333,0.6823777282131189,-0.041784080379848834,0.0703125
-0.416284772764884,0.1673137685211055,-0.3112266936101632,0.8505128611135925,-0.04698884250924692,0.07796855005955695,-0.016894851382705044,-1.7323713143031636,-0.022828745244826424,-0.028816107738178196,-0.04767981479354325,0.02732035968443121,1.5990301928428652,-0.09896691445373275,0.078125
-0.22338158099646227,0.08994867353507369,-0.16671635894364784,0.4565600779024772,-0.02592837108562539,0.04121007329722903,-0.009518436723625328,-0.9291600580884984,-0.01203744500326034,-0.014760724378034685,-0.025532009632281145,0.014444381470655403,0.8575960780230527,-0.05268380102038023,0.0859375
0.20560973920614292,-0.08184365092626218,0.15511002920465528,-0.42173666329651655,0.020998854474712822,-0.040659396300412334,0.0069671058458269115,0.8580125246462251,0.012036767110226257,0.016541584383101056,0.02368294479176935,-0.014250263785537355,-0.7915232410043738,0.050223547738557375,0.09375
0.3622709386709102,-0.14450426564353758,0.2729603734318328,-0.7434220011277004,0.03819657931233042,-0.07063869576672785,0.013027694947476104,1.5113313191114404,0.020853530703006082,0.027989881602730273,0.04165025683115541,-0.024764408383325907,-1.3939421977372617,0.08781361635919231,0.1015625
0.2029490613122101,-0.08072242150892744,0.1540253217331643,-0.41820469714588027,0.020855621603056984,-0.04031681002255354,0.0069482390179135016,0.8490132175347378,0.011940745057044594,0.01639821312471065,0.023382479075665607,-0.014149631258562919,-0.7818504258598198,0.049608409749073504,0.109375
0.12438644326168402,-0.049375837181568696,0.09551294357624818,-0.2576395573982071,0.012306778218370628,-0.025327825098382526,0.003939613385752157,0.5229851930235011,0.0075488372512378795,0.010698012558202656,0.014385010721348545,-0.008907421996857356,-0.4801633183775189,0.03075839390389345,0.1171875
0.2754460622043662,-0.10988271969822837,0.20855261738961794,-0.5662952680919455,0.02877844172823606,-0.05408090107508591,0.009714664131703656,1.1516824905346996,0.0160151189528578,0.021709961762804247,0.03170836354862921,-0.018981767999625688,-1.0605596275325628,0.06697761008919109,0.125
0.33535796321843453,-0.13371855895430923,0.2526287089476959,-0.6877538806268655,0.03521369734330231,-0.06542273352024804,0.011970275923504957,1.398634350211371,0.019334444820592673,0.0260233737473545,0.03855230549626537,-0.02294097763518907,-1.2897498283160835,0.08134324364208295,0.1328125
0.04063038059613779,-0.015548112116823172,0.030920585534224995,-0.0834513189889916,0.0029021525977164357,-0.009135036814357362,0.0006204569109816121,0.16860889876034357,0.0027550907783850166,0.0044740910753292154,0.004723630021367198,-0.0032031991398152153,-0.15564223497392773,0.010653467099054955,0.140625
-0.40498458575517327,0.16288254941948474,-0.3032503486352727,0.8286952974452712,-0.045809665718056246,0.07588155794214178,-0.016488626180239774,-1.6875524849702235,-0.022248723157225783,-0.028021582315934646,-0.046378281342970167,0.02658871101381544,1.5575396260872647,-0.0962346503947364,0.1484375
-0.5966163952864609,0.23952886023976117,-0.4467189481538422,1.2203039737629666,-0.06671461951153429,0.112419033360461,-0.023832187770582578,-2.484524053881051,-0.03297443741646231,-0.041963133591588146,-0.06832965763292217,0.03939011142188133,2.2936542982282924,-0.14221702685499316,0.15625
-0.40163206187581135,0.16140860504009732,-0.3006532339250335,0.8211189304589023,-0.04540447770491405,0.07523545797104847,-0.016356721186347706,-1.6721657986791594,-0.022031247124561063,-0.027740720083912044,-0.045951346084837016,0.026368869087831762,1.5438721330822303,-0.09547234625435769,0.1640625
-0.02809738817115999,0.011796016401117408,-0.020795170462891834,0.05704991055673297,-0.004601949525449575,0.004013058443517094,-0.002040572045459679,-0.11667302404028741,-0.0010901402245251282,-0.000515717190768062,-0.0031077960287417294,0.001419885868034827,0.10811011169949444,-0.005886806590162818,0.171875
0.2519181545224787,-0.1004384844618417,0.18959985087768016,-0.5164794374625022,0.02604836072412747,-0.04943018008481247,0.008725021324675342,1.0509713234306868,0.014641581919617204,0.019936025512309132,0.02901699066543688,-0.017319692558068017,-0.9687058835529062,0.061293187220256055,0.1796875
0.3170623233475607,-0.1266022941723154,0.23942363482394838,-0.6514525692728309,0.03328000256577491,-0.06196422603194521,0.01128911629736114,1.3249001396874567,0.018358475321504548,0.024754256500650555,0.03649690938888769,-0.021738937428099757,-1.220209582891848,0.07694288708647143,0.1875
0.1961144394287349,-0.07807909479748569,0.14916686803351625,-0.40491362814450954,0.020113822004869174,-0.038971836106606296,0.006686634343584351,0.821759247544574,0.011596726395697933,0.01594555639720168,0.022608222897003875,-0.01369182901060866,-0.7557807835512751,0.04793693614141308,0.1953125
-0.03093540142568475,0.013035121916236646,-0.02185380887667989,0.06092125965699371,-0.004792320188450668,0.004392632613767973,-0.002069194943974025,-0.12664165092212246,-0.0011998107250115351,-0.0006918373078618273,-0.003466928745866687,0.001526809109207482,0.11790520805214584,-0.006542584501162269,0.203125
-0.27572466677185414,0.11116733476963393,-0.20670332565151386,0.5641284233924999,-0.03170650567705125,0.05123075215510492,-0.011551099655872792,-1.1497335553558294,-0.015016660306292597,-0.018640457787330943,-0.031565963561990984,0.017973169112765322,1.0602888294904353,-0.06528570177767921,0.2109375
-0.4053545786939022,0.16305140883270686,-0.3044698936093476,0.8305689152654419,-0.04594457138526618,0.07603854772023587,-0.016570925091248846,-1.690854995149262,-0.022323013527880478,-0.02813095758061404,-0.04644422018579991,0.026680018822043378,1.5590616990378658,-0.0964016371958607,0.21875
-0.29396922775408685,0.1184011615137812,-0.22028789376988264,0.6019342849572884,-0.033682270572628244,0.054718239043105195,-0.012254882167576,-1.2253864462743151,-0.016046356330050617,-0.019976454377408064,-0.033679081788546755,0.01919415708704137,1.1301445406084745,-0.06968198986914888,0.2265625
0.011133009219349616,-0.0037731230811807554,0.009753699552371294,-0.024232437027554874,-0.00018048811019542562,-0.0036358456474214667,-0.0004520821675330153,0.047956594544433406,0.0011341829209358376,0.0023524985718034468,0.0013175862080641743,-0.0012908672630512876,-0.04376771504652523,0.003550445243453833,0.234375
0.30831240429529977,-0.12279046074750989,0.23354751037474214,-0.6343190606383075,0.032396227459467575,-0.060424107967575094,0.011031813370625854,1.2880014151530301,0.017883396026935096,0.02412733147749255,0.03544339681711089,-0.02123390192117507,-1.1869126719697511,0.07491109620305712,0.2421875
0.49203267835753245,-0.1964809009742728,0.37161583350768723,-1.0115625048460029,0.05250032190780526,-0.0954798076485345,0.018105504749833228,2.0551161862602507,0.028249296142713102,0.03760336120448573,0.05658565162996974,-0.03353977336823964,-1.893834819851238,0.11903003399780673,0.25
0.5948485200506749,-0.23785556636350189,0.44852723406403155,-1.2218446892907835,0.06374270980560004,-0.11507397475348972,0.02202280639542248,2.484630181207144,0.03402053058492141,0.045104095911851536,0.06843114084378746,-0.040383598899234256,-2.2897119970935558,0.14369087607858827,0.2578125
0.5403195799550528,-0.21614220519127886,0.40708449307474887,-1.1085710013514019,0.05775011976356242,-0.10463989476870432,0.019876551735697447,2.2567263234600934,0.030903561084477536,0.04106006913373739,0.06216566388762365,-0.03667891097197573,-2.079700547426855,0.13057989509871973,0.265625
0.1846563667631496,-0.07362352611151735,0.13959296718335978,-0.3786001756079767,0.018764218266904834,-0.03671060963731571,0.006174450893625372,0.7720020172677876,0.010874092265953171,0.015041413764574584,0.02130038974727036,-0.012845825729775388,-0.7105644677625979,0.045223962910808886,0.2734375
-0.3208462446041873,0.1290341475966612,-0.2400627039970944,0.656764183579837,-0.03660897531637543,0.059818242628861436,-0.013257369534679146,-1.3368582692343254,-0.017528775018677792,-0.021873562877529607,-0.036746390285371563,0.020974444361237597,1.2344671470529596,-0.076081846812972,0.28125
-0.5902287070292686,0.23704490641319279,-0.4421832263959821,1.2074406334468182,-0.06608386792294922,0.11124374503545077,-0.023607943423905865,-2.4595206787277015,-0.03264468883169537,-0.04154036307599011,-0.06764519525298879,0.038984087254499825,2.269874965836407,-0.14073663666278072,0.2890625
-0.5228232754566086,0.21001774455925779,-0.3917380658797201,1.069202752636177,-0.05870260911818035,0.09839639430774838,-0.0210433637006344,-2.177961434584556,-0.028869344190083798,-0.03664862662388938,-0.05987451484989433,0.03449182997469372,2.0096526694965537,-0.12458360641287076,0.296875
-0.37433718382429,0.15050494028965913,-0.28093576473645704,0.7665550224865407,-0.042513869764342634,0.07013871038955584,-0.015387333667378421,-1.560352606869261,-0.02057724645397284,-0.025856705790348284,-0.04284102724691506,0.02460800132804616,1.4391489929989894,-0.08899019265801603,0.3046875
-0.26660805532079696,0.10741588609310332,-0.20051117127768714,0.5471561402941613,-0.030774357772770277,0.04963976098884495,-0.011262151924753983,-1.1132608668743877,-0.014556207030308785,-0.018008678854596855,-0.030531920535171807,0.01742424457248047,1.0263976810425164,-0.06318614891110211,0.3125
-0.07655060161546466,0.03136876339137061,-0.05722145613370019,0.1568207930692316,-0.009900660025618329,0.01327211416060903,-0.00389330413208695,-0.3201988055282183,-0.003834822895143968,-0.004084197254751293,-0.008758907228217384,0.004655621901254321,0.29554122939792116,-0.017583853023186363,0.3203125
0.14419084414474206,-0.05707705811898709,0.10970915269068901,-0.29771555889258383,0.014397069024314346,-0.029041678197752625,0.0046809249639626705,0.603409112471181,0.008653155840377099,0.012111465082287082,0.016598323522732075,-0.010200606802828529,-0.5553501048837206,0.03545525238831043,0.328125
0.16733819296250205,-0.0664553510252706,0.12757237021912698,-0.3460318113020575,0.01697014768976205,-0.03351885776862395,0.005590523249653439,0.7019094875947334,0.009987769112514061,0.013837204168728526,0.019315996488853477,-0.011780165888965537,-0.6459127981966724,0.04109436357692466,0.3359375
0.06915303042646549,-0.027170234998268303,0.0532777676856899,-0.14371088921099742,0.006141279036838675,-0.01468307604279863,0.0017648709931563477,0.2912365997571843,0.004426966307539532,0.006642189414419558,0.00808433492878859,-0.00517144356289183,-0.26758430382111675,0.017560552140038873,0.34375
0.15286118029189488,-0.06062515472218142,0.11555631082052266,-0.3141718820722547,0.015240820618529216,-0.030607206435321964,0.004955990646023683,0.6382467716662203,0.009089669373794337,0.012727868585617851,0.01767430098849604,-0.01074302842045759,-0.5878563931432971,0.03763314975924294,0.3515625
0.32288167370702026,-0.12864835575175648,0.24348971864774993,-0.6631856907634766,0.03389448169179288,-0.06314418733601189,0.01153526263444463,1.347478350513178,0.018671954789230134,0.025163870863490263,0.037147836963354726,-0.022148287363620095,-1.241494009431339,0.07842975753875248,0.359375
0.1766849337078638,-0.07014573839972969,0.13436224874100483,-0.3648975424706326,0.017969468687259463,-0.03531204017218095,0.00595776280882556,0.7399565358346122,0.010510313979171617,0.014525940943143712,0.02036251955761601,-0.012401408015393557,-0.6805325174175137,0.0433471536486898,0.3671875
-0.1576802089449038,0.06362034108934599,-0.11654677670456465,0.32017372087428636,-0.0186177668229669,0.028574520713977317,-0.006919739719620579,-0.6531933597652778,-0.008278847153995657,-0.009890145444240939,-0.01798064809140969,0.009988761051992858,0.6043916482073833,-0.03692695476306559,0.375
-0.06916560354789311,0.028079937273144433,-0.05049318070944865,0.140058111504452,-0.008982762660236057,0.011786142359830415,-0.003568581039216935,-0.2853335403341168,-0.0033565451198528497,-0.0034654159418160985,-0.00781296285506283,0.004111634199038188,0.26431930360018874,-0.015744619857166377,0.3828125
0.42079914039808414,-0.1680796234589727,0.3169278014511372,-0.8627263684951507,0.04458838679515487,-0.08171923094745448,0.015251220902031003,1.7555045802334264,0.02413485455408537,0.03227179849486358,0.04837099029281241,-0.028651800652544746,-1.6190667457083343,0.10180219625352854,0.390625
0.5127730713630302,-0.20477653520638406,0.38579049981117586,-1.0511048924186008,0.05463437696005731,-0.09932113705776258,0.01879999539015177,2.138087693306792,0.02930240538416996,0.03896929098780015,0.0588779329821293,-0.03481186980703232,-1.9724060399625285,0.12388586893212093,0.3984375
-0.03778674456840084,0.0157474240630058,-0.027433348806471643,0.07619745709502085,-0.005597761770125041,0.005742827531251483,-0.002359674477539584,-0.15631215580726013,-0.0016125368812301654,-0.0012239425128940911,-0.00429053066261511,0.002017363206012749,0.1445000301225229,-0.008201637745155562,0.40625
-0.4432855361219136,0.1780459592024223,-0.3315780229489701,0.9063792532547149,-0.04993546489880272,0.08315113580787732,-0.017953624192401554,-1.8452439593447736,-0.02438094553493191,-0.03080991767569509,-0.05077320184007564,0.02914350411402449,1.7034629329599313,-0.1054874163150522,0.4140625
-0.23195930448773405,0.09336135948342385,-0.17298844580365366,0.47369907176663245,-0.026823327422014244,0.04284866713527377,-0.00984407864190269,-0.9643758941228295,-0.012518626907544347,-0.015379329434542744,-0.026501097063619732,0.015011071967872608,0.8911926112751983,-0.05477131049855162,0.421875
-0.015117696497165616,0.006641272009164665,-0.010863544028761251,0.030468469148669367,-0.003186755951425408,0.0015229567495155436,-0.0015394747459421126,-0.06283949058482342,-0.00037765826078151683,0.00041082768722406634,-0.001632822944015472,0.0005331654694927051,0.058597284006137736,-0.002734146774307346,0.4296875
-0.3040629650475255,0.12252494488427362,-0.2282665860222209,0.6228392485233847,-0.034864219877345386,0.05670373801478048,-0.012665876743479538,-1.2690690255496595,-0.016638743992371634,-0.020719371700703065,-0.034791564876361605,0.019884740577157667,1.1704988437509727,-0.0720489822177956,0.4375
-0.6043717286935031,0.24279138949206625,-0.4531709437321921,1.23691979376356,-0.06764221421820436,0.11394466801333772,-0.02417120044370849,-2.5191458977375953,-0.03347046055139494,-0.04260227286938687,-0.06922491951774025,0.0399398004172038,2.324444379498453,-0.14407997678322088,0.4453125
-0.3658582435424551,0.14712535492315199,-0.2731923528870739,0.7468162555709114,-0.041413521471882916,0.06830855208920358,-0.01493685127167938,-1.521851759427751,-0.019998193790887044,-0.025104475898891438,-0.04183915554929326,0.023924030786146674,1.4058370075374038,-0.08684369672339191,0.453125
0.09571661192432555,-0.03780513967442065,0.07331079202681878,-0.19855288566480536,0.009093250411643493,-0.019783162800784213,0.0028142262291863413,0.4022992948161621,0.005946683667108764,0.008613690329851176,0.011105556716023722,-0.006955306633553294,-0.36921269458586053,0.02387684516660507,0.4609375
0.25530693812300553,-0.10168568364082874,0.19232345168251697,-0.5238705475483144,0.026452172702076483,-0.050131892207188604,0.008893958420585348,1.0652418857871895,0.014861597668760584,0.020208957373821713,0.02938910193021245,-0.017574743300954234,-0.9819507582705833,0.06213027655435967,0.46875
0.1859100795363435,-0.07391580203143398,0.13996680636293982,-0.3810146386813718,0.018827154640198736,-0.03683711083491966,0.006195868621823989,0.7754031648706802,0.010937773887788596,0.015115327156418812,0.021423320683585476,-0.012903763163300663,-0.7147085435351453,0.04546288967239173,0.4765625
0.21572433438504088,-0.08595723223254938,0.1630270986029333,-0.44325117296861827,0.02217462187901312,-0.04260946924822162,0.007383748006598102,0.9016516367899466,0.012653887996875645,0.017342353918589168,0.02485492016716982,-0.014938550614385844,-0.8298939024388651,0.0526188128784792,0.484375
0.38170258226760634,-0.1524217768347825,0.28842763043088665,-0.7847759781939269,0.04042746938415728,-0.07441287458066498,0.013831594056205565,1.5951363497697144,0.022027322962815885,0.029511245011088087,0.043887390482498366,-0.026108142220367312,-1.4690303135119156,0.09246025409473793,0.4921875
0.5221086519996907,-0.2085066660983682,0.39413875724125896,-1.0728370472572903,0.05581928484022531,-0.10127998328140873,0.01925946408805837,2.180486242929046,0.02992018396811433,0.039745901902977325,0.05996940960576834,-0.035540213369479066,-2.0101047037323725,0.12618497802868434,0.5
0.4880837160779218,-0.1948101263195464,0.36839862825352093,-1.0025781029925105,0.05206745225414851,-0.09475641401654986,0.017924243361933538,2.038219969684708,0.027980116374512636,0.03720774379999874,0.05606333248677686,-0.03325108434545673,-1.8801221914034336,0.11804515218474508,0.5078125
0.18600116007937334,-0.07390123329541551,0.14094126585442024,-0.38263547181724405,0.01892043020888123,-0.036965296226770424,0.006240689452861743,0.7777515298915206,0.010963439664028653,0.015107938854657395,0.021424550282986097,-0.012975664669005139,-0.71759276543976,0.045529785805961814,0.515625
-0.27834061659756176,0.112041487754767,-0.20853915404797277,0.5699576314867852,-0.032017626837260296,0.05182290896492753,-0.011678702758121743,-1.1605203038649086,-0.015178805286832825,-0.018827179630433268,-0.03185714363803712,0.01816514129486661,1.0703937534715031,-0.06595249207708513,0.5234375
-0.5919017210411549,0.23771026854093874,-0.44425467597444646,1.212896436370324,-0.06637920894872368,0.11170999762483798,-0.0237415881666158,-2.469382092293954,-0.03281955969868527,-0.04173300560987202,-0.0678626582116603,0.03915905825300489,2.277463331139117,-0.14120529964008455,0.53125
-0.5940379113801901,0.23858227065221493,-0.44527821526486566,1.2161514349207336,-0.06652653096062693,0.11199334509995976,-0.023768831879823434,-2.4765843185848095,-0.03289685007110636,-0.04185118335435985,-0.06809248555641018,0.03924933836945373,2.284640118570783,-0.141653307960956,0.5390625
-0.4293064330419173,0.1724858411929335,-0.3209605891747406,0.8769841589994204,-0.04838684968679646,0.08041969581363784,-0.017389285383369507,-1.7866036854819602,-0.02357671845825171,-0.02975994158734746,-0.04911924389257763,0.028181623323248018,1.6498868279411374,-0.10205425305415834,0.546875
-0.21084022324884058,0.08489433204852055,-0.15709945253271992,0.4294026898836287,-0.02447159310049712,0.03873358677779223,-0.009007280964506656,-0.875135853237072,-0.011295294530171408,-0.013790003360543836,-0.024006054362897333,0.0135827654845962,0.81025164917538,-0.049631045503714916,0.5546875
0.10967812767802033,-0.04346865122869716,0.08295320214048785,-0.22555853855349078,0.0105357983732665,-0.022348584786202406,0.003273873576386821,0.45906906021832244,0.006668050113165136,0.009578254550688416,0.012738257731156132,-0.00781715162639767,-0.4210948316214109,0.027227616012401992,0.5625
0.4045893720859778,-0.16156618427651695,0.30432399454459974,-0.828857152785842,0.04278742877746437,-0.07862689982943959,0.014619198010269101,1.687348065131604,0.023223016182875228,0.03109324121907628,0.046520869800003584,-0.02754993199105055,-1.5552821606044096,0.0979683781685534,0.5703125
0.3320994559713914,-0.13251750543483948,0.2504677503798859,-0.6815033057600124,0.03490509808803322,-0.06487825112286273,0.011884135405413299,1.38625830619447,0.019191160970255607,0.025828746105841627,0.03819025855969601,-0.022749584185461334,-1.2778509748274338,0.08060246716387012,0.578125
-0.11445799107050537,0.046413950919285775,-0.08447815231403918,0.2320304996396393,-0.01392811087857881,0.02031660603478091,-0.005261719609515311,-0.47429943778354566,-0.0058695070736378896,-0.0067560236599656836,-0.013031805712887892,0.00709914110675754,0.43858236040747006,-0.026530042060502742,0.5859375
-0.38390848291953406,0.15442091741753458,-0.2871298005297214,0.7844937645111175,-0.04344718556253646,0.07182551872598672,-0.015659540376251828,-1.5983804305560037,-0.021037847320174812,-0.026457286933844148,-0.043948314417751516,0.025157035912179097,1.4752109672691214,-0.0912243112026639,0.59375
-0.05082229961727105,0.021026225747412433,-0.037492906772753534,0.10341716303518908,-0.007044064145574763,0.00833488632007207,-0.0028965885289344902,-0.21123806202676337,-0.0023679188142740003,-0.0021783594498454976,-0.005754424519047613,0.0029117256151232995,0.19496164154213266,-0.011362595388577522,0.6015625
0.5248582762114795,-0.20954900418487776,0.3948782150419778,-1.0758792967090882,0.05595998370752886,-0.10157244271643906,0.01924922434939055,2.188472317452203,0.02997719632144151,0.039846165463878466,0.06026874857128064,-0.035616921210654684,-2.0191635142045055,0.12675198141894548,0.609375
0.6418625266798261,-0.2563868980693758,0.4833610524275934,-1.3169539017545393,0.06882286938431222,-0.12400911993010623,0.023800496331811593,2.677547423940093,0.03659507450813419,0.048417471110998575,0.07368380882322402,-0.04349798721246544,-2.4700796222238903,0.15485950140682272,0.6171875
0.20330222367733092,-0.080795446508121,0.154553000250825,-0.419713139107638,0.020887818879771126,-0.04036151385229964,0.006969814340173704,0.8510969010409493,0.01199649714932771,0.016439569455697772,0.0233982527170783,-0.014184158559379809,-0.783921334943144,0.04967426983114429,0.625
-0.226371969632436,0.09111434407669043,-0.1682194689495743,0.46077574130639637,-0.02613311906797684,0.04169205611448724,-0.009574657347214015,-0.9392936596145167,-0.012143965485517138,-0.014907513845044488,-0.02583897888187903,0.014594270209437493,0.8692905616906087,-0.05340096119765763,0.6328125
-0.25875081639798536,0.10397956506811111,-0.19326541902129546,0.5286155498530493,-0.029755805102060606,0.047977236081331,-0.010879153197060532,-1.075711151579876,-0.014011927362055207,-0.01729975054005571,-0.029526484521817394,0.01682450786015171,0.9952293751524423,-0.06118527918119703,0.640625
-0.10677467286724035,0.043236089560274166,-0.07988517510843487,0.2186775572104313,-0.013228486085125224,0.01904373736693174,-0.005078238555543205,-0.44505246507129664,-0.005534236332581964,-0.006271428775633771,-0.012129834961632063,0.00669745125876775,0.4115824823251234,-0.024752638588109444,0.6484375
-0.11944408954456379,0.04850651130224066,-0.08941600494001078,0.24457304310735734,-0.014639106111831173,0.021428184736174277,-0.005547907116641609,-0.49914704284580325,-0.006255776700051177,-0.007227653078319549,-0.01363799607309562,0.007523893376441315,0.4598441780962629,-0.0277880906933422,0.65625
-0.2968351383188722,0.11959276911082643,-0.2218895592732339,0.6066352458543006,-0.033966954951608314,0.055180826303897396,-0.012308556936675204,-1.236791912344552,-0.01616799155020204,-0.02013252382216679,-0.033991773982277915,0.01932924998243922,1.140848247193988,-0.07029413002170831,0.6640625
-0.3811189302183825,0.15325350740691182,-0.28460426536980143,0.7784351027927535,-0.043105656410298746,0.07122121807052204,-0.01551732229527558,-1.585838920649482,-0.020855549716362633,-0.026228703892539635,-0.043624721244212135,0.02493406431654292,1.4643142665403166,-0.09047713006633121,0.671875
-0.1978361758470292,0.07979617068637619,-0.1472841726298143,0.40366531875200606,-0.023071981145063564,0.03630061415358052,-0.008500535638136514,-0.822240963850572,-0.010577466636843797,-0.012860014035148965,-0.022587028227171967,0.012701614481621914,0.7598833607395327,-0.04653524870338485,0.6796875
0.16383179522229502,-0.06501731711203852,0.12362563591495315,-0.3361639156108174,0.016427345620317262,-0.03267135735087067,0.0053666537128465395,0.6833287840019806,0.00969508969010006,0.01349327457310473,0.01887638284019286,-0.011454477914532737,-0.6303177983336865,0.04018277217262798,0.6875
0.422706882583799,-0.16869972360291668,0.3180593060779609,-0.8667713924085823,0.04476313785736362,-0.08213016035889772,0.015335566674330173,1.762464092397245,0.024242570312925288,0.032394934994011616,0.048559262006332066,-0.02878682072440584,-1.6260880528820905,0.1022856892323794,0.6953125
0.374009921212686,-0.14930500112227374,0.2822861415815084,-0.7683490283893029,0.039540909767051234,-0.07292568346484493,0.013509689967888048,1.5621232058450583,0.02155754841538786,0.028901028845768142,0.042999746669100274,-0.025573959292416695,-1.4398186718579427,0.09062419822973346,0.703125
0.10826322110903905,-0.04297260777493912,0.08318940573382955,-0.22447111778711573,0.010523788390960642,-0.022204815731037823,0.0032987940175839186,0.45616157320133394,0.006651499902130653,0.009532649835030906,0.012548328026566495,-0.007802207364976233,-0.4184353393848894,0.026864984283078455,0.7109375
-0.10639103108173749,0.043041129509008666,-0.07855430651148106,0.21633071253272207,-0.013040188721350252,0.018866727687772745,-0.005003828624458138,-0.4401427968939369,-0.005447039297962103,-0.006183118703642155,-0.012074242337728351,0.006603745415577405,0.4077247810385586,-0.024648896563292944,0.71875
-0.13973973914996865,0.05653347791767597,-0.10450329019586825,0.2860250446409052,-0.016809630794043816,0.025327368129464102,-0.006338846070802,-0.5819983185532743,-0.007376631471742518,-0.00868566425884275,-0.015917008250772156,0.008881718012127202,0.5373945205122491,-0.03264430611213876,0.7265625
-0.09658319260034987,0.03931512367771485,-0.07230429920920066,0.19770048751154268,-0.012107294473025361,0.01708642857716872,-0.004685012198389705,-0.4028005227952907,-0.004963053756010385,-0.005551745757487144,-0.010969931694321327,0.006001768933759853,0.37220214107658683,-0.022280452462603025,0.734375
-0.09633577907262356,0.039188481517486384,-0.0715224552276824,0.19592431579860933,-0.012001199233453642,0.01695062767072212,-0.004633758358436556,-0.40010110404042126,-0.004907755451644191,-0.005495209393588247,-0.010939323913416645,0.005955739127266716,0.3706388847530196,-0.022230169361318084,0.7421875
-0.0584142733955904,0.0240060571555722,-0.042379588869666106,0.11691962273555181,-0.007786957459513681,0.009631289552514627,-0.0031219817378540324,-0.24061707744941094,-0.0027268746219485597,-0.002679750487372537,-0.006605668958201219,0.003371862096846791,0.2236482731946887,-0.01313567185551214,0.75
0.14537383630340506,-0.057537023900053885,0.11083494976267708,-0.30076578441191565,0.014511107908721217,-0.029266216104760323,0.004741460381716374,0.6085626710567235,0.008738418688809856,0.012221094437645246,0.01675084804427934,-0.010302446737959376,-0.5603176116557155,0.03578122535589952,0.7578125
0.33691306120400716,-0.13421770083387846,0.2543485708885345,-0.6922152035596402,0.035432632346429245,-0.06575134283765303,0.012086725577200566,1.405817720286197,0.019473344139911596,0.026198003150689195,0.03872679880062175,-0.023114078610873275,-1.2959647970721322,0.0817509231767805,0.765625
0.15709662832476662,-0.06226727497025282,0.11872375311158881,-0.3226919879690928,0.015698173793132403,-0.03135228003081852,0.005119243665543626,0.6552131797889479,0.009328994053254401,0.01303796467212862,0.018113455131869193,-0.011023864228307326,-0.6033736153443064,0.03857811934259016,0.7734375
-0.3037340523969717,0.12221266726630876,-0.22773229356140634,0.6216483765837799,-0.03478408139542168,0.05660717389238196,-0.0126346077138192,-1.2661500454650296,-0.016579564571311402,-0.020639612050211493,-0.03475715238292269,0.019866057462557103,1.1687432486922487,-0.07202559229674857,0.78125
-0.46384948132695236,0.18629463445774808,-0.34763692957039904,0.9488142949501189,-0.052281140878749056,0.08707281804889608,-0.018762656813346424,-1.9325597703657833,-0.025549581465125978,-0.03232643034665869,-0.05314181322270753,0.03055854045614053,1.7829617813058753,-0.11042818242233682,0.7890625
-0.11988824065515906,0.048501343089029716,-0.08847058537231645,0.24321398515184434,-0.014526533772426827,0.021319194682286158,-0.005475743103678673,-0.4965315898937753,-0.006181365840852148,-0.007176342996700752,-0.013682170879420322,0.007467964546666892,0.4583101793732597,-0.02785490700961597,0.796875
0.23069212454241889,-0.09194038016599111,0.175201679134484,-0.4748021914990292,0.023916067948063682,-0.04558535499899071,0.008019961766544775,0.9661046167198273,0.013526872462353453,0.018440423867718644,0.026551818667195057,-0.016020617492551723,-0.8905086420410784,0.056273729463774326,0.8046875
0.25167717855171956,-0.10033583247773739,0.19042886029729678,-0.5165908264794765,0.026162797024858332,-0.04948550997505871,0.008778273222816994,1.0524235158067123,0.014670329399074342,0.019946606127165454,0.028970932484330726,-0.01737786143145718,-0.9699770615881756,0.06128648304473798,0.8125
0.20061600624936138,-0.07984167108012216,0.15136947561752892,-0.4111128768377101,0.02048467436167436,-0.0396796311543555,0.006768039460990559,0.8375567939430923,0.011754816942520384,0.016179004261873037,0.02312133263209308,-0.01391009982477454,-0.7717388830101058,0.04902931373405351,0.8203125
0.1889506631076977,-0.07513232151789569,0.14249090281949053,-0.387425540344415,0.019189550057100394,-0.03749220548662376,0.006322737546645593,0.7880716915198852,0.011080757694825485,0.015315830949975994,0.021790945465000624,-0.013128084358672127,-0.7258678319157787,0.04624407199628075,0.828125
-0.07205861826707807,0.02943428054583545,-0.05322504052703901,0.14645846720042302,-0.00934398704434778,0.012277424767710933,-0.0036862361539914896,-0.29966100997441086,-0.0035686512116414265,-0.0037246678418634952,-0.008152920343612731,0.004317482115188834,0.2777114642773804,-0.01638578399174614,0.8359375
-0.4821245953428249,0.19370042935525145,-0.36096279263845943,0.9857867954481822,-0.05420898884083624,0.09054921489518415,-0.01944182518336743,-2.008381270719242,-0.026577227202239453,-0.033640828061963036,-0.05519890996822024,0.03174803072073601,1.8539422072126,-0.11478615265925879,0.84375
-0.4659311097535192,0.18722099731944972,-0.34878678785834305,0.95233652321323,-0.05244576217901931,0.08748435137369927,-0.01882475778190273,-1.9402367212591645,-0.025646791536141314,-0.032440719443204084,-0.053328907743775564,0.030659977495833785,1.791116576888989,-0.11088579777230123,0.8515625
0.04409320668362657,-0.01705946680387436,0.034058322215251714,-0.09215106721617312,0.0033568999041838736,-0.00982836282062144,0.0007737883377859523,0.18578230121196956,0.0030034481486163277,0.00479941567350295,0.005193529653124651,-0.003466595179601608,-0.17005096308156378,0.011491537675455214,0.859375
0.41390901829945165,-0.16514414698406543,0.31149645733518355,-0.849211005562191,0.043812129636834805,-0.08037238564877915,0.014986050533216909,1.7264501883114056,0.023768908051710544,0.031789352549010295,0.04759587120514293,-0.02819778622020504,-1.5915009892480791,0.10017346073037142,0.8671875
0.2534187212329033,-0.10080802836017448,0.19096681260341344,-0.5205673009555057,0.026255090119421984,-0.0497476133872633,0.0088303898446469,1.0570994969796859,0.014766574666484913,0.020069120717924483,0.029137338735244347,-0.017456286281556863,-0.9742096780973885,0.061619621758296196,0.875
-0.15358963816031343,0.06218172629908805,-0.11422770552812432,0.31251621380459804,-0.018245386694933387,0.027863745721199023,-0.006790782750538514,-0.6382910389311587,-0.00806953456179506,-0.009634741608856546,-0.017571836101377265,0.009752997980158966,0.5900026914322035,-0.03600324585407252,0.8828125
-0.3600102954064021,0.14472661189134725,-0.2689064348080459,0.7353605611347126,-0.04081779083292607,0.0672255895014681,-0.014729725740088545,-1.4976334212530782,-0.01967011418445146,-0.02470556495968137,-0.041223153552797265,0.023554188089860244,1.3829591850761467,-0.08546551724147776,0.890625
-0.18226691773293582,0.07343030104958005,-0.13572470186545346,0.37223120551084243,-0.021408529586238605,0.03335072928071747,-0.007933382455616953,-0.7574211459805943,-0.009728091623387908,-0.011753960029725464,-0.02080116366743079,0.011689832802926299,0.6997347866404439,-0.04281388117533597,0.8984375
0.2410669440243996,-0.09610174745382655,0.18179698335032188,-0.4944184510896127,0.024891505804110287,-0.04742712905635572,0.008330917069713974,1.006090401269763,0.01403022563559985,0.019136512958829958,0.02776111495263477,-0.01662084840223426,-0.9277146993346912,0.05872286788130079,0.90625
0.5395817297105137,-0.215582617241589,0.40633372653980393,-1.1068354448050655,0.05762471469567831,-0.10449900310974705,0.019858416014727185,2.251205815110642,0.030833396556252703,0.04095840711333604,0.06199137691502463,-0.036642304874193385,-2.0762403774319553,0.13035588388524746,0.9140625
0.4753763907244771,-0.18984839980269877,0.3589692686024333,-0.9766977147383137,0.05070444623826967,-0.09235399904667228,0.017451382264443493,1.9856786537985958,0.027278664352075092,0.03632515734691764,0.054633943639638756,-0.03241072224028022,-1.8303625507278785,0.1150000010971196,0.921875
0.2233285705431804,-0.08892206158830712,0.1699060660701227,-0.46054048735839986,0.02314010299834876,-0.04422461545424449,0.007760491604563861,0.9355616609694571,0.013126947268767121,0.017942715389217243,0.025739626175829457,-0.015545809613661182,-0.8610415345952628,0.054532900609483154,0.9296875
0.02515095180380521,-0.009501086884823769,0.020203913024697852,-0.053125134886587044,0.0013358393399813544,-0.006258588728280714,7.279547989248355e-05,0.1069664219412157,0.001937936800688143,0.0034158492242551837,0.002991992711865389,-0.0022124941212562205,-0.0976537529110111,0.006928290658324315,0.9375
-0.17449665197241782,0.07058474909232625,-0.1308249665531203,0.3576125156739412,-0.0206660601672976,0.03197188275252122,-0.007677271745672765,-0.7287349754968602,-0.00935291177771515,-0.011257090707076868,-0.019961902097892982,0.011220758879409412,0.6713459452809992,-0.041023992883728724,0.9453125
-0.4414441264922779,0.17755995771326086,-0.3314716608854781,0.9048207067358828,-0.04992027933496637,0.08293269313126035,-0.01795529812132314,-1.8424068707745502,-0.02437162192144484,-0.03078180257711353,-0.05061391632244287,0.029091308232341007,1.698168899382048,-0.10506212420207964,0.953125
-0.6018770861122872,0.24171866884952328,-0.45122269974166457,1.2321792366768451,-0.0673798545964618,0.11347043662989055,-0.02407742685436743,-2.5087112553955455,-0.033332100329778035,-0.04242781051331604,-0.0689818740364234,0.03977834222763037,2.314632939274414,-0.14350632629370894,0.9609375
-0.538005059374679,0.2159870258309944,-0.4027574623711911,1.1000873133161124,-0.060296794319212504,0.1012154191867805,-0.0215834078242149,-2.2398999893781286,-0.02968510816819171,-0.03768518082136158,-0.06159603884966182,0.03547390956994838,2.0686024705629,-0.12816005460292235,0.96875
-0.3330719735917554,0.13385677550230204,-0.24928693494355292,0.6806460060817885,-0.03790072789635364,0.062137732525019806,-0.01372713582745571,-1.3859982279004737,-0.018179700986715588,-0.022729726187303782,-0.03807003320096494,0.021791985361778288,1.2807314143730315,-0.07902029738017173,0.9765625
-0.05579642706292672,0.022838129435900478,-0.041721739305781456,0.1138738840097949,-0.007638468068946486,0.009303623596172267,-0.0031135255333490713,-0.2320531309434049,-0.002648762297080755,-0.002538364262164842,-0.006278303301007018,0.0032844423562608115,0.2150410692238213,-0.012535884779337264,0.984375
0.22449175069905933,-0.08941802493801712,0.16893597093446766,-0.46022307208439567,0.023050927898298653,-0.044175742693791584,0.007667577915981046,0.9363836481452954,0.013096172675659429,0.017933083310703236,0.025873371670399888,-0.015481234512235749,-0.8626677210418864,0.05470310623892253,0.9921875
0.37129370815879237,-0.1482479680231767,0.28016634826573084,-0.7625126230465347,0.039235417613855204,-0.07229360812730337,0.013378298508815724,1.5507246518368327,0.02140220132950857,0.028720670849877113,0.04272601904821392,-0.0253731143939524,-1.4280822408462515,0.08994927693406943,1.0
0.436165434202616,-0.17419784687308387,0.32974234787829465,-0.8971526881818869,0.04643436053198711,-0.08481787731011863,0.015942712880419898,1.8232198607536674,0.0251049019899716,0.033501785551489235,0.05016474849988438,-0.029782938380590703,-1.6790738292241718,0.10555556589185895,1.0078125
0.5755371656578844,-0.22990754493980015,0.4344207468866809,-1.1830520477592439,0.061680496578084866,-0.11148650282261643,0.021320200958881267,2.404013616967198,0.0329423237907501,0.04365906893499554,0.06613936428485016,-0.0391285679663955,-2.2159309492898736,0.13903727425986237,1.015625
0.5729111487824838,-0.2287803040964004,0.43169762511627313,-1.176361622156049,0.06129728382614839,-0.11091363229352845,0.02117278752607972,2.3910270700581893,0.032748355716805004,0.043411660898661324,0.06582785241855377,-0.03890983362002899,-2.2052757076024165,0.13841642038177826,1.0234375
0.11964124318076709,-0.047264313987212585,0.09046894539814261,-0.24577539238231103,0.011590235016131866,-0.02426151224244474,0.003667509648759712,0.4993434553399114,0.007211860434834513,0.010249516222634506,0.01380584191120104,-0.008503106028427096,-0.46097257506250117,0.02961569348112841,1.03125
-0.4191258630864455,0.16846135112148616,-0.31429644264931655,0.858968572681231,-0.0473918645513425,0.07861963357114594,-0.017084520948183204,-1.7472444153901157,-0.02309930751238006,-0.02913306408437701,-0.04804238840513418,0.02758810867082653,1.6113056387813876,-0.09971027812344997,1.0390625
-0.41127361629780024,0.16531662418423854,-0.3077965317391799,0.8420394845641876,-0.046466390156817805,0.07704053094347907,-0.01673927039553211,-1.7134709618475017,-0.022630740387596562,-0.028531767762860382,-0.047160436387561074,0.02702144123074624,1.5805402775588366,-0.0978244546806552,1.046875
-0.061725485862013686,0.025375785375504823,-0.044724317891608564,0.12442389637104576,-0.008161248521005676,0.010263069125003459,-0.0032354449001552625,-0.255234517092849,-0.0029286245378993925,-0.0029256527538559832,-0.007031471736023799,0.0035644606045120535,0.2359723268570317,-0.013906224394962969,1.0546875
-0.08919682005556419,0.03641112846548474,-0.06561523682896217,0.18044998436988818,-0.011211338309370811,0.015583345533184188,-0.004300219959164938,-0.3701615532209194,-0.004454034134399704,-0.004894067003173263,-0.010139374976991942,0.005406843809746878,0.3421784037760821,-0.02048345621986076,1.0625
-0.4378729209407265,0.1759976131833088,-0.3283177340076039,0.8960453531007584,-0.04945555666541437,0.08225450522417917,-0.017782113286565385,-1.8250509405645885,-0.02409291124551543,-0.030407449505118582,-0.05011996758569222,0.02881742192978493,1.6840794830326915,-0.1041878758396029,1.0703125
-0.39491705572450714,0.15866123465465848,-0.29653421564254895,0.8092499175411095,-0.044776717291497715,0.0740646071176027,-0.016173732720422256,-1.6465858493708243,-0.02172626938713106,-0.0273268254552272,-0.045193324276951156,0.025998702035452785,1.5197803597871746,-0.09391261018509935,1.078125
0.1367494547955196,-0.05437271043682357,0.10320104852023296,-0.2803117804148354,0.013476884073271796,-0.027524036491816752,0.0043151384417018535,0.5708580343078777,0.008165952586813397,0.011529126579995419,0.015797709512330702,-0.009614996506872364,-0.5246226916644283,0.033688540271531196,1.0859375
0.4904418305625791,-0.1960234044734874,0.3698261347839029,-1.0067051520554322,0.05228900632125563,-0.09515983938079306,0.017998797290055366,2.047589130311402,0.02810646804824732,0.03743846183994387,0.05637997214961004,-0.03337168922696766,-1.8860004719664902,0.118613307221915,1.09375
0.2946432250840807,-0.11753934276103671,0.22338217943248725,-0.6071676421630734,0.030918826529596995,-0.0578388769671351,0.010501029952616068,1.233130169235071,0.01714398933916761,0.023162793872720074,0.03393346953021381,-0.020314506798833166,-1.1351455086161653,0.07164966850794,1.1015625
-0.11258213947222084,0.045614367211682244,-0.0829082814053663,0.22748655011791594,-0.013698113149264729,0.01996132806399388,-0.005212381773431872,-0.465247785771654,-0.00577496480552343,-0.006642353264597375,-0.012773412882336887,0.006982428664386128,0.43004324644591657,-0.026105436766598815,1.109375
-0.29031309356906493,0.11685257612725079,-0.21751278586586412,0.5937717069350041,-0.033274033144066344,0.05404073384689053,-0.012131192425315832,-1.2092756529229018,-0.01584053816796513,-0.0197053151585886,-0.03318296973735548,0.018962603452577977,1.115118617332279,-0.068814180074481,1.1171875
-0.18108134505298298,0.07318875971322439,-0.13604874018414748,0.37149279460765744,-0.021384431765827227,0.03327654062942588,-0.007954614258981646,-0.7561720590434523,-0.009736925134062128,-0.011747422561309425,-0.020697605003523776,0.011681634057314908,0.6971312874274728,-0.0426289476134215,1.125
-0.0071683568399901094,0.0036023285493148325,-0.004834637665480194,0.01426618387161697,-0.0022792181155039544,-3.5149506986334022e-06,-0.0012060660248353037,-0.030062445187581062,8.481851501320488e-05,0.0010048620362096627,-0.0007745981462198842,-1.5514055892094417e-05,0.028357896727022585,-0.0008646195564861676,1.1328125
0.04576608078879464,-0.017633328642139325,0.03587734627763134,-0.09607684257381416,0.0036238604315429785,-0.010244121621407924,0.0008972903986128151,0.19343645122291253,0.003132122243593309,0.004930915263278407,0.005313515332766363,-0.003625902808407671,-0.1767923504165183,0.01189070158281177,1.140625
0.025959356104646447,-0.009830290298227901,0.0211801884367588,-0.05576103771483873,0.0014666841203812575,-0.006472779892222434,0.0001302371774538421,0.11197496809065274,0.00203168193147917,0.0034966061417471325,0.003078462482264398,-0.0022973001656921605,-0.10144814094642682,0.007157846895753622,1.1484375
0.09165187879367873,-0.036238667714311217,0.06993495842150943,-0.18898005080782845,0.00857848564423606,-0.018916479161911543,0.0026014203429203346,0.3845237326090493,0.00567426556761107,0.00826294289573744,0.010637134103203095,-0.006642741159028255,-0.35340437209748865,0.022905534271053792,1.15625
0.2033654970892414,-0.08094545721267075,0.15340135093016888,-0.41707667233944257,0.020753041389873463,-0.040209464850402755,0.006877633221727472,0.8486855302653946,0.011914758304054179,0.016395480216984316,0.0234453208106239,-0.014098772159621893,-0.7822602221158392,0.04970074268948026,1.1640625
0.1752137341039808,-0.06956805798034524,0.13250843808484275,-0.36029265839576274,0.017703131288989198,-0.0349215394592944,0.005837726958083489,0.7314150510418745,0.010355542570174328,0.014353826817182584,0.020189465125664333,-0.0122477330423634,-0.674271979506102,0.04295180741505831,1.171875
0.05915824879802496,-0.023077001621526656,0.04601013190083439,-0.12395528812820157,0.005079381379860707,-0.01285772755134464,0.0014283877115862068,0.24921553710325575,0.003887914627418196,0.00592407222668301,0.006862996626805204,-0.004524362186512636,-0.22880533831498792,0.015103366825137963,1.1796875
0.11235511715619496,-0.04448819347156281,0.08638757396174201,-0.23340434791198045,0.010955310035429723,-0.02300908369933773,0.003485098260958975,0.47244038081888706,0.006900676192935394,0.009843303651399519,0.012987962548734158,-0.00809691912568244,-0.43378645638379837,0.027852525083966854,1.1875
0.29389609729460114,-0.11725384647048066,0.22239099631853285,-0.6044057759015058,0.030791288148251314,-0.0575851367063319,0.010428039341558205,1.228629645796087,0.01706709905256024,0.023079485042160557,0.033839919691602056,-0.020216864957000983,-1.1314854601904947,0.07139923976932132,1.1953125
0.21651473979066613,-0.0861602886684488,0.16330594158477377,-0.44432772906252743,0.022207174420262002,-0.04273180898321766,0.007395755102859306,0.9033391075208687,0.012656595269992445,0.017355265738896317,0.024942633158580075,-0.01498420339059747,-0.8329928776018045,0.05282442737279209,1.203125
-0.22693914619183486,0.09158099819788007,-0.17038349191419327,0.46493406515497626,-0.026412112448269305,0.04194651757632977,-0.009686922938457345,-0.9472819466274923,-0.012291356847618954,-0.015084305981242004,-0.025978149584609388,0.014726644065645342,0.8728749711093108,-0.05358448246049833,1.2109375
-0.5755980864122139,0.23119804725223014,-0.4317864824784102,1.178483342490378,-0.06451928593582792,0.10845729855260117,-0.023073217962407046,-2.399404624504778,-0.0318528860636209,-0.04052305953077289,-0.06598351239963114,0.038036609011350815,2.213170577331287,-0.1372341332726892,1.21875
-0.4058535872008625,0.16306006701326464,-0.30338787384751575,0.829586236323508,-0.04581989683332926,0.07599324077406083,-0.01650626763896399,-1.6888005100911243,-0.022268385359341558,-0.028065794529920054,-0.04646951213358576,0.026628619741073244,1.5594611803368692,-0.09648507362967589,1.2265625
0.017146146371707072,-0.006419858073423083,0.014317606048836723,-0.036800259380113526,0.0004845445394867887,-0.0047354752415361846,-0.00024515537791036456,0.07484445141402174,0.0014941070301729537,0.002827451332255405,0.0020792076033620604,-0.0016781097697111075,-0.06708472423852564,0.005011341176450405,1.234375
0.060536987162849824,-0.02367303609444783,0.045919949951622074,-0.1242539250705783,0.005100672592146907,-0.01291488656181917,0.001367200652214606,0.2525002118279153,0.0038690821644487366,0.005926468070359247,0.0070328018882079325,-0.004522323778944355,-0.23237688921843877,0.01539611149764317,1.2421875
-0.32031675157155676,0.12900287881515396,-0.2406242177699267,0.6565322988858666,-0.03665821678417342,0.05983973670266787,-0.013308198136533977,-1.337289790027911,-0.017569477829019388,-0.021924606099043564,-0.03667244667938292,0.020995540720474135,1.2333348590260569,-0.07599748151708687,1.25
-0.44861519194413324,0.1803329752926163,-0.33607196152334473,0.9177710164825962,-0.05057703144676272,0.08422570927411772,-0.018183770281799058,-1.869496378247622,-0.024723682495720947,-0.031222271168802343,-0.051351894545192595,0.02952053360854824,1.7255743326752815,-0.10674624055086825,1.2578125
0.008106221889547117,-0.002764242850826849,0.008153924900330251,-0.019949786654866308,-0.0004179038663682809,-0.0031158195629167594,-0.0005309516600355756,0.03868991088848615,0.001035761726525736,0.002239614334861277,0.0010887221717435032,-0.001129633727557929,-0.03297178963049944,0.002884271800145739,1.265625
0.44457968676996484,-0.17762104178160884,0.33584031673988496,-0.9140344627637292,0.04734021649763554,-0.08644116674453327,0.016262799188796515,1.8584101935706034,0.02558220920286499,0.034125371948295645,0.051152191455978574,-0.03033772661488883,-1.711975331521573,0.10761215786521428,1.2734375
0.3369636339660963,-0.13441038260963536,0.25385151528356364,-0.691550304830913,0.03540341698749622,-0.06575417927212486,0.012049221392185944,1.4063764279634121,0.019469820464460212,0.026182976072442705,0.03876430200925463,-0.023055829665675844,-1.2967549629601822,0.08175559433801777,1.28125
0.15580011569747146,-0.0618240990296595,0.11736616548230926,-0.31948193467921027,0.015522256358970123,-0.031098049643493306,0.005042626339700584,0.6499147542611371,0.009254982672125964,0.012916962657276855,0.01797010480496733,-0.01089432370405752,-0.5991807577589617,0.038265186367080505,1.2890625
0.4297037468662575,-0.17163618141318815,0.32394893321587864,-0.882113495175106,0.04561865445843622,-0.08348669118226137,0.015633263157783284,1.794279186969918,0.024697453864303182,0.03298689236669774,0.049411534282165076,-0.029280612261337643,-1.6530974741764508,0.10398735048754827,1.296875
0.6793722024996337,-0.27164398296295955,0.5122534773356364,-1.395135624686997,0.07303541314116083,-0.13126528080014963,0.0253001720437826,2.836662881940299,0.03877093547703597,0.051268848992320454,0.07804361364130927,-0.04605079974095153,-2.6139300615700924,0.16389401979277132,1.3046875
0.3054829280512621,-0.12172780948141566,0.2311546648149496,-0.6284840301913219,0.03205790869625299,-0.05987195236789807,0.010901528198822043,1.2761545899193953,0.017719799012063678,0.023901597583777797,0.03510668969382946,-0.021015348657559375,-1.1761143388802366,0.07418260502387525,1.3125
-0.284423141929018,0.1146494239313282,-0.21264785803100067,0.5817788793004571,-0.0326031994781636,0.05284310447656446,-0.011857372258022568,-1.1851506360022661,-0.015497313327851954,-0.01927243312607892,-0.03258593813807858,0.018520936492803706,1.0925677996071101,-0.06735495670814232,1.3203125
-0.47797362024537976,0.1921099671457677,-0.35848731126769035,0.9791362003989632,-0.053842049962163914,0.08988093112654444,-0.01935119449255162,-1.9926263297073954,-0.026400512806165996,-0.03343509945503941,-0.05477482167560491,0.03151804662960473,1.8373579080824451,-0.11381623480421707,1.328125
-0.45289515010494036,0.1820268850382055,-0.3399069668044024,0.927826805553361,-0.05114958409589715,0.08515004757384781,-0.01839895008810656,-1.8891028290928253,-0.024997407913877685,-0.03159246693229955,-0.051907158066474716,0.029858236532446517,1.7420894784419243,-0.10785036681026582,1.3359375
-0.45167284205683356,0.18159211259403335,-0.3388440218340499,0.9249959786788443,-0.05102008885956819,0.08488650392264649,-0.018322999389636614,-1.884594757454547,-0.024920797385907134,-0.03148500127612139,-0.05179326888413656,0.029751465417261865,1.7376769375592909,-0.10755437895214096,1.34375
-0.1944674592471853,0.07853435026172487,-0.14471545805938488,0.396582301133594,-0.022721498281555882,0.03561235711720693,-0.00835284557109633,-0.8090640524422366,-0.010401061691637854,-0.012635195571285679,-0.022247162216852214,0.012454348275608904,0.7466191815829244,-0.04572881162980069,1.3515625
0.20425675575095495,-0.08133183202859416,0.15563555124309453,-0.42204886337641934,0.021092901856015926,-0.04066538350951497,0.007040528503052125,0.8578385066261326,0.012085625682348784,0.016568768343590883,0.02359317587897589,-0.014292130994951862,-0.7885260652190438,0.050047454160566586,1.359375
0.08406192886755867,-0.03325966294181903,0.06474103672956269,-0.17517531658978555,0.007883190098300968,-0.01763052594732652,0.0023614851081968044,0.35604421883883025,0.005304877908651185,0.007776409275765004,0.009845509042363698,-0.006183379039470911,-0.32486727751447547,0.021163776336098238,1.3671875
-0.40646716105632474,0.1632879690842427,-0.30521171147032927,0.8325553055012056,-0.04603382067285843,0.0762684693083005,-0.016622496290735138,-1.6943842309747228,-0.022375114606636312,-0.028152804599938287,-0.04647959675183181,0.026776610205607097,1.564582108446709,-0.09667006129894523,1.375
-0.3240995709548799,0.13032284571860636,-0.24363986481863578,0.6648488152789874,-0.037093282977968205,0.0606267247078594,-0.013472798019760306,-1.3531547478288226,-0.017782982699215334,-0.022172524109133108,-0.03707597111703608,0.021289242850251185,1.2483134274577314,-0.07695574892366144,1.3828125
0.3342526898081079,-0.1334273929529297,0.2521489212679298,-0.6861041259670875,0.03512671833084866,-0.06522463021801962,0.01195234271536657,1.395021361262453,0.01930368045975143,0.025992801798834033,0.03846248135110917,-0.022877470550042217,-1.285782542796897,0.08107276849476718,1.390625
0.5758176286503729,-0.2301559487721851,0.43460086460440434,-1.1830562203042714,0.06170227263114591,-0.11148176725842858,0.021319674825915874,2.4051023552711626,0.03295385327132856,0.0436999691013104,0.06618043234475471,-0.03912851089663867,-2.2163214138998923,0.13907733956596607,1.3984375
0.21275292424615036,-0.08461008208375016,0.16146739660062517,-0.4384368147898003,0.021907839550197754,-0.042107429850939244,0.007317202289057219,0.8900643309989157,0.0125160904310726,0.017140253717724284,0.024491553903928865,-0.014800873388230927,-0.8193936159527968,0.0519318911593702,1.40625
0.004761373791457287,-0.001229103511650438,0.004245560771047439,-0.01025083462878913,-0.0009778807386332305,-0.0022762214824117873,-0.0007577398718974753,0.020197002822154156,0.0007543449077611235,0.0018713090649831096,0.0005981102589626708,-0.000810009500879419,-0.018383325084611025,0.0019918537146924467,1.4140625
0.11301105732732696,-0.04459540367635042,0.08516937631277953,-0.23139132445925792,0.010836387684186613,-0.022931077637847037,0.003387265925987618,0.4707824607430223,0.006817126887428482,0.009750931474287634,0.01301854495904761,-0.008032738294484774,-0.4346294145836267,0.0279714666469378,1.421875
0.07399103838136843,-0.02898724434255105,0.05631585985582328,-0.1526187325741122,0.006624480642668108,-0.015573060955468235,0.0019270217000427125,0.3093664606541288,0.00465966511966206,0.006931220112163097,0.008555453942570795,-0.005456515271107663,-0.2853548206075917,0.018626909470287153,1.4296875
-0.03612598220326328,0.015057874912519845,-0.025512362816250585,0.07134141280343048,-0.00532784809307276,0.0053536177780953926,-0.0022529877758558857,-0.14745826901725703,-0.0014746906783756934,-0.0010514457056228796,-0.004057546197255535,0.001857426565831049,0.13719110965244302,-0.007778296637680312,1.4375
0.09693654503193602,-0.03834452086771005,0.07492673667947196,-0.2018784565334562,0.009296746996752604,-0.020074124160631708,0.0028864936205567127,0.40896148497626567,0.006031930338700143,0.00871103142959985,0.011239882624250484,-0.007073850882858008,-0.37489907768460856,0.02417292423742956,1.4453125
0.1624819248682792,-0.0645994182690542,0.12354446084506811,-0.33500987055604114,0.016399596894877765,-0.03251546921248116,0.005365651269815629,0.6809299717694967,0.009680383746705323,0.013468207928687793,0.018770872706951235,-0.011420273130305225,-0.626150447342187,0.03991566875505196,1.453125
-0.11183286993337661,0.04543562592507964,-0.083644548836265,0.2287120532782311,-0.013774498288268898,0.019946795366104466,-0.005247599358689762,-0.4661958729453251,-0.005803625814305459,-0.006649025773250045,-0.012733398218733954,0.007002990430163231,0.43006846080252376,-0.0259103632282903,1.4609375
-0.31624827791906895,0.12742894308745562,-0.2373697880828464,0.6475835593782281,-0.03618708745810602,0.05896495687752678,-0.013110126755932535,-1.3196002681030594,-0.017302546247306348,-0.02160522592341845,-0.03622212209038842,0.020685942279160444,1.216274686953945,-0.07496814603778147,1.46875
-0.2638358404594689,0.10633455890856001,-0.19706419223264307,0.5386584909422585,-0.0303434577271022,0.048876785560088204,-0.01104059152937139,-1.098565694428398,-0.014300156916974975,-0.017716517660645987,-0.03020004556454079,0.01712491117443815,1.0136344244254663,-0.06239619224692312,1.4765625
-0.34230574034907685,0.13758145207180783,-0.25546497837642484,0.6987548973240537,-0.03886835319413361,0.06385349780354597,-0.014047745076269566,-1.4237576928175568,-0.018681606720032943,-0.02340113065621106,-0.03916503692373751,0.022364444426806563,1.3150897747308388,-0.08123886533755675,1.484375
-0.415637150512497,0.16691181059577911,-0.3111297695519457,0.8502101634940542,-0.046964396495908466,0.07795161363622999,-0.01691968722716447,-1.7308680588440972,-0.022846461391655908,-0.02878851320204881,-0.04756528541751175,0.027322445304294403,1.5981522202595995,-0.09885746811133435,1.4921875
0.12197171091981512,-0.04833210399363303,0.09212088450333286,-0.2501561891054801,0.011827084258712034,-0.02463817134496977,0.003736485112582195,0.5087773205567565,0.007330705759895934,0.010438107453766304,0.014089777094673924,-0.008633652116467713,-0.4686299069372827,0.03012986910912492,1.5
0.874739316897016,-0.3497925200634139,0.6579744997308083,-1.7931316606805257,0.09429913471612572,-0.1684317302038668,0.03274119276417899,3.6482491001833037,0.04966974883074206,0.06544533359404983,0.10043352286209736,-0.059058658396500596,-3.364293843669561,0.21076314866776433,1.5078125
0.727156835682716,-0.290721852358042,0.5478563860577632,-1.492133502463303,0.07824331217540946,-0.14034693559148423,0.027115020056036082,3.0351080771549435,0.04142706644161704,0.054721354773392836,0.08351832869243621,-0.04922873434636858,-2.7977426503521445,0.17536703057851868,1.515625
-0.22869469338973386,0.0920940199759966,-0.1701453683925732,0.46608284570987657,-0.026400087850418544,0.042152866961049786,-0.009666790848764824,-0.9499836766253517,-0.01229605787201472,-0.015084924557081091,-0.026112041524225336,0.014755598368561907,0.8782864791245153,-0.05397565254653173,1.5234375
-0.7699675200813113,0.3089354345061103,-0.5775110535042852,1.5763141047097229,-0.08575766083964483,0.14558327433796894,-0.030546018744311246,-3.2088969062106614,-0.042770871088604195,-0.054670619787446785,-0.08820369767845175,0.05103529127140743,2.9608488031734805,-0.1838544561410567,1.53125
-0.5061686710352883,0.20334526154806343,-0.3801067305453766,1.0371726307768359,-0.056968989631960044,0.09529994114352448,-0.02044574548398133,-2.1111255427169033,-0.027995259623800676,-0.035462065493635946,-0.05795540028547176,0.03342467420998898,1.9471777371920185,-0.12057002590421007,1.5390625
-0.08943396192779733,0.03642701997931636,-0.06700965491534017,0.1833253882376876,-0.011331815064115998,0.015730797573427064,-0.0044116559355665864,-0.3732971933503243,-0.004571377880450934,-0.005029807609036771,-0.010152440952903586,0.005530078825006845,0.34445378150500866,-0.020582287469867247,1.546875
0.22219939026296237,-0.08846375755564975,0.16805096388775026,-0.45683858792236787,0.02290633805735562,-0.04387767584480417,0.0076393628742549005,0.928796878447441,0.013006893611876463,0.01779027692890953,0.02560164705564746,-0.01538855346422987,-0.8551489013874873,0.054200807386810754,1.5546875
0.5600609581629094,-0.22380690988228635,0.4228070170416279,-1.1507976473247195,0.060006426441085996,-0.10850301045028199,0.020708708757637462,2.339852322459021,0.03206460426219375,0.042526405678033445,0.06434600430596212,-0.03807026035276442,-2.155832373657322,0.13527208065420504,1.5625
0.5232809347631034,-0.20898281538857524,0.3949809138425413,-1.0751430344261237,0.05594701999895508,-0.10146557833352525,0.01929139099750173,2.1855272196355635,0.029992990999487167,0.039826592703271234,0.06010017522142729,-0.03560543978747063,-2.014440305341886,0.12643888497790487,1.5703125
-0.12433948856740853,0.05049623981281503,-0.09264675106169147,0.25372373484964456,-0.015100451444779013,0.0223154061540739,-0.005701178202905385,-0.5177746540796857,-0.006476132420995044,-0.007541609324441509,-0.014196508927367431,0.007812269808257647,0.477526822425979,-0.028947529758594354,1.578125
-0.523796285080381,0.21046052049801509,-0.3932773958846384,1.0730809225325637,-0.05890733157447419,0.0986410696259789,-0.02111772371003466,-2.1842764978005467,-0.028964727654046153,-0.036749827485643045,-0.06000565410185765,0.034590347670592846,2.0146466351650894,-0.1247692393522595,1.5859375
0.000335657817139239,0.00045809942982868654,0.0011651134591138337,-0.002183250744423247,-0.001443705361624573,-0.0015341026153998165,-0.0009092393255564526,0.0032452001301005043,0.0005363680627572027,0.0015637410470575363,0.00011599017670924768,-0.0005331668379217145,-0.0018944257837648804,0.0010015510795470853,1.59375
0.5972798058319844,-0.2386376049083654,0.4504934285627768,-1.2268849949039071,0.06401192584799044,-0.1156153188038672,0.022124527874770573,2.4940695818598657,0.034140600199035975,0.045206127385496106,0.06857449999616332,-0.04054864197848607,-2.298944206056348,0.14421547337659177,1.6015625
0.2654883197539533,-0.10574010131018245,0.20122782309935203,-0.5468864374669963,0.027670787612175146,-0.052220828850178314,0.009362798148676809,1.1100235673753154,0.015491029362894317,0.020988836464425332,0.030523264665595195,-0.01834158104172113,-1.0230616613598176,0.06459551132591046,1.609375
-0.4285057448630783,0.1721393207346102,-0.32073469540149596,0.8763767440164903,-0.04839331005913136,0.08041310798043208,-0.017385411607824863,-1.7849919102086074,-0.02354613696422538,-0.0296967431617989,-0.04904404203514829,0.02815615332183925,1.646760216984979,-0.10191068551317353,1.6171875
-0.4163771956109791,0.16719216900926404,-0.312077278145632,0.85247469759857,-0.04710328631645456,0.07815893877384951,-0.01695638061303106,-1.7349672736608963,-0.02289156910092494,-0.028822884691163,-0.0476256985241921,0.027383496732102417,1.600939206246504,-0.09900340212774926,1.625
0.0809947420863749,-0.03198244722790658,0.06137129710293004,-0.16614651752758508,0.00736791872595086,-0.01683165226758707,0.002169239808979636,0.3383107677448951,0.0050287768393253935,0.007463913749337581,0.009417155584502427,-0.005894646582499699,-0.31118850711369084,0.02031114436323527,1.6328125
0.15259503552954087,-0.06055243554080072,0.11513753548668375,-0.3126791619402371,0.015234971274752335,-0.030555048158645667,0.004931620499802383,0.6361453212957954,0.009022592526056068,0.012657802046006025,0.017609414879743688,-0.010695852130152896,-0.5860529499873819,0.037484606174804404,1.640625
-0.26750019742700865,0.10775527259780054,-0.20014632146673964,0.5474246953097808,-0.03072224829818766,0.04959889232283001,-0.011205738985331011,-1.1148649193556468,-0.014569036743152117,-0.018010226928717794,-0.03058618741751864,0.017396758572794106,1.0292851993126915,-0.06328987616206469,1.6484375
-0.5532712579929664,0.22219910523860764,-0.41437028118104813,1.131704550972502,-0.06197139440843173,0.10412155597366578,-0.022175767422482895,-2.3046421659673033,-0.03057407313011596,-0.03884118206098297,-0.06336305895024565,0.03650203896377531,2.127379957021075,-0.1318464161004149,1.65625
-0.41955690303371485,0.16862241677868348,-0.31388006817857406,0.8573339739612511,-0.047339366681826436,0.07861890410518624,-0.017043425608849683,-1.7464340421779991,-0.023040010803535772,-0.02906817846238028,-0.04801615101094151,0.02756115001549405,1.6126937492351452,-0.09978335085256125,1.6640625
-0.05317834944117574,0.021855717858189915,-0.039086402217070874,0.10758496256525138,-0.007284672614104065,0.008755468590391393,-0.0029889260009145126,-0.21988906421373,-0.002482847625005361,-0.0023368232976847974,-0.005982189040574651,0.003070535725472774,0.20414418394698314,-0.011902897448230828,1.671875
0.30109152707036435,-0.12004328416596614,0.22676453256164802,-0.6175127310413301,0.031468674670107895,-0.05883916000443859,0.010628365529433708,1.2563014215730663,0.017410124396605088,0.023525880318043382,0.034639723611357545,-0.020629190289339898,-1.157865022674555,0.07308295292348083,1.6796875
0.4956655387676039,-0.1979207632062791,0.3732813944550497,-1.016906090154947,0.05281664360610873,-0.09606192828764835,0.018161055507959725,2.068334075937081,0.028388602290453223,0.0377637270888117,0.05692060914945321,-0.03368670680992324,-1.906688221979936,0.11977443437095779,1.6875
0.5560889762121695,-0.22208143900954222,0.41944449984984267,-1.1422707087301305,0.059514261818904096,-0.10772254439474761,0.020551946980261526,2.3222270429848515,0.03184905653893827,0.04222219275781461,0.06383959637726662,-0.037793075636284174,-2.140434792039961,0.13432317132627458,1.6953125
0.6232124631786933,-0.249049472098702,0.470375857393962,-1.2804393042666051,0.06689244199287359,-0.12057541621480933,0.02315451951985427,2.603459005665494,0.03564274594816758,0.04715285184330879,0.07158226056391062,-0.04232226835728081,-2.3997097211888274,0.1505029220773151,1.703125
0.6162957201607346,-0.24639138424093934,0.4648055405313057,-1.265203733900528,0.06606694244917223,-0.11916412680987383,0.022841248851922843,2.573638031861462,0.03520826291522379,0.04662512738032034,0.0708339837427189,-0.041827241344633705,-2.3727734658863837,0.14886144698309567,1.7109375
0.26403409771674385,-0.10524418865862524,0.1991283072955461,-0.5417892187221327,0.027388964057244024,-0.051799369969267976,0.009222993426044605,1.1018450205677766,0.015335509104701734,0.020831010975121005,0.030411451384552663,-0.01817539544124534,-1.01627773276996,0.06427958653408256,1.71875
-0.37613933438718783,0.1513304983155391,-0.28241295381206105,0.7703520474067685,-0.04274070529101741,0.07043130836676388,-0.015422899491315008,-1.5694179890003346,-0.020678129611167235,-0.0259671735449832,-0.043070152896546254,0.024709325610440813,1.4471329725126336,-0.0893805869231366,1.7265625
-0.8709314367457482,0.34952088599938436,-0.6536993725271645,1.7832649592893466,-0.09684804910893148,0.16483212555175802,-0.03442707249916219,-3.631348652984024,-0.04845898984682341,-0.062078761228672126,-0.09983883206713418,0.05780222464870079,3.349787931883482,-0.208104525401576,1.734375
-0.9525579577666485,0.3820433639327037,-0.7144465813527687,1.9500294198414934,-0.10572230883118271,0.18040965347123986,-0.03755664792055091,-3.9697107486742635,-0.05301955522973478,-0.06800342161861919,-0.10917825507621558,0.06324986201168864,3.6629344125002223,-0.22769465073906975,1.7421875
-0.6879887376479654,0.2759990869637761,-0.5160014872736305,1.408898552561065,-0.07679799285562611,0.12997548407456036,-0.027415888285750502,-2.867242911770734,-0.038177939017980236,-0.0487050747413058,-0.07882667539296319,0.045576937052452186,2.6457311940797315,-0.1642494965590119,1.75
-0.2354376908220279,0.09488517127142627,-0.17666259017118616,0.4826452688980702,-0.027327753915919312,0.04361090157989103,-0.010027429344052019,-0.982558746933669,-0.012781378831260286,-0.015699699018418126,-0.02693974026271642,0.015309200356429683,0.9060643929116788,-0.0556630019978577,1.7578125
0.1921805601521425,-0.07625511375662511,0.14490138990294665,-0.3942249512064091,0.019524555467774922,-0.038116298424712015,0.006471468826079052,0.8007274728997471,0.011277949861171695,0.015555105562282838,0.022110176731215916,-0.013364817528768225,-0.7388600617321547,0.04701219151666818,1.765625
0.35933879745213393,-0.1432986293570597,0.2716375830465005,-0.7385835750565596,0.03796662305449832,-0.0701573386282204,0.012974915811784218,1.5011451753139489,0.020746743737311137,0.027849245583158457,0.04132255232961993,-0.024633223230319985,-1.383190999255949,0.08718417209459436,1.7734375
0.2734816536619772,-0.10908312626484465,0.20769754987141398,-0.5635749007958272,0.02864533322530903,-0.05380010964174192,0.009687694842019336,1.1455864352608693,0.01595836313220172,0.02162107345338784,0.031503054140586566,-0.01890315431956503,-1.0539546655006526,0.06656658190150937,1.78125
0.17471952710580457,-0.06953464577016466,0.1327572627139063,-0.36020784561123625,0.01775271570475189,-0.03485456859114214,0.005832826679490638,0.7323347643558448,0.010370460846439916,0.014357294283815736,0.02016137405659342,-0.012231544369710337,-0.6735704814477913,0.04280752068006986,1.7890625
0.2266349833656602,-0.09021126482115235,0.1707224401656726,-0.4650130625634957,0.02331593641804811,-0.044651247989025505,0.007768552881371401,0.9459486210495192,0.013232122585752184,0.018081968763442546,0.026099714831835475,-0.015641688946353087,-0.8718153834025739,0.0552368231629175,1.796875
0.46285757145254564,-0.184792930892119,0.3482730358574628,-0.9490886904451132,0.04919458898593215,-0.089750498173814,0.016864418588951106,1.9309730990270808,0.026512889765015715,0.03535081815453228,0.053221365636402486,-0.03146501086768453,-1.7796670580612086,0.11194938556042774,1.8046875
0.780474837465393,-0.3120740647585659,0.5880340470606638,-1.60181065754805,0.08410768108354416,-0.15052007551098198,0.02916165695667569,3.258246833217929,0.04443228408385235,0.058631835581122685,0.08969069054418516,-0.052807465581140536,-3.0021221735669017,0.18820925532882368,1.8125
0.7594350947511989,-0.3036410423460659,0.5728518503679232,-1.5599473379444566,0.08186055320762417,-0.14659037141804665,0.028402866859924145,3.1717066626809065,0.04329053911846075,0.05712633870007138,0.08725612279807518,-0.05144767531283461,-2.922364939764103,0.1831644589325726,1.8203125
0.02675836558250095,-0.0100788519151602,0.021476620495502245,-0.05708233692547901,0.0015017159049496023,-0.006596311187822287,0.0001535381969620556,0.11362553760802345,0.002051337513072022,0.0035303723923675533,0.003140744766927193,-0.002337510354059934,-0.1041291106782341,0.007307869944952895,1.828125
-0.96960815418546,0.3890324152506484,-0.7285594186475244,1.9873835461844847,-0.10777838612552157,0.18383461023518238,-0.03829755133428239,-4.0448001227666515,-0.054052447142212044,-0.06935225819046675,-0.11119253056925336,0.06447444994274333,3.729309429242077,-0.2318194109148247,1.8359375
-1.2394626044451609,0.4970284822832499,-0.9316165437959445,2.541092294647842,-0.13735552977746268,0.23540573884820426,-0.04871752887629739,-5.17029108312386,-0.06924839468977763,-0.08908078134893367,-0.14213000436237214,0.0825706558367673,4.767549940677462,-0.2965720738828378,1.84375
-0.5674411919742057,0.22778952575611305,-0.42574342046557406,1.1621763859244194,-0.06365196991064793,0.10694830774792867,-0.022785451051339074,-2.365415269046634,-0.03141277732777921,-0.03993006151723452,-0.06502351580941831,0.037510722101539225,2.181792265073801,-0.13529476402107296,1.8515625
0.12940315156519008,-0.05128204354987377,0.09873779617415536,-0.26767293462620295,0.012753116266186932,-0.02625897806160392,0.004114152598968706,0.5421797636204946,0.00782060187341105,0.011025442365894486,0.014900097262364966,-0.00921620865128099,-0.49950872498151944,0.03193071519965917,1.859375
0.04623454947890255,-0.01791306261665647,0.03626161274832648,-0.0974260739769779,0.0036407045675841015,-0.010386926603695534,0.0009233671833704465,0.19512380531719317,0.003151358567962992,0.004955481758378392,0.005360331980384862,-0.003655038976768713,-0.17995133392734491,0.011984761423056805,1.8671875
-0.42658714250640656,0.17143938038485912,-0.3194975814675778,0.8723335365166286,-0.04818704206854407,0.0799982947173276,-0.017320696996447192,-1.777236095519891,-0.023454429022099314,-0.029596234432024436,-0.04883607912821109,0.02804131595845141,1.6389547143785874,-0.10146565388854364,1.875
-0.2615788898318141,0.10526839557343058,-0.19577579714848284,0.5348004692123836,-0.030127146354698545,0.04856928147542906,-0.011006470961647655,-1.0891085525301019,-0.014195657249441765,-0.017542298004574634,-0.029863549812484565,0.017024633538283537,1.0053081976999563,-0.061882966133816206,1.8828125
0.6746950072451718,-0.26976308148509576,0.5079669650476247,-1.3838250341253748,0.07245308518462679,-0.13023863656012946,0.025042971743934828,2.815668753056077,0.03844063851446314,0.05086969118900235,0.0775451615597839,-0.045674671145561827,-2.594339290166041,0.16278131261461096,1.890625
1.18402392583358,-0.47368357028277,0.8911354150751438,-2.427913048077515,0.12828939250777704,-0.2275884232441098,0.04469336846825989,4.93990296521962,0.06708729737954935,0.08809802415527118,0.13595042955213962,-0.07982267272683428,-4.552587342861105,0.2850452554039636,1.8984375
0.3774130499230227,-0.15049244794043598,0.2852800860039419,-0.7754515671599512,0.03997246917678484,-0.07361953328894795,0.013677072528816853,1.5763317933134122,0.021756963598391823,0.02918119617236769,0.043403072476479836,-0.02585065732504776,-1.4510299472386605,0.09154818351547629,1.90625
-0.7325492356713793,0.2940974532141355,-0.5488922210652872,1.4988274981564245,-0.08160418403054746,0.13835512194024072,-0.029058598665824924,-3.0520675359104525,-0.040632910480401976,-0.05191606590516195,-0.08392278660419002,0.04847658876122228,2.816504040730988,-0.17480066692124657,1.9140625
-0.50068489718675,0.20110218113237416,-0.37495368207102664,1.0239384562255753,-0.056234644693484305,0.09413620974660983,-0.02016893870459165,-2.084730353201676,-0.02760006465419565,-0.034997326154503114,-0.05731078826802205,0.03298839884774335,1.923833157136131,-0.11922185041345128,1.921875
0.7703865846339362,-0.30811009632489617,0.5798710867988911,-1.5798797306559482,0.08293898374049592,-0.1485314698689372,0.028728451597095108,3.2153672504874655,0.04383648732050676,0.05783433896237165,0.08848809171962464,-0.05208576007088457,-2.964597069749319,0.18572174776021833,1.9296875
1.2057779107620854,-0.48242870946107985,0.9067668785842308,-2.4712053904588545,0.13057071816655413,-0.2316362977278449,0.04547638832301091,5.029257417326375,0.06828259118451906,0.0896091585278569,0.1383767032915882,-0.08122153455919304,-4.638363238347449,0.29015688734386647,1.9375
0.23429228339172684,-0.09317319864856133,0.17670082032410567,-0.480535258265217,0.02414432730166686,-0.04612992461203068,0.00808991403167993,0.9767406151416824,0.013657280032921233,0.01862270624887519,0.026881493608457572,-0.016175832202561212,-0.9015381683085302,0.05702618118470146,1.9453125
-0.8255273168849608,0.3313068670085202,-0.6194503780442601,1.6902781732710506,-0.09189921818139477,0.15620252537903057,-0.03268876209867601,-3.4420572144439783,-0.04590417844049733,-0.05877679131902438,-0.09467030801247038,0.05477270274201411,3.174410519786694,-0.1972624367024643,1.953125
-1.0411844872115474,0.41752716031812376,-0.7814508791640008,2.131876163174052,-0.11549626734878551,0.1973741011879355,-0.04099945852705501,-4.340159086346222,-0.05802099405613547,-0.07450264014952498,-0.11932941127656531,0.06921871212320552,4.003806312122185,-0.2489713369354693,1.9609375
-0.7851301192130621,0.31491088436870857,-0.5895342605296884,1.6081267334452922,-0.08750553570331551,0.1485471082627248,-0.031184696122585166,-3.2731596741460716,-0.04365837764935309,-0.05581382725195297,-0.08991541358745733,0.05211144994846541,3.0196373993405268,-0.18751520351159914,1.96875
-0.42117867679928694,0.1692648868006625,-0.3164195015581826,0.8629044839927065,-0.047697233455085024,0.07908286357231362,-0.017188266524585615,-1.7568482602923141,-0.023216465809680092,-0.02925587461363394,-0.04819204853969901,0.027754688394196054,1.6202796722015547,-0.10018218148984906,1.9765625
0.092624177893994,-0.03641769992358404,0.07030846584733662,-0.19131710269783928,0.008644385043358814,-0.019132430555561623,0.002651134731646809,0.38698316765795876,0.005720267564167611,0.00831085134961972,0.010719772230950955,-0.006710299746694758,-0.35665513382870023,0.023136512539759076,1.984375
0.42300021697231427,-0.1688207714115351,0.3198134698406717,-0.8703768439591034,0.04497466750429245,-0.08235597003324545,0.015448458828692663,1.768072703356007,0.024372428593343185,0.032527195194060346,0.04863610964133631,-0.02891677488142873,-1.6286929110385793,0.10245335886513322,1.9921875
0.24472082424972036,-0.09757932158782542,0.18637368722619804,-0.5053642687101743,0.025507288278386032,-0.048311140797363386,0.00859288919950963,1.0262779992517812,0.014363606244575899,0.01954034137494071,0.028216240095954855,-0.01699476729076781,-0.9433504487017386,0.059675723434984465,2.0
0.034480689930266976,-0.01341433697973387,0.027689908606665994,-0.07277333673489356,0.002394447219554126,-0.008037447573644736,0.0004339404935365199,0.14761487775005272,0.00247986299751717,0.0041313318874565165,0.004093790841317853,-0.002854483061784067,-0.13364420993525827,0.00918456462456745,2.0078125
0.2559838899253122,-0.10200165035134584,0.19308697016321283,-0.5248508257662278,0.02653943514770099,-0.05024894304250689,0.008906291311322796,1.0681352891566718,0.014867970419534552,0.020235197649767087,0.02945888049968153,-0.017624310621009744,-0.9843036819291036,0.06229319838812127,2.015625
0.4665820596522657,-0.18618903481446547,0.35105682512121084,-0.9562957804273675,0.04959103145444248,-0.0905108252401271,0.01702866566853155,1.945312256349115,0.02671003956484679,0.03559706154206138,0.05357190454873308,-0.03173005192789406,-1.7942208426377315,0.11282596380872977,2.0234375
0.24315266958087184,-0.09666508068306921,0.18380484665837346,-0.4997563930500778,0.025207915763612032,-0.04795455083122874,0.008487014323814069,1.0154376907631242,0.01420628829874628,0.019321305786958596,0.027934936224269968,-0.016826972578320953,-0.935993703328599,0.05925652306701451,2.03125
0.033052131232838344,-0.012606866222329819,0.026589824441696556,-0.07021709442987961,0.00227175700054187,-0.007879681132031474,0.00043157293849425266,0.1414966848683364,0.00243653547471635,0.004024788362028959,0.0038653415037258844,-0.0027996622329555694,-0.12884076340952652,0.008885222074620556,2.0390625
0.19160161364123374,-0.07617326479598596,0.1454385863790294,-0.39453548825265106,0.019591256385684916,-0.038083136048898736,0.0064994599504423515,0.8020308397548687,0.011322548335836749,0.015590748904260257,0.022076067114150683,-0.013384157944759669,-0.7381942756282787,0.046910437411598234,2.046875
0.22016953754547272,-0.08756436266203307,0.16584607975046176,-0.4515141049500623,0.022585754286821986,-0.04341469799093085,0.0075295643958432565,0.9179402001334782,0.012856205473812742,0.017602617854477618,0.025336196036798802,-0.015218131415413878,-0.8467646056711894,0.05368983171592801,2.0546875
-0.24331592923582404,0.09811006590377738,-0.1829663603721783,0.49895511950687166,-0.028240935377781683,0.04514084705621145,-0.010341076964875446,-1.01659959983059,-0.013236160189323484,-0.016294820224363998,-0.027851171141799896,0.01585566121253848,0.9363899907628106,-0.05757295134647336,2.0625
-0.6664217733507217,0.2674676611372075,-0.5001939154045909,1.3649452235648352,-0.074489481592467,0.125869852286362,-0.026591326678396417,-2.7787887918656575,-0.03698389390795874,-0.0471521883527123,-0.07636087037739367,0.04414799596693897,2.5628781300896177,-0.15907561634387743,2.0703125
-0.52658900603829,0.21132744703175252,-0.3941285624212441,1.0769246984910221,-0.05905231393002939,0.09908376545796742,-0.021163528247560747,-2.192455806238195,-0.02906703451297844,-0.03686593913528606,-0.06027385831806034,0.03473070781310458,2.024081226585559,-0.12548213340614267,2.078125
-0.11545401819902253,0.04668424836628136,-0.08521467660738517,0.23429724453008896,-0.014033594596354117,0.020580773662094515,-0.0053451987818197485,-0.47789709022310956,-0.005952973929829809,-0.006834209391714167,-0.013100873761934551,0.007201822680883211,0.4429284463325488,-0.02681905666489883,2.0859375
0.07344139742593284,-0.028848164365093732,0.05593273657400852,-0.15175993384054473,0.006555212835916599,-0.015425488474080686,0.0018840389014909192,0.3076366415499725,0.004626413059417674,0.0069088614830873744,0.00855120340548049,-0.0054088064324674815,-0.28267898908609945,0.018512650219073782,2.09375
0.06823465768543421,-0.026741249495736284,0.05177981955847381,-0.14078632734382499,0.005967798851479231,-0.014431410915136618,0.0016745060395257731,0.28554750313767563,0.004325565029412478,0.006510586762547505,0.007955487936934236,-0.0050511533005374205,-0.2622574914599188,0.017286423085002018,2.1015625
0.13331971944529644,-0.05289043943620381,0.10138245486935452,-0.27535077054518237,0.013188929361723185,-0.026957338847416714,0.0042254308172286195,0.5590445276933887,0.008030198419301979,0.011307412663731354,0.015429801454025345,-0.009447194020713503,-0.5133074341637184,0.03291430841046615,2.109375
0.2692251434126214,-0.10733495708037008,0.20416334793343294,-0.5549760221850425,0.028136056815614326,-0.0529906254456316,0.009508578079275382,1.1270255010928578,0.0157141706954789,0.021274276725093293,0.030992723038768783,-0.018590500628938727,-1.0371261941775463,0.06550965598346166,2.1171875
0.30042578918333124,-0.11973826302005881,0.22744357173836358,-0.6183662352628527,0.031509308692537104,-0.05890445558868019,0.010713213584391245,1.2558120088013707,0.017459427267877237,0.023547746516090855,0.03453063519212149,-0.02068649754949966,-1.1573349666336439,0.07298641436199453,2.125
0.17139374798506513,-0.06798863651317168,0.1298423368770796,-0.35240740487572136,0.017300874734841338,-0.03413934515014096,0.005704960565243769,0.7157486156355131,0.010162414483714015,0.014097477638364438,0.019728847627387868,-0.012016423461155607,-0.6599755132589445,0.04203214071997288,2.1328125
-0.014838003100884416,0.006586960892908691,-0.010502989245790694,0.029961069769952168,-0.003132083396724051,0.0014873969168251212,-0.0015003361590536055,-0.06162955391442006,-0.00033570533075588324,0.0004794642898491318,-0.001607186278036827,0.0004889110724313713,0.057457271129754975,-0.002655258875926969,2.140625
-0.12643400113924427,0.051237892033981824,-0.09431226185307609,0.25820253594873466,-0.015359122926774063,0.02273976453296952,-0.005792387534720758,-0.526829684108997,-0.006607788539787416,-0.007682320954613217,-0.014413593737762008,0.007969257310763126,0.4863326093186438,-0.02944532538260261,2.1484375
-0.1472729243405095,0.05954743972554301,-0.10966748498296117,0.3003278705479656,-0.01762475442759126,0.02662446454213771,-0.006565354387908038,-0.6132288174391172,-0.007765630045143455,-0.009217013352001972,-0.01684080142767015,0.009342546463756618,0.5648612615735412,-0.03444961329741527,2.15625
-0.20023067318639012,0.08074732178248153,-0.14917823504327735,0.4087831042557309,-0.023375953319135074,0.036717692270458076,-0.008589545837045768,-0.8332152251645931,-0.010732383387018653,-0.01308726363771176,-0.02293189955936802,0.012868484421857458,0.7676602064828925,-0.04716052239949153,2.1640625
-0.32769411136023247,0.1318373858932523,-0.24497826956877788,0.6702672458511587,-0.0372912393505747,0.061122498732053845,-0.013515560762384875,-1.3641275877557315,-0.01789719024941109,-0.02238809308934621,-0.0375349758432656,0.021415866197788052,1.258971885783994,-0.07776863118195734,2.171875
-0.3183322626177915,0.12813402452685804,-0.238331329388184,0.6515670044347225,-0.03628159980632827,0.05940415678325627,-0.013190621837016761,-1.3255887306922642,-0.017387348812969595,-0.02170259143722871,-0.03643398716294896,0.020824940189916426,1.224818712155476,-0.0755411361835404,2.1796875
0.0012545533065700983,0.00010022181297716682,0.0014438029184863953,-0.0028628158532706225,-0.0013326213127570232,-0.0016124885369367813,-0.0009073829650861905,0.0060231409060772685,0.0005510117741882829,0.0016314409416922637,0.00025328395501075416,-0.0005525314157054205,-0.0035477526765773457,0.0011635223950024942,2.1875
0.3905045581851954,-0.15588699729373323,0.2940516730920231,-0.8007455965651376,0.04128996044379634,-0.07599077445449658,0.014093799632426253,1.6290805721657295,0.022426542209400175,0.030067254590626456,0.04493117067860471,-0.026631292975436364,-1.5011886292860868,0.09460204955649755,2.1953125
0.46207308399454833,-0.18456669501622427,0.3484127323404947,-0.948681124995107,0.04918354929904398,-0.08973376931788216,0.01689533112733731,1.9288024853802916,0.02648822851380139,0.035327814029651225,0.053148727539874464,-0.03146583147631442,-1.77750268414747,0.11179547336327572,2.203125
0.26643238462775054,-0.10615989501067975,0.2019717954716021,-0.5491931866362344,0.02781154952894716,-0.052437075965867226,0.009405475003066023,1.1146334314210082,0.015545915061968677,0.02107953633247636,0.03069817060160903,-0.018408238115465658,-1.0260913855891731,0.06486875092296791,2.2109375
0.1854572369854871,-0.07374240125771922,0.14119830864766827,-0.38343639257944023,0.01893368403685401,-0.03696466583329651,0.0062840956079066035,0.7775763379117067,0.011008121616456994,0.01517764725525254,0.021416010567566448,-0.012995650968223804,-0.7152977879671815,0.04546390062663331,2.21875
0.2805058733615964,-0.11187722017026773,0.2120774131924758,-0.5769378695426249,0.029271167919586515,-0.0550133063951626,0.009890962363041302,1.1727021762349485,0.016306766500156805,0.022086911759399107,0.032330897535104874,-0.019320333709456457,-1.0804304673653704,0.0682534363079967,2.2265625
0.21811432849558082,-0.08684371729701176,0.16446032679892789,-0.4477042098626013,0.022366688357359048,-0.04299324117587748,0.007442839666568005,0.9102884412122176,0.0127500907252461,0.017477342210578475,0.02513866576515684,-0.015087545023898455,-0.8391193315276099,0.053201231791419584,2.234375
-0.14558312815010938,0.05897914269975158,-0.10902271649293555,0.29768220840582693,-0.017464218057392195,0.026447099828139975,-0.006545917369804001,-0.6072766068076264,-0.007689611438055105,-0.009110342457207368,-0.01665514929877552,0.009274360013715958,0.5603788610061557,-0.03412705282720553,2.2421875
-0.5665583403831747,0.22763235862913517,-0.42483242117097303,1.159440708530502,-0.06350343737061648,0.1067310400359048,-0.022705285722777975,-2.361362466524941,-0.03131215903037022,-0.03984168173335559,-0.06497548084446853,0.03742262954160434,2.1785366889201865,-0.1351057675777909,2.25
-0.7901561936804099,0.31703529130334607,-0.5924339234495679,1.6173653715275045,-0.08796053872404146,0.14938808034156015,-0.031307881348369135,-3.2922991935586454,-0.043876351123222836,-0.05616384085561971,-0.09058047683951742,0.052378151383373595,3.0372557730983973,-0.18869950778651878,2.2578125
-0.7075711756391443,0.28382182098649605,-0.5307581078076383,1.4491208663026869,-0.07897426183583435,0.13369880715982796,-0.02817961663142067,-2.9487959518071865,-0.039285165490196026,-0.050160313214814525,-0.08105745361075943,0.04688999074389225,2.7198430365657407,-0.1688916910409662,2.265625
-0.2639932910617554,0.10622359424848817,-0.19798523655197192,0.54088714224305,-0.030450035338753755,0.049054546077237283,-0.011131684951564885,-1.1008479444660004,-0.014384542681734575,-0.0177806640714542,-0.030174314819321226,0.017217322741813618,1.015027856604792,-0.06248857209749068,2.2734375
0.3523903639186233,-0.14050821499786534,0.2655466377436524,-0.7231645789397361,0.037115393336080334,-0.06872944440006397,0.012648195803392076,1.4700468593051343,0.020306870920863175,0.02728580042216019,0.04051102246056871,-0.024105040122656716,-1.3552946156876355,0.08543670204101665,2.28125
0.6570455184636681,-0.2625168197488415,0.49547581039176253,-1.349167821769304,0.07060706574692929,-0.12703188200032162,0.024451185660893156,2.7430922922116348,0.03750570581478462,0.04961357475578717,0.07545929259282698,-0.04457918309423139,-2.5279126232452107,0.15858448289592328,2.2890625
0.4449252851760567,-0.17764512424676465,0.336386780183688,-0.9147723622425012,0.047410444382012897,-0.08653020242177542,0.016292098277158083,1.8595811656720895,0.025595510989899335,0.03413750289671643,0.051137050809158396,-0.030377585958087684,-1.7126285628221727,0.10767209396235478,2.296875
0.10219762433005393,-0.04037923484200118,0.07801442351237946,-0.21092281817531489,0.009769416163899544,-0.020966558407927726,0.0030341857031693713,0.4281898878172136,0.006269993243280932,0.009042221135736014,0.011812587010887386,-0.007358814703824726,-0.3936979041531766,0.025384110263780322,2.3046875
-0.01188304369501659,0.005408265422867589,-0.008621743167746781,0.02440318686975962,-0.0028462972318788827,0.000911192326943058,-0.0014132825125783442,-0.050300354217502,-0.00020456650606778278,0.000640349421952906,-0.0012948569222038205,0.0003327869554072985,0.046178283008556344,-0.0019932286470370135,2.3125
-0.006807400771761554,0.00340665464269542,-0.004685541383101907,0.013866097662198531,-0.002287929886821684,-8.421205005376183e-05,-0.0012063280066327913,-0.029027623815306127,8.458594248927237e-05,0.0010134086031040196,-0.0007101578496982383,-2.8232089711613375e-05,0.026649829868728908,-0.000722472674645093,2.3203125
-0.004685328934531887,0.0024583129177272512,-0.002108976939361464,0.00784462662696487,-0.0019349757486232914,-0.0005955101583295258,-0.0010629787029362175,-0.017179438462748595,0.00026951214943384525,0.001242871411856699,-0.00043041014296061773,-0.00023793711835964657,0.01728568055524595,-0.0001603282702736541,2.328125
0.09982313339364693,-0.03949800916839783,0.07708209668510459,-0.20773579112309432,0.009604918498160942,-0.020623120301070306,0.003002754964518198,0.42110692420997015,0.006201426611736038,0.00894017823328684,0.011594632039218579,-0.0072769836898219685,-0.3857523879832163,0.024927718591733105,2.3359375
0.21882204611641143,-0.08715503901556135,0.16599841996555317,-0.4511142291214746,0.022587309097254177,-0.043295658027394456,0.007552305480228753,0.9164393194358331,0.01287187168150632,0.017606610331372854,0.025246809005722088,-0.01520914158436494,-0.8432246967520795,0.053443815604637325,2.34375
0.13851217209072864,-0.054948551676819384,0.10454105111740968,-0.28469673915213306,0.013659118957712744,-0.027828374226061273,0.004382799779390228,0.5785995035787173,0.00828332227080758,0.01165769183750906,0.01601177633674619,-0.00975113507545311,-0.5331187171714395,0.03411339515889316,2.3515625
0.03688375143613735,-0.014253716875120821,0.027870019193832144,-0.0756233099016931,0.0024911987843728852,-0.00836573641615544,0.0004410587465944659,0.15380396585651143,0.0025380442724584258,0.004206515946616882,0.004341392967335462,-0.0029179280989827428,-0.14149831402676558,0.009698158803591067,2.359375
0.14268211940573589,-0.05664942918944561,0.10823864292762345,-0.2937395388507584,0.014181613242612214,-0.028663514206518304,0.004570557054095793,0.597001263667399,0.008534173078790397,0.011989152563735552,0.016475148259246022,-0.01005969661511383,-0.5490442516712185,0.03510059011075078,2.3671875
0.10193271601131305,-0.04029530393620051,0.07831152647429855,-0.21172665248680353,0.009800004713379204,-0.02099471638439422,0.0030594060357030427,0.4286342644138744,0.00629170733851563,0.009046912293782476,0.01178590532141109,-0.007382842964522197,-0.3933970936205801,0.02533196745258327,2.375
-0.4455586949421214,0.17905117944392537,-0.33369177610768,0.9107462829625037,-0.050231950090875825,0.08358462257138569,-0.018045916521870778,-1.8560175599416369,-0.02451626345448179,-0.03099871482810257,-0.051036575152378715,0.0293147821242871,1.7123373457598932,-0.10606729833389626,2.3828125
-1.0327444930463268,0.41428098098839294,-0.7759980086752356,2.115884213566023,-0.1146640468567918,0.19584049855781818,-0.040724451070415495,-4.307289148180742,-0.057593176661060716,-0.07396293133928947,-0.11839794041269948,0.06870676684821726,3.9718350384159016,-0.2469857068107835,2.390625
-0.9549957841638087,0.38316691699654015,-0.7176399446458791,1.9573647878303122,-0.10615573005838513,0.18103700194822997,-0.03774791983060007,-3.9834517047439473,-0.05323994657571848,-0.06828927366827875,-0.10948443967419844,0.06350870807842376,3.673457772412815,-0.2283159427426187,2.3984375
-0.27199927731457607,0.10959162822285215,-0.20341929812712076,0.5567040399815617,-0.031245395808467344,0.05051468780380657,-0.011395288745305548,-1.1332933643473844,-0.01479944136310413,-0.018346073160898587,-0.031152287693666167,0.017710902533280448,1.0458024048390129,-0.06440483494755128,2.40625
0.41782815611868124,-0.16678011825245423,0.31587446171639133,-0.8585709116649697,0.04439750444502193,-0.08133799111915305,0.015230448572735453,1.7454761608630702,0.02403824866073665,0.03210766462747554,0.04798916689229687,-0.028548730893838966,-1.6086941955168867,0.10115141509375236,2.4140625
0.701019573636355,-0.28026573633369245,0.5288567453810714,-1.439711160258262,0.07542032822693867,-0.13544624001782646,0.02615706685914063,2.927171509533979,0.039990286973151094,0.05284339094815923,0.08052555166863516,-0.047540024839100664,-2.6982859935086507,0.1691594517313302,2.421875
0.5265156749951934,-0.21034240666184964,0.3972746419992037,-1.08152736557459,0.056258134579313994,-0.10205037156833559,0.019410607672088086,2.198759661781471,0.03016939780568475,0.040101351310813556,0.06054620748006316,-0.03583483654285247,-2.026245079379031,0.12732634946162033,2.4296875
0.22295412010290958,-0.08872182577264158,0.16849701455671562,-0.4580118546731943,0.022949037463466097,-0.04398350378020594,0.007668600092093116,0.9313883992755164,0.013057285685502818,0.01787744407022,0.0257084502747048,-0.01545061458605206,-0.8575574450763901,0.054451392976578326,2.4375
0.2862515336117858,-0.11412398566093106,0.21570336643400653,-0.5867426133983578,0.02984654719071207,-0.05603417167797368,0.0100740483977161,1.1943802695536914,0.016578986293603798,0.022456887132231724,0.03293268455623834,-0.0196447825602851,-1.1005760321969085,0.06957617306442024,2.4453125
0.6235033797598555,-0.2492327740165681,0.4694160204103183,-1.2782967321729655,0.06680797617784012,-0.12048905813070605,0.023086083942722452,2.6011799804697486,0.03555601127933841,0.04711207404370483,0.07160314076932102,-0.04224810028311521,-2.3979917356704377,0.1504995269382656,2.453125
0.5207949868549852,-0.20799384100684917,0.3928371772119315,-1.0692531832868886,0.055628418743866224,-0.10096073960888517,0.0191881352649485,2.174172148950646,0.02983352598243883,0.039656413990672525,0.05982495356325562,-0.03543121334413619,-2.003575112682793,0.1259024762759158,2.4609375
-0.1400998152830533,0.056800577725068614,-0.10357304663663762,0.2840342355631366,-0.016708035443450807,0.025211965262024905,-0.006241378265602048,-0.580795104259862,-0.007297072442318746,-0.00861902257369199,-0.01596690600997425,0.00880154431962442,0.5375591165366088,-0.03267051662942493,2.46875
-0.556445381014877,0.2234584198988949,-0.41688093715722485,1.1376290949426495,-0.062337773953887045,0.10477298827642084,-0.022321502150653934,-2.317094156060961,-0.03073730909361571,-0.039081322281392994,-0.06369368161956168,0.03672940068107664,2.1383999049047815,-0.1326235242348938,2.4765625
-0.3783365381585727,0.15197328540084423,-0.28382127355040626,0.7743760033928674,-0.042920780480411605,0.07086847403045463,-0.01553533296658498,-1.5759973460755567,-0.020790336005401335,-0.026128116992117787,-0.04326164918074414,0.024876403038531825,1.4539727203529513,-0.08995102588142372,2.484375
-0.20686325697266564,0.08333796561241415,-0.15544892735560992,0.424487844315374,-0.024207253111512665,0.03819228022679736,-0.00895943612972934,-0.8631098504311324,-0.0111925892023334,-0.013633319114131496,-0.023650392848880857,0.01342557875245665,0.7958823978670257,-0.04884648528704845,2.4921875
-0.3619026096940958,0.1455928677774986,-0.27162176773849983,0.7417115488587956,-0.041158492322143775,0.06774794179004774,-0.014884129865384085,-1.5099141189500798,-0.019884482929085977,-0.02493934375727353,-0.041488907979883895,0.02376735917731483,1.392648517031544,-0.086037943223089,2.5
-0.47422440591161447,0.19059181974262093,-0.3551555412776934,0.9699314677941175,-0.05337044225987079,0.08907355442553952,-0.019142082506651704,-1.976133850415441,-0.026135093508817257,-0.03308774823157663,-0.054348846962427845,0.03122004506051331,1.823421912201863,-0.11292831949892694,2.5078125
-0.4147340331374941,0.16662973556491087,-0.310119496882431,0.847277211677327,-0.046827766477598495,0.07767590630606865,-0.016844616422482105,-1.7265566576605982,-0.022771800612286563,-0.028718701989433083,-0.04746032296786868,0.027223755801171284,1.5935640126209034,-0.09860613624375653,2.515625
-0.3197663153261161,0.12854411576741887,-0.23940207375080239,0.6540561520787678,-0.036502955266028994,0.059635616938919014,-0.01324645361588401,-1.3319613282307194,-0.01748282759782596,-0.021821126435228155,-0.0365482380210455,0.02092190830250303,1.2291117430352734,-0.07583543704988467,2.5234375
0.02233675335219311,-0.00836566210778355,0.017138406219603795,-0.045992848394670986,0.0009069679545961752,-0.005631887627235398,-0.00010179485182850733,0.09291001297307047,0.0017220328534079986,0.0031486519974889666,0.002668030023553942,-0.0019565182284889816,-0.08539764582811282,0.006233768027302755,2.53125
0.5905933727079447,-0.23585878558619963,0.4447725917455173,-1.211835405517527,0.06321251082576378,-0.11424331846467098,0.021841194457479684,2.463938245885056,0.03373147539131013,0.04472403397514359,0.06783925790243522,-0.04007447446061389,-2.271503849688005,0.14263888620070608,2.5390625
0.6863546255004525,-0.27424003900819915,0.5177994343391579,-1.4099534803263798,0.07382337429149616,-0.1326544844451585,0.02560539874275998,2.866332746355413,0.0391971360332651,0.05179590985025762,0.07883196747778508,-0.04657084309642808,-2.641559883018933,0.16567798380180213,2.546875
0.1716081359961725,-0.06818133880286693,0.13116200774119566,-0.3549496881092439,0.017480177581238814,-0.03433546582185671,0.005777410728207262,0.7207981347894021,0.010257296074037851,0.014184669585930952,0.019789461470539463,-0.012097794949664493,-0.6624660182586781,0.042142842655864494,2.5546875
-0.04228033324697082,0.0174248381799388,-0.030348156536865335,0.08507607573797078,-0.006024038405550743,0.006631970161011761,-0.002529782687028021,-0.17298911111943607,-0.0018383376397499225,-0.0015083998560811518,-0.004744981018371222,0.0022964021941197983,0.16111144515625989,-0.009246186967434476,2.5625
0.35638496778857087,-0.1422019639488884,0.26848506727925037,-0.7307961033203655,0.03754288910673018,-0.069435871194112,0.012778323491772377,1.487010255267092,0.020520607789889147,0.02757156650167752,0.040986464469902256,-0.024352769756252248,-1.3710422763562997,0.08639102069099829,2.5703125
0.5294654416478528,-0.2114477794271969,0.398500693875209,-1.0857870548989983,0.05647613253051005,-0.10253041500901136,0.01946292472254049,2.2079188515651342,0.030254875546620697,0.04022233755436916,0.06082760399846922,-0.03595253219028657,-2.0364776494492687,0.12793617088162101,2.578125
0.2188666219285157,-0.08707433073741143,0.16567074514707547,-0.45028540812205753,0.022526423146167852,-0.04329324198342567,0.007546450750845972,0.9141480083562562,0.01283254811959102,0.01756605285148,0.025184317027260577,-0.015187945865299373,-0.8424945765285761,0.053408406149919374,2.5859375
0.11375312340375524,-0.045093928987809104,0.0872001434402987,-0.23550673093962626,0.011090862217841573,-0.0232479958012932,0.0035134959828290436,0.47786563991224307,0.006951797373750141,0.009913915518739576,0.013137769038967422,-0.008166179601614202,-0.4388180963135738,0.028172547591116447,2.59375
0.13634121920952783,-0.05417083359768877,0.1037645141812006,-0.28108276221419876,0.013522085186610898,-0.02748896249357211,0.004341218239598798,0.5714482819612282,0.008193431745723633,0.011536853024361322,0.015744454114741572,-0.009643816596345311,-0.5251553324532156,0.03357562106695078,2.6015625
-0.5031115657342029,0.20208256735370644,-0.3779969807955179,1.0311218349006117,-0.056668393026653434,0.09475680010082752,-0.020352699734229394,-2.0987120418199017,-0.027832732101203305,-0.03526112979244331,-0.057628184715840386,0.033250018532111514,1.9358250921839206,-0.11988702298002639,2.609375
-1.3923754694740436,0.5583867285331225,-1.0468300656686773,2.8542604668049436,-0.1541368736434763,0.26461793180106,-0.054614773271560814,-5.809039137484731,-0.07786246385276804,-0.10027252295840484,-0.15966908501360175,0.09282563775829726,5.356716140168536,-0.3332739790904944,2.6171875
-1.2567968818570474,0.5040499144190675,-0.9439638351706421,2.5748717867395503,-0.1391588333652976,0.23860469244621282,-0.04932676113939186,-5.240924375232322,-0.07017613062034186,-0.09030363556822621,-0.14410399434095636,0.08367615224746253,4.8338849216632465,-0.3006997932191058,2.625
-0.17383327972474266,0.0701831830361638,-0.1288430438846021,0.35347498008299005,-0.020377759252546486,0.03165224554838075,-0.007549107227511827,-0.7208833250911914,-0.009202830602157262,-0.01108637778914878,-0.0198266132690781,0.011068438360309343,0.6669565220389834,-0.04078735986908221,2.6328125
0.5908903703438296,-0.23613821784788655,0.44584205575245967,-1.2137639623541927,0.06337999234906799,-0.11438066945800235,0.021892538389384295,2.4683731354409257,0.03379596940176495,0.044795649942429086,0.06792434809054373,-0.04014372028043664,-2.274268285738423,0.14272383924892404,2.640625
0.6492754904080357,-0.2594887016584672,0.48886191361966397,-1.33196287433002,0.06965735970137261,-0.12543129626632293,0.02408067447082689,2.709484814144444,0.03701923782609029,0.04899950741722241,0.07461581429484516,-0.04399833083443581,-2.497854510047179,0.15672619806668805,2.6484375
0.5704777308329269,-0.22793771782140573,0.42942408417190964,-1.1699031500970216,0.06098507657158162,-0.11034881617481002,0.021024461284502076,2.3801987009113925,0.03256622815941722,0.043213899374835406,0.06556321602076953,-0.03870265873906968,-2.1946746028518396,0.13781645919925758,2.65625
0.46708022698867435,-0.18657002336404982,0.35232735434759677,-0.958941239660963,0.049727586431520907,-0.09066184443718868,0.01708031418935828,1.950475840605735,0.02679031838233095,0.03569525618548019,0.053685572136440304,-0.03180888766660253,-1.7976473100875512,0.11298659750183625,2.6640625
0.12550371295588053,-0.049752924758725475,0.09607003373582669,-0.25987227624730763,0.01237094782295594,-0.02549852657147568,0.003968178582685908,0.526816683948214,0.007617212706479977,0.0107704583287754,0.014478145975935714,-0.00896008802030179,-0.48424575370899,0.030989887418728317,2.671875
-0.1260489988798677,0.05107091647878425,-0.09317302146138547,0.2557420213366189,-0.015197793315784401,0.02252352250069079,-0.00571462060223353,-0.5230666814844205,-0.0065390123528758035,-0.0076247304350698115,-0.014383459518421331,0.007889518241899573,0.48331428533727244,-0.029368766427381263,2.6796875
0.00748089121249196,-0.0023496490179255947,0.006694893427073626,-0.01721924634221774,-0.0006217233431140781,-0.0029279021789739186,-0.0006009927104441672,0.0326561194011664,0.0009403958366688612,0.0021024207578196233,0.0009635693044523805,-0.0010294162887164871,-0.02987792088876312,0.0027050157356690325,2.6875
0.11444015354932847,-0.04519075039709085,0.08668092588481507,-0.23579627773911502,0.011044448670978181,-0.023258453322424717,0.0034819493818760493,0.4779914817410872,0.006941637516803069,0.009913611876990575,0.013253277276338135,-0.008159665668358195,-0.4402566414289589,0.02836096226645817,2.6953125
-0.11231001784552545,0.04557436879761411,-0.08384423701891071,0.22931153339249763,-0.013824912736245197,0.02010500069307006,-0.0052639087411875795,-0.4680882975165382,-0.005807768241668484,-0.006645319892244265,-0.012793936151279654,0.007044974470693744,0.43265428017300483,-0.026104326150207555,2.703125
-0.28528376589545607,0.114799465686888,-0.21355403342146936,0.5839148905609736,-0.032754482383738355,0.05309527350620599,-0.01190341373884247,-1.1892100754032737,-0.015528710816227911,-0.019286512860698747,-0.032696544606680936,0.018610309527183424,1.0971559157906186,-0.06763274124239366,2.7109375
-0.13926140919138086,0.056301216316759495,-0.10335154790815529,0.2842947535733623,-0.016691244680379195,0.02512183294016751,-0.006249603059691707,-0.5789151307121614,-0.007303437093794114,-0.008618220936597304,-0.01595400828788741,0.008794251918317234,0.5339570628739199,-0.0325570122286768,2.71875
0.012910442366735353,-0.004626719575375145,0.011136372436086488,-0.028105668064165815,2.9513743901477558e-05,-0.0039552450431630274,-0.00039064874620874096,0.05707129571206945,0.0012694332028580899,0.0025187278795005667,0.0015616951116010649,-0.0014043388006060719,-0.051403131898512006,0.003999093885319767,2.7265625
0.008528240671750092,-0.0028601480741664823,0.007470955822211242,-0.01906960749755092,-0.0004758877638138212,-0.0030575637272336744,-0.000594033589197634,0.03862237181623411,0.0010125146554970847,0.0022095317478891805,0.0011207016761208886,-0.0010819592692439622,-0.03298854789763144,0.002961831855688735,2.734375
0.07165627588137854,-0.028151353570137903,0.05446286219838459,-0.14764261731260536,0.006366929276538848,-0.015066413087577302,0.001806352429225953,0.3002179776184671,0.004518892200350322,0.006792391167598405,0.008366761885119997,-0.005282846900296579,-0.27472608977009616,0.01811091553608444,2.7421875
0.15363011919639352,-0.06097695166405583,0.11602826547095088,-0.3151589427405024,0.015316307824903187,-0.030744597277963887,0.004968956155458182,0.6408223798640645,0.009097382105758564,0.012741153322572614,0.017731549802830888,-0.01077837637090921,-0.5904862254040647,0.03777560722305339,2.75
-0.05716147729745473,0.023478906955419442,-0.04194861327306115,0.11604416928084699,-0.007723950780581139,0.009436101682383406,-0.0031067557860792465,-0.2376012203257916,-0.002730284620918561,-0.002651260172321242,-0.006477018009591636,0.003302888387930567,0.21924127625309564,-0.012810089486767767,2.7578125
-0.41605669517359467,0.1672374746458579,-0.3111507739810403,0.850280560142408,-0.046968432410304205,0.07790938359832306,-0.01688477549467127,-1.7326258937663808,-0.022856808079140048,-0.028820699356402284,-0.047639717837235224,0.027300997918264413,1.5990235346778132,-0.0989117920604476,2.765625
-0.42186940497911285,0.16953558539494473,-0.3154861676582145,0.8620679897260587,-0.0476053356579878,0.07903398300650846,-0.01711124128431438,-1.7563226922176105,-0.02316890255527837,-0.029220199466323767,-0.04828132211097245,0.027691571310062817,1.621310413640344,-0.10028560311067539,2.7734375
-0.02385959502734918,0.010082520290284088,-0.016948116034639766,0.04748020310406791,-0.004082172282024305,0.0031288717001354284,-0.0018367219196037603,-0.09771086919823191,-0.0008249750747083057,-0.00017314048208529292,-0.0026072850106713483,0.0010876530191477423,0.09086128373171598,-0.0048122955581972205,2.78125
0.31835135400065684,-0.12697446705294232,0.2396905619971775,-0.6532798122187771,0.03334676171306047,-0.06214259130110436,0.011301681601829141,1.328265034493407,0.018394552921690868,0.0247937909734585,0.03664485441993567,-0.021783965391262386,-1.224952802775517,0.07723218002883114,2.7890625
0.3221485687369871,-0.12843916517858345,0.24278055947341817,-0.6620060649947537,0.03380348168061318,-0.06291975139572978,0.011477906198020941,1.344844374934981,0.01864373561823311,0.025087789970962792,0.03705914435719632,-0.022059882090909488,-1.2398676460691154,0.07812317055332085,2.796875
0.1242232095183562,-0.04913786306470318,0.09482947250301627,-0.25756469208279087,0.012220845360153268,-0.025242078317062117,0.00391957602078174,0.521394298569262,0.007567559458673008,0.01067394229495218,0.014335515576023073,-0.008869719371137102,-0.4793915247975502,0.030685932569894474,2.8046875
-0.047437027366615696,0.019566303408800764,-0.03386655954170415,0.09455578402443188,-0.006546853475289708,0.007517977391797758,-0.0026816121887081996,-0.19378865319816532,-0.002086661349178625,-0.0018559794877919067,-0.0053568315766802455,0.0026084452177425233,0.180852438737116,-0.010459702959200916,2.8125
-0.05890491886073869,0.02411753775866585,-0.043133570704961835,0.11972900217304344,-0.007879754099207246,0.009809636582798691,-0.00318216222411186,-0.24341424969510173,-0.0027949415279164207,-0.0027395527388075734,-0.006667878927345239,0.003431511147701599,0.2260816526880176,-0.01323639061746839,2.8203125
0.11852074985093071,-0.04687873640758886,0.0894166386123618,-0.24272057308792963,0.011455185739410241,-0.02399697079888026,0.0036035868086318813,0.4939788023047616,0.007124557546486903,0.010169234277217519,0.013671934603016722,-0.008400688357829615,-0.45540618873283667,0.029296564050231587,2.828125
0.308760821607807,-0.12298116909997112,0.23251752778378199,-0.633200827099775,0.03229534338652517,-0.06037729586447557,0.010955047338417068,1.287025951337708,0.017830421705595345,0.024070452621615942,0.035476941252816384,-0.02116464817333769,-1.1874578289823525,0.07495099955111185,2.8359375
0.2440361270234463,-0.09710825428909542,0.1847984200404801,-0.5021438014384445,0.02530986165406852,-0.04811731482475337,0.008522420214446583,1.0194708782474915,0.014247393546039704,0.019401331417212845,0.028063771265942523,-0.01689271193001862,-0.9395951701773805,0.059448035145007606,2.84375
-0.04705524705437049,0.019324605389552385,-0.033428709435465456,0.09373018500805398,-0.006504283069138105,0.007454451871270977,-0.0026706044186049858,-0.1924489282850988,-0.00208923020564329,-0.0018213120022573305,-0.005294554970523244,0.002582760158927488,0.17950082406597315,-0.010401914115976903,2.8515625
-0.24551670439242657,0.09877510373832143,-0.18313943114746878,0.5015169259601739,-0.02830896740199153,0.04544452599759487,-0.01036026454756331,-1.0212652331047256,-0.013283569646968888,-0.016352578287713613,-0.02805276417124806,0.01592128131618053,0.9435278095897395,-0.05804786317598963,2.859375
-0.23634652978272672,0.0952337230849591,-0.1772237454530632,0.48433007256713767,-0.027433572763189945,0.043792423928542754,-0.010063226805199554,-0.9859873340809048,-0.012826131771951216,-0.015753518142492495,-0.027029090598984926,0.015362875905381055,0.9095358262487072,-0.05584939550090386,2.8671875
-0.2201105981299305,0.08882708921065025,-0.16518037132234933,0.45123025133923655,-0.025678594202674404,0.040684842692532225,-0.009435328832469682,-0.9188845550356515,-0.011913880898485026,-0.014578883613826282,-0.025180705086458303,0.014270941936441576,0.8475154756650921,-0.05191147747732689,2.875
-0.2554684641008561,0.10293100628134631,-0.19086871702999997,0.5219952859975723,-0.02943010190226963,0.047316290114856496,-0.010729930014540765,-1.0633847944584776,-0.01382877749681281,-0.017085797864725846,-0.029203844284368903,0.016571006386578324,0.9823400121171351,-0.06033157100004001,2.8828125
-0.14828624709654284,0.0599248800902958,-0.10950190321467107,0.30062356811477176,-0.01757659947767,0.0267426526922458,-0.00654423963883704,-0.6135637125079061,-0.007735553061843701,-0.009182543087487352,-0.01686688248381832,0.009334709418883426,0.5684825835571695,-0.03457857416236485,2.890625
0.09877365327127663,-0.03901618849307293,0.07586207429572837,-0.20536069847181995,0.00944765858821829,-0.020397563659192434,0.0029453197411541407,0.41597030858017386,0.006135098275474754,0.00884285230576745,0.011475680909253097,-0.007186588758888742,-0.3819930414134863,0.024666105973416515,2.8984375
0.20747668429428082,-0.08255542156626458,0.15653371115340592,-0.4262000688528572,0.02122906331293731,-0.04101690203314439,0.007049361815222484,0.8664389889826278,0.012168177361352561,0.016698722101672732,0.02391934002783154,-0.014381533893407173,-0.7989765273980782,0.05066418398703342,2.90625
0.11739213428800443,-0.046569416811603793,0.08847957112352654,-0.24063789703862817,0.011325525522638607,-0.02375744466838151,0.003543980415207264,0.4899714950035099,0.007069112456660105,0.010084838851152914,0.013576033907496962,-0.008306002789240121,-0.4518671887912026,0.02899697587665286,2.9140625
0.09689910276206674,-0.03842432046580067,0.07385024871974098,-0.19992865586074748,0.009177095943456497,-0.01994269410636708,0.0028071405662618188,0.40652819127077433,0.005962217434109656,0.008638182764068374,0.011234418256032195,-0.00698290558185048,-0.37373891630510697,0.024098110351720905,2.921875
0.2259060280428895,-0.09000043548066773,0.1715596017402688,-0.4659459174403843,0.02339332740829763,-0.04469010885917511,0.007837866428647939,0.9459651932113645,0.013264352065256653,0.018107789402552883,0.026025690653390464,-0.01568759026916305,-0.8706092897520318,0.05508313917196028,2.9296875
0.2047456102214705,-0.08135144848641353,0.15526542678132785,-0.42220166339416026,0.021027210185646596,-0.04061848740600866,0.007009603658605462,0.8561350764399162,0.012055083263355795,0.016530263476154838,0.023564306809863118,-0.014257324071787359,-0.788510027538051,0.049988967033843194,2.9375
-0.11480475478043277,0.04675051026186258,-0.08595854871624536,0.23462748684910675,-0.014095369681856864,0.020532404518968497,-0.0053627424696975606,-0.4794462329791094,-0.005975470386252833,-0.006885472081264201,-0.0131237222081137,0.007213304076887039,0.4421208762180976,-0.026722143304876992,2.9453125
-0.3849557436095676,0.15497580467114153,-0.2893592042525886,0.7893940445538308,-0.043727157734898416,0.07217835865535938,-0.015798206396703485,-1.6071765154731157,-0.02120304687513024,-0.026655677112296185,-0.04412095786463345,0.02533566606856271,1.481934332404971,-0.09154368701819561,2.953125
-0.2765109907999645,0.11148693236136172,-0.20710839334132397,0.5664070417892326,-0.03176790355992191,0.05139488665487608,-0.011586832849009007,-1.1533049786009075,-0.015088218120945757,-0.018707248626702148,-0.031673374355699196,0.01802853182237804,1.064032030318794,-0.06548955302620664,2.9609375
-0.037911115144631385,0.015806353491770238,-0.026833424884030888,0.07597494908678633,-0.005536570020837291,0.0057322449631448825,-0.0023404456148783236,-0.15580010663705862,-0.001618409764127339,-0.0012135774799090753,-0.0042918415345330665,0.001986465734967854,0.14493599446265062,-0.008206466036783197,2.96875
-0.08937560292716844,0.03632284405060294,-0.0652686488388115,0.1806020598338252,-0.011165011025804058,0.01554908788542327,-0.0042931819955667905,-0.36924838261872395,-0.004457454446102929,-0.00490799458437657,-0.01017155553096109,0.005408284658813005,0.34227669134929295,-0.020527286994701268,2.9765625
-0.22900259992340768,0.09222881620670105,-0.17059910843012366,0.4666585436923147,-0.02651831789820752,0.04227074261822805,-0.009681811722966397,-0.9518180474364636,-0.012287130248102327,-0.015075277284787187,-0.026141499365000403,0.014773120314068819,0.8795653731552824,-0.05399588860887537,2.984375
0.1383257043593734,-0.054925738657313324,0.10508365568442286,-0.2857724479413657,0.013676216893782348,-0.02784203584060722,0.004431295393465626,0.5796636382831335,0.00834511776338086,0.011746182948354951,0.016043484505134663,-0.009800118412899952,-0.5331465241868334,0.03416855969961472,2.9921875
0.9163386255884307,-0.366652754419072,0.689763995276322,-1.8795127754126568,0.0989057843293913,-0.17643921841621388,0.03436949938124753,3.8243534578153233,0.052055425526590426,0.06855029684330717,0.10529444412037096,-0.06188391281893633,-3.525803452141434,0.2208472153919817,3.0
1.1849830547162667,-0.47429575295831733,0.8918394451673396,-2.4295204860941526,0.12836015235754206,-0.2277826994060185,0.044724050792243786,4.944659232941572,0.06714940106169447,0.08815961309071323,0.13606002654920207,-0.07987692974802282,-4.558910667547137,0.28528684319190206,3.0078125
0.4344621975350633,-0.17352812854215133,0.3279340178122382,-0.8917667274415587,0.046174258859391575,-0.08448262300014579,0.015852289789121253,1.8142558679310474,0.024964576765588907,0.033327492963657473,0.049914353184415915,-0.02963716255049656,-1.6717053078505923,0.10518043753257182,3.015625
-0.7053521267585725,0.28319811616466284,-0.5287910195422674,1.4433668908109374,-0.07866833051027373,0.13319492728340826,-0.02803555475782269,-2.939574698332855,-0.039119460309597884,-0.04996624980039968,-0.08083705499014264,0.04669016913047493,2.71228039603389,-0.16834849672574884,3.0234375
-1.2938776788060502,0.5189186816484443,-0.9716503683205998,2.649923317212847,-0.14317046299831415,0.24565784934655738,-0.05075122355884899,-5.3945883370676055,-0.07224907673222582,-0.09302102321077356,-0.1483249345643323,0.08615413216532834,4.9756195515766235,-0.30963028291472683,3.03125
-1.0723278821923568,0.4300738339015428,-0.805951010879701,2.197782303630954,-0.11898632587246208,0.20346468642410528,-0.042292345070246824,-4.472289689160697,-0.059855217216670566,-0.07689441275130914,-0.12292416665768624,0.07139355522294827,4.124171392050226,-0.2565431178498128,3.0390625
-0.3799728317978115,0.15278413764914217,-0.2858455057502661,0.7798657134331546,-0.043189273438895594,0.07128400683188593,-0.015640114714289634,-1.5862208679796304,-0.020946587567465674,-0.02631254511978653,-0.04354455128011948,0.025038582158530727,1.4623377182858988,-0.09042535411154033,3.046875
0.31569767718045955,-0.12574935492792516,0.23785756723032023,-0.6475419736937756,0.03309222965993338,-0.061687024966361914,0.011228589134284215,1.3164145479530465,0.01823154202994334,0.02458816850987251,0.036252406869886386,-0.0216349112119697,-1.2137443188621444,0.07657436493192203,3.0546875
0.5957279687812345,-0.237934296053131,0.44952367912976715,-1.223999152556139,0.06389184908554818,-0.11531873290531579,0.022097289734333243,2.487603205097962,0.03406655763771649,0.045137374866942644,0.06842275416729449,-0.0404804346862465,-2.292592878077234,0.14385982128001698,3.0625
0.37776668323589185,-0.15077535719344412,0.2859635589111032,-0.7776958173800026,0.04003685564229136,-0.0737012841119033,0.01370283545956859,1.5800642864098176,0.02183236852455368,0.02923652392194937,0.04346710665954275,-0.025885095200937014,-1.4550778833389686,0.09159211903135091,3.0703125
0.11369962612127593,-0.04506254857740672,0.08670585409001821,-0.2348106548804491,0.011011718152125505,-0.023155419538525894,0.003468023621583894,0.47693038946331257,0.006928229209037358,0.009897236632797846,0.013184418972309228,-0.008135920072363858,-0.4382945740697654,0.028212555491141336,3.078125
0.18354617790238242,-0.07294891508734061,0.13853864499962182,-0.3768258309437427,0.018583153990046508,-0.036443868379827944,0.006125129523017889,0.7660045104361923,0.010808620140536794,0.014958534192150848,0.02117701087764268,-0.012781462322308298,-0.7056866273935586,0.04496811833235049,3.0859375
0.2863824602732009,-0.11405440631804177,0.21608610411564427,-0.5882673058541986,0.029881819215495733,-0.056166614205914026,0.010124029136535893,1.1951540926281927,0.016613088102641702,0.02248507409092485,0.032944670533738264,-0.019701853783426888,-1.1014478592465473,0.06966015078887912,3.09375
0.04068121883221984,-0.01567955795908627,0.03215433134498769,-0.0859320630852009,0.003057634826048803,-0.00933357325014849,0.0007149305984606216,0.17247435381025863,0.0028516409088367818,0.004575655392082924,0.0047418163257563605,-0.003293037989463666,-0.1575402348880816,0.010705987369771974,3.1015625
-0.22560336716999735,0.09086971857389936,-0.16765361045749738,0.45959686699031455,-0.026073632826414898,0.04154221362307671,-0.009536528737268396,-0.936938089328582,-0.012106450482205404,-0.014861635772180467,-0.025788396432884983,0.014533697282403807,0.8661110592977401,-0.05320611823404465,3.109375
-0.09442630988196997,0.03827263408479541,-0.06952173200966923,0.19182650875078092,-0.011760931753571943,0.01659821123691586,-0.004534762945508807,-0.39104588034373544,-0.004776255729800869,-0.005307186029251097,-0.010708265985556464,0.005789249219521613,0.36219239320494184,-0.021752970600350904,3.1171875
0.06106370592016234,-0.023956798747931846,0.04645836601772932,-0.12533504035034182,0.005169880798740529,-0.013004116419085573,0.0013953806635402177,0.2548788114420153,0.003902731655208272,0.005993731479297072,0.007120815854752634,-0.004563093869490531,-0.23470541253703953,0.015520058581233915,3.125
-0.18993474080910783,0.07667556482329145,-0.14260434733844318,0.38956408150851013,-0.022363294995671294,0.03492771761506387,-0.008280712101009976,-0.7931101084026095,-0.010226366381559729,-0.012379309579649951,-0.02172285590221692,0.012271808941383867,0.7310380325379122,-0.04474203231029166,3.1328125
-0.31350628165912303,0.12621207761056663,-0.23483701768038778,0.641490462061989,-0.03580743009137105,0.05842134000252452,-0.01298362268669375,-1.3064527492155302,-0.017115431107494732,-0.021368432842215273,-0.035916558053046804,0.020496633295519283,1.2051321235920285,-0.07437098755570247,3.140625
0.28693863746391196,-0.11433520659865533,0.2174472870692538,-0.5908925070625202,0.030096991980735028,-0.05635480469680986,0.010202892219206356,1.2009085348427988,0.01672101883362316,0.022578576912988306,0.03301094580108491,-0.01979091387274215,-1.1058634855809388,0.06977461186992899,3.1484375
