AF3,AF4,F3,F4,F7,F8,FC5,FC6,O1,O2,P7,P8,T7,T8,time
-0.2703655424712308,0.10878099523676203,-0.20161453072692415,0.5522155864449223,-0.030991879781212168,0.05012784261749993,-0.01129008021129694,-1.124345661580915,-0.014661333317578844,-0.018156423077772404,-0.030921064554731897,0.017559544980188656,1.038807815432992,-0.06397747024720102,0.0
0.1229942378215358,-0.048751511613289306,0.09340980132421113,-0.2531941323219003,0.012030016805312866,-0.024911315201319742,0.003810934315574681,0.5151299820863077,0.00743051865965795,0.010550038565516475,0.01422406827234951,-0.008741739707326926,-0.4738588020953796,0.030400349790669457,0.0078125
0.6536479133280492,-0.26125681518585214,0.49178652208385126,-1.3400407018606368,0.07009538247692554,-0.12620436294320064,0.024214534721719624,2.726947120113441,0.03723760653035515,0.04928800385515646,0.07510227675842268,-0.04425472838053546,-2.514412805339396,0.15774043890061198,0.015625
0.7996690199913613,-0.31966750030595537,0.6017284904351815,-1.6397396374068216,0.08610405905572587,-0.15416365271137328,0.02985459576367634,3.3359368090920856,0.04544082099048464,0.05993231196182121,0.09184089865487714,-0.054061580854854734,-3.076604390796642,0.1928171784616385,0.0234375
0.3109904089886431,-0.12386941634280493,0.23504551825379133,-0.6396347536002134,0.032642836339591745,-0.06095398047918961,0.011086531862539864,1.2991614263021503,0.01799737974634411,0.024236935968053232,0.03576164074051017,-0.02138595826313801,-1.1981701622968257,0.07557621229669571,0.03125
-0.34228118846387423,0.13775963461733756,-0.25564344026229624,0.6985056135784649,-0.03887802792241576,0.06379926036689221,-0.014042661926683872,-1.4244395495942863,-0.01869464238055981,-0.02344768643882697,-0.039186459321747746,0.022352960968877098,1.3145558265968025,-0.08121135317120703,0.0390625
-0.5996455119276276,0.240749548630314,-0.44950152911828894,1.2270875733378404,-0.06711892342377102,0.11308117301345356,-0.02398759231032689,-2.498706483486167,-0.033176538110960725,-0.04222428365291783,-0.06869901222979603,0.039640412693765774,2.3061317315554417,-0.1430180768464997,0.046875
-0.4256146519562115,0.17100827835433083,-0.3195045698933004,0.8721594731120031,-0.048151464186744666,0.07997092439609561,-0.017347317979395954,-1.7749215178228657,-0.02344465221444535,-0.029541142817559433,-0.04872526154195836,0.028050318517147687,1.6381581141578903,-0.10128363102424746,0.0546875
-0.08800291481146648,0.03583168867434042,-0.06609546635848318,0.18047077447034895,-0.0112040211473207,0.015477748264348076,-0.0043601992432149685,-0.36772166451953603,-0.0044834294881814125,-0.004917190143620867,-0.010002656575912814,0.005451673268077338,0.3391534965305846,-0.02027002518993793,0.0625
0.2181587151695677,-0.08677082673214133,0.16461600573879406,-0.4485534267368621,0.022413878696501785,-0.04312061032572169,0.007485800260417426,0.9107394070400638,0.012778956356323172,0.01747400118224841,0.025110820553641052,-0.015106806221029993,-0.8399926324829713,0.05320746517778059,0.0703125
0.38244503294528676,-0.15263366092226896,0.2891722721779266,-0.7868604726211764,0.04053402727004422,-0.07459561674462391,0.013880960024360678,1.598556165266001,0.022083773747784047,0.029554853636653885,0.04396888166838655,-0.026180435792666067,-1.472862144331922,0.09265696445893937,0.078125
0.3388850457391206,-0.1352488018287415,0.2569369101116207,-0.6976266720528733,0.03580192009025696,-0.0662642505708471,0.012215860349853657,1.417887653151055,0.0196484455069417,0.02641594437188215,0.03899336789431335,-0.02328763665020857,-1.305036240156839,0.08224527242723194,0.0859375
0.09916702601153556,-0.03920253425934299,0.07609549534927491,-0.2047542399099743,0.009451354819793239,-0.020381547779858896,0.002927968385105296,0.41619113195840274,0.00611296506933897,0.008852151030924968,0.01149029178269845,-0.0071851669712635355,-0.38187730823834354,0.024728380505265938,0.09375
-0.23559371637862228,0.09495960938519742,-0.17669839402409634,0.48310797811530054,-0.02734776332414882,0.043656065291284574,-0.010036541569594461,-0.9829791495478429,-0.012784298978580874,-0.015703170558176542,-0.02694898289445924,0.015313246278770436,0.9067550805040336,-0.05566122208400023,0.1015625
-0.4565577071378187,0.18347956319526648,-0.34310642335292413,0.9360964695013723,-0.05157372838996525,0.08586277555222897,-0.018560316987991668,-1.9051510698140948,-0.025224100400977636,-0.03188491908111635,-0.05232474422882849,0.03013515232397799,1.7564965476729697,-0.10874438245053158,0.109375
-0.3640881207262237,0.14639241036742873,-0.27265973729521015,0.7446555815219085,-0.04132911659672602,0.06808238069138606,-0.01493431242802082,-1.5167490562013242,-0.01996084253432342,-0.02506396323180791,-0.041695975403130976,0.023875742154654604,1.399340042981921,-0.08652701614823273,0.1171875
-0.03271184055979726,0.013640785384921257,-0.022600974841273484,0.06358427078189337,-0.004918736785722721,0.0046689094108954745,-0.002102451280013863,-0.131915212684444,-0.001259264073405396,-0.000768942652615278,-0.003635381851340714,0.0016040856170352633,0.12344328102974125,-0.006921438225267633,0.125
0.2085518708458714,-0.08296450624346463,0.15849272322390048,-0.4305135138528639,0.021476695710103938,-0.0413885318986938,0.0071766514271607695,0.8736976306751515,0.01229476113820049,0.016855550075896356,0.02406145766120151,-0.014546285915543602,-0.8041983026547633,0.05101010757567008,0.1328125
0.1713217130768824,-0.06803671757957577,0.12948430348718729,-0.35221693521931513,0.017276876534213826,-0.0341493016804917,0.005669326361576785,0.7156777097453171,0.01013061377044751,0.01406537159073999,0.019778214398636626,-0.011978866080734986,-0.6595470479477514,0.042040485488744686,0.140625
-0.003707616022059437,0.0020413764177566614,-0.0024158368901340673,0.007376142419060798,-0.0019339990179114567,-0.0006723997453768495,-0.0011008335400581818,-0.015215124592619917,0.00026083852830515765,0.001250322821085289,-0.0003151034396664801,-0.00022412673274182485,0.014474627545679889,1.1165992016372799e-05,0.1484375
-0.0901192821185657,0.03663312050156511,-0.06668442785891976,0.18332704098612626,-0.011314354351659277,0.015739987276292007,-0.004377325270299562,-0.3738372770922167,-0.004549163324388063,-0.00501451244574557,-0.010237533629670118,0.0055175169656976,0.3463189608367614,-0.020710171524401213,0.15625
-0.017799018014273988,0.00768582273158369,-0.011711573391302155,0.033881085988772465,-0.0033209141069462777,0.0018476860437584006,-0.0015404210606793413,-0.07078850879258157,-0.0004334868149884013,0.0003121296516327731,-0.0019528254794198591,0.0006271910287067283,0.06733656645699357,-0.0033465712381138546,0.1640625
0.12500169039139736,-0.04949208062949604,0.09532502398664398,-0.2583232743827716,0.012278056531674192,-0.025366453234328092,0.003935808567282325,0.5237811370191906,0.007576072253237902,0.01072422784440279,0.014429966241356,-0.008915468563736678,-0.48165986099441993,0.03089717144521592,0.171875
0.22171968226179212,-0.08824305580413212,0.16724985594385872,-0.4550046322403948,0.022780423377504386,-0.043705721421154725,0.007594003413154591,0.9251390325557505,0.012956117583273506,0.017746394545216402,0.025543424032282852,-0.015331985907294732,-0.8522865391965684,0.05407662510583704,0.1796875
0.2673110601621224,-0.10651928674521385,0.2012518033271064,-0.5476811176648173,0.02775276446062595,-0.052355120256395916,0.009325139719110597,1.114669996525574,0.015500384129367384,0.02106786517405262,0.030773228021671564,-0.018359812085663816,-1.0268307470573967,0.06499679288925453,0.1875
0.3253335359201857,-0.12975378962218045,0.24541199637348415,-0.6674432405270305,0.0341740225640975,-0.06350230754818888,0.011602506610301967,1.357921649750366,0.01880232155824374,0.02532787260153251,0.03739542300085172,-0.02228189644170691,-1.2512484184282073,0.07890422490592137,0.1953125
0.3275616894615071,-0.13063676470804178,0.2477731673817337,-0.6734455612417636,0.03448504292748971,-0.06403550351722018,0.01174110018656354,1.3687733491632728,0.018971910684323297,0.025505673881647633,0.037631032144390425,-0.022481464105175205,-1.2619188430478185,0.07944468836966112,0.203125
0.11058116001700008,-0.04371750599973079,0.08464069360324894,-0.22910331491785743,0.010706523322265816,-0.022636152382283954,0.0033852134634367766,0.46391821347274076,0.006767715475932853,0.00964585071728668,0.012767561679066208,-0.007954019926274156,-0.4275637005447093,0.027421142539242962,0.2109375
-0.29386550109023324,0.11832279924650414,-0.22009576717296894,0.6008180636325072,-0.03367082866372081,0.05465061954672957,-0.012235463195937237,-1.224321999295508,-0.016016712878592333,-0.0199312304370434,-0.033598623508588256,0.019173482487157882,1.1297990261604396,-0.06958452377996291,0.21875
-0.64024136514493,0.25711907112800053,-0.48092825508347486,1.311649758290593,-0.07166053233826478,0.12084486706439664,-0.025606425807955555,-2.6700968265854956,-0.03552708915168121,-0.045277708951543996,-0.07335256304049668,0.0424003817711837,2.462771958790332,-0.152706944926981,0.2265625
-0.7396987586072044,0.29693390249194457,-0.5552840715002161,1.515154956135456,-0.08251390512663016,0.1398122736807863,-0.02942198670718659,-3.0842247111331043,-0.04111535889850688,-0.052563841543700474,-0.08480154759112797,0.04904581747468532,2.8437540309918754,-0.1766277804415061,0.234375
-0.5613249661939955,0.22536113133335528,-0.4204287694503885,1.1484223607062798,-0.06288713675462461,0.10569132470447096,-0.022512461755860465,-2.3384004760001544,-0.03104800707916178,-0.03948917335125637,-0.0643344876961009,0.037064086076208126,2.1563838835554416,-0.13386594873384472,0.2421875
-0.21054390563209682,0.08476641289923283,-0.15644900297198072,0.4286018700016329,-0.02442209311252925,0.03869460676372191,-0.008973333340870823,-0.8742366374433787,-0.011275421670704661,-0.013768796819759968,-0.024041922647640126,0.013549819433752032,0.8081521451377297,-0.04966996717336629,0.25
0.0802405355269118,-0.03164418696210313,0.06181115508830086,-0.16743750144158087,0.007389569478253079,-0.016785849800008124,0.0022248869684377685,0.3380194443261116,0.005097571885043344,0.007533830490088106,0.009359041951073907,-0.005923823026665344,-0.3085975812466732,0.020165353713260288,0.2578125
0.17919728110635666,-0.07115801383866878,0.1356427071235068,-0.369315339639355,0.01815408086275233,-0.03561924558749501,0.006001024397621554,0.7491007905929468,0.01062646674255014,0.01472710424117774,0.020707645350035307,-0.012527874676603781,-0.688739708069158,0.04393713227081919,0.265625
0.24292931981673654,-0.09666311136359156,0.18311128746786381,-0.49833818802806196,0.02508902403085272,-0.0477534528902995,0.008410818244934923,1.0133604499868158,0.01414247522191871,0.019304200921213686,0.027985303345184682,-0.016761230636582337,-0.9339807326060566,0.05920991971042941,0.2734375
0.3881018738576504,-0.15488130650182397,0.29222352932276807,-0.7950402441848686,0.04100812152107925,-0.07550342307852993,0.013998534519756795,1.6186199929837566,0.02228310599413214,0.02988922367689468,0.04461140801348021,-0.02647739584809489,-1.4920795504119024,0.09403789524502651,0.28125
0.46446484411429617,-0.18551705904795115,0.35022305017248617,-0.9526321680425119,0.049448684639884034,-0.09018295936326251,0.01699359586660402,1.9387636531202412,0.02663112005095245,0.03551937219162841,0.053367313351555076,-0.03163865401879232,-1.7860723469952953,0.1123970205176477,0.2890625
0.4868859131932772,-0.19450914447798456,0.3678361941699067,-1.000472082605931,0.05198558776809548,-0.09455817503567136,0.01790802422753071,2.0345649377706687,0.027955506179507705,0.037199567811588716,0.05595397007505432,-0.03319317228393007,-1.8738970301692386,0.11779857205464574,0.296875
0.7000364358102833,-0.27990201268554366,0.5281094098034607,-1.437723794696632,0.07534045654091413,-0.1352542143068209,0.02609910082997719,2.924112261423339,0.039936661363405464,0.052746524134709954,0.08042193186860844,-0.04745814743556406,-2.695152106648268,0.16890739598031373,0.3046875
0.8387711652256462,-0.33545662417085204,0.6315718763115376,-1.720554759051079,0.09044739864303647,-0.16164152991595307,0.03137657582965695,3.500723163211684,0.04767694983419921,0.06281779018115544,0.09633259199106942,-0.056684761877513146,-3.228319707515436,0.20214589026715735,0.3125
0.23701562103984974,-0.0943419942850146,0.17844526295141389,-0.4857432147749543,0.02442728633878115,-0.046633671956501956,0.008165582176121294,0.9883982262212673,0.013794863280632987,0.018811993108407164,0.027268231901820865,-0.01633803599061034,-0.9121231779382886,0.057740223851353585,0.3203125
-0.8875887569052455,0.35618373233253453,-0.6668292183762621,1.818988347548363,-0.09877369270854261,0.16812769284641713,-0.035122553353671926,-3.7024677986720795,-0.0494318774169569,-0.06334524855906264,-0.1017780337633728,0.05896923876227909,3.4142984223337915,-0.2121131659260207,0.328125
-1.3973790684671294,0.560349823270178,-1.049346293279553,2.8623730679541963,-0.15453552579696803,0.26542318906276435,-0.054717660722453446,-5.826828991060886,-0.07805652250945422,-0.10055903715206226,-0.1602578409306347,0.09307974467183441,5.3744002161744255,-0.33447097427101724,0.3359375
-0.9220482455323366,0.36989767588171885,-0.6917126893703266,1.8871921290767042,-0.10240808979316794,0.17462748797559774,-0.03640943841633333,-3.8428362632559487,-0.05130895372150824,-0.06581684947963644,-0.10569087405394567,0.06124041484250286,3.5451456234498178,-0.22044958584803284,0.34375
-0.34172491352250367,0.13746161839301224,-0.25596363380878645,0.6984401014640704,-0.03888748532208418,0.0638573303566456,-0.0140968766007926,-1.4234603706782878,-0.018706781782723194,-0.02344058744245789,-0.03908917432398805,0.022403405258834087,1.313375348857715,-0.08119529669916643,0.3515625
-0.23166225143384758,0.0934199328648426,-0.1738965288545861,0.4743282501357677,-0.026925810413213753,0.04290986089241356,-0.009891243224838045,-0.9667199651492869,-0.012563649603364249,-0.015424015744296417,-0.026473606802187962,0.015060706680700454,0.891504504088274,-0.05475652763293217,0.359375
-0.15500826891400943,0.06269315292966512,-0.1161592101206776,0.31750476606343514,-0.01852889951888458,0.028253254175851967,-0.006919481935427998,-0.6472445826881034,-0.008247638079721491,-0.009794228290104063,-0.017701305965400677,0.009908922667581529,0.5973308519116536,-0.03633460057881763,0.3671875
0.19908852425562076,-0.0792175982062783,0.15100037848412487,-0.4097916131451415,0.02038284349944143,-0.03950092881752216,0.006788808377747252,0.8324385210393502,0.011734332224641285,0.016156873746397113,0.022927650316359967,-0.013876249805058529,-0.7659211840518778,0.048677539466381745,0.375
0.49115172752136466,-0.19624239946986566,0.37134212556030666,-1.0099412039322826,0.05248389156333554,-0.09540097301806705,0.0180926167898708,2.0533219164818037,0.028218736301471023,0.03755034303301976,0.056461779062735536,-0.03349778553131509,-1.891119534995605,0.118822287066467,0.3828125
0.5726662421311365,-0.22886935138742498,0.4323272957886556,-1.1766197876938835,0.06138167315320612,-0.11094938238497865,0.02121167198589946,2.3928461401152727,0.0327850402002958,0.04348045834837409,0.06582844004841237,-0.03894462825644206,-2.2049388269844274,0.13840766043673366,0.390625
0.6845090495637317,-0.2736324864004003,0.5155253524535864,-1.4042367778925193,0.07352593719013008,-0.13218748725095048,0.025454105382781516,2.856844362562277,0.03901114769810506,0.051588791202574584,0.07865215802540455,-0.04637364328546386,-2.63396156561209,0.1652107524486908,0.3984375
0.7273769077030497,-0.2907775815806435,0.5475243551503555,-1.4915233069050742,0.07819636980082921,-0.14032373414903648,0.02708501735908719,3.034751554356774,0.041400668135592976,0.054701992596692374,0.08355945186179092,-0.0492231696310731,-2.798089101053665,0.1754692524384254,0.40625
0.3545158299093817,-0.1413947221604704,0.26789518669392776,-0.728342594760969,0.03743339474561802,-0.06919620369735517,0.012772900584993422,1.4811299800768545,0.020473092433040744,0.027494164816642463,0.040778427418849204,-0.02429613969452367,-1.3644142352732376,0.08602314011761389,0.4140625
-0.2287604518645765,0.09226035481404818,-0.17009309475689355,0.4662195559368301,-0.02640692086398666,0.042125464796786666,-0.009653885373466068,-0.9504624351825066,-0.012296294814770705,-0.015103653518544403,-0.026144338729953174,0.014734758118300094,0.8784440825915121,-0.053924166655977664,0.421875
-0.44383031658963246,0.17837748831685438,-0.33230889709355493,0.9077382157290466,-0.05003435634055148,0.08326983945084553,-0.01798005836730325,-1.8487511383935964,-0.024425538080298535,-0.03086128517802074,-0.050826630328003476,0.029186475646735294,1.7060975032951726,-0.10559355353399368,0.4296875
-0.24882021875436083,0.10020020735918479,-0.18673685094334086,0.5097804311971066,-0.028788761894240754,0.04617241477616676,-0.010554364670514233,-1.0377106587531133,-0.013527419218496711,-0.016680247527718604,-0.028457733044879134,0.016214356771931716,0.9571969358098291,-0.058886106791218466,0.4375
-0.14560482974894284,0.05882248571542533,-0.10949989971832504,0.299073895763326,-0.017516985239907388,0.026514125417441598,-0.006611781972478804,-0.6079482046135027,-0.007748702190055737,-0.009161576452289866,-0.01662162975280508,0.009336383179916728,0.5608472472880996,-0.034145947932769254,0.4453125
-0.3342907063926088,0.13441896178538842,-0.2507272519023723,0.6847940190920232,-0.03811830080461789,0.06247048226686637,-0.013831482244475377,-1.3935640161348033,-0.018317727263017457,-0.02291139860804267,-0.03828045137749091,0.021928965476548053,1.2860970788079296,-0.07939937447200865,0.453125
-0.4484552211521235,0.18018173745022914,-0.3357944908719204,0.9170792924294529,-0.050547653634277434,0.08417563176095859,-0.018164976059197927,-1.8681585151468132,-0.024681736889516883,-0.03120250889520845,-0.05137833202574596,0.029514056485155357,1.72430860067303,-0.10677215199298597,0.4609375
-0.19733878873221852,0.07962415066142767,-0.1469851319617121,0.40196505344334416,-0.023038311839641737,0.03620401109733894,-0.008481819332826341,-0.8207992263509222,-0.010552455736598635,-0.012839995917384326,-0.022547477517460467,0.012680397035379081,0.7581326052331062,-0.046491609973916784,0.46875
0.13918957327823314,-0.055154142257530375,0.10541560291230367,-0.2866204240058364,0.013764778191349906,-0.028008314396697973,0.004442331626067715,0.5815631640295567,0.008335457979601476,0.011722181822493127,0.01607588505319996,-0.009829858721171324,-0.5360138831729081,0.03429200322934281,0.4765625
0.10288576002528188,-0.040628168680518044,0.07773619419049506,-0.21126565137821338,0.009743609729578755,-0.021027228748999757,0.003014188607077727,0.429452934488879,0.006271621599505682,0.00904341183250504,0.011896984604295398,-0.007368773687793252,-0.3962191401619059,0.025574437716517833,0.484375
-0.2185871753509901,0.08808662201084408,-0.16361426089114248,0.4469099822912864,-0.025442154570124307,0.0403471491485163,-0.009349241326096512,-0.9105336926468127,-0.01178011105749419,-0.014427741187907045,-0.024998558609284835,0.014156005169018205,0.8401936210168581,-0.05160960938412331,0.4921875
-0.24116794483336204,0.09712643488772167,-0.17984079166951294,0.4916651650592501,-0.027834074147033712,0.04457595978709712,-0.010162976424789354,-1.0032462039385073,-0.01300399829390686,-0.016023159893929675,-0.027575261361357687,0.015618162049628638,0.9267536845577969,-0.05701646210883065,0.5
0.24239429011410857,-0.0964598622647516,0.18420459566072625,-0.4999918157335446,0.02519539403403562,-0.047855227109371505,0.008508146252210901,1.0142734420489161,0.014208508754984077,0.019345763034096807,0.027917068012907963,-0.01683247433507321,-0.9339479796109187,0.05912035792364541,0.5078125
0.68981803611222,-0.2755603735861351,0.5204396208376353,-1.4162436124872784,0.07419313041158455,-0.13330438943528206,0.02573353205113291,2.8798932455776205,0.03935002010346906,0.052019094009317916,0.07923754487226105,-0.0468159172230086,-2.655621014326126,0.16655778376049085,0.515625
0.59663496402368,-0.23827851678419426,0.4497554132018538,-1.2241817875118628,0.06392702772996678,-0.11542946421545129,0.02208435319453586,2.4903930865866335,0.03407012417777036,0.04516051660557849,0.06854257409793985,-0.040517152336393344,-2.296612660975189,0.14414577128007533,0.5234375
0.18204018566293936,-0.07240604859351582,0.13753668188449,-0.3739130879788897,0.0184803302911622,-0.036188371373546524,0.0060595717160100825,0.7609443384907411,0.010722753525612994,0.014837121613323713,0.021006461537979037,-0.012673853906105616,-0.700161564322435,0.044562509034142786,0.53125
-0.0931470328566724,0.03768564578611876,-0.06924412927272387,0.18990967030065709,-0.011637502690289495,0.016337453364695966,-0.004533473655586576,-0.3862643668088981,-0.004750344344705272,-0.005258895506088193,-0.010544912340271382,0.005766018118873852,0.35915515346133037,-0.02148606915687641,0.5390625
-0.20130780449149185,0.08107903396875349,-0.14998218968699392,0.4107978502430862,-0.023443152660222222,0.03692571031887748,-0.00864350410359755,-0.8366317873756899,-0.010792139678062989,-0.013129880828588977,-0.022977540621241157,0.012953361703046772,0.7741064646046013,-0.04738820999027881,0.546875
-0.3068398125274261,0.12350793159856979,-0.22904738541602787,0.6263496792995784,-0.035006683851117285,0.05708700207933327,-0.012679748566829746,-1.2766902752152025,-0.016691186326231115,-0.02082452073654819,-0.03510723083685101,0.019986629949430568,1.17877751812853,-0.07269593174085752,0.5546875
-0.33185609135951,0.13356285002657495,-0.24837268261086154,0.6780961988872978,-0.03781451866292469,0.06197260943276998,-0.013688536842069507,-1.3820981778789212,-0.01811951344093952,-0.022675337993858853,-0.03796111537282297,0.021705297816722674,1.2753256108411544,-0.07874507834834377,0.5625
-0.20123512418942996,0.08114201945489939,-0.1510432747146897,0.41224076016579864,-0.023596496755316304,0.03714054887623648,-0.00872828406300848,-0.8391726979195433,-0.010838394715999879,-0.013180046486329445,-0.022974086800103946,0.013031852095078449,0.7741246717489368,-0.04745350037109213,0.5703125
-0.08795690251578067,0.035713101793340286,-0.06619940988328957,0.18150207811012933,-0.01122447352228561,0.015515292629628667,-0.004376511457526074,-0.36797821225793054,-0.004499442910970402,-0.004928611839179409,-0.010037258135597514,0.005466932833953707,0.3389342046766783,-0.02028927529335964,0.578125
-0.08186661523943703,0.03333797502499712,-0.06100683752893235,0.16813593656291112,-0.010490416941609272,0.014240779496337154,-0.004077725603160193,-0.34174474430142554,-0.004114392505813694,-0.004450538591333733,-0.009390546870280712,0.0050035253546788835,0.3149311286305179,-0.018809730492929198,0.5859375
-0.015777824586861406,0.006914504424745218,-0.010349501665535436,0.030204976388930813,-0.0031289927631696106,0.0014861109619950525,-0.0014637138239435256,-0.06350156142427318,-0.00033165157507617914,0.0004390523709441511,-0.0017690180720606953,0.0005002341370137169,0.05962561688761203,-0.0029085844071687667,0.59375
0.18495266029405882,-0.07353608716119377,0.14090656384276665,-0.38257133820123657,0.018912630037089886,-0.03688425652644532,0.006269481200532312,0.7754123771575576,0.010969284777395056,0.01512402958202582,0.021348552178487277,-0.012967935865442176,-0.7132112840336606,0.045295256841781845,0.6015625
0.3408462720855807,-0.13599018262278403,0.25748290638878346,-0.7010618162594886,0.03591882794957242,-0.0665761385608774,0.012218333893184677,1.4242820617941356,0.01968509059552801,0.0264693091504317,0.039261653929282395,-0.023364539446301655,-1.312296314789134,0.08270016127307343,0.609375
0.3117797210798528,-0.12422539183668727,0.23481552884786738,-0.639780689841516,0.03263959628111884,-0.060937451875807416,0.011057365795126676,1.3002741933152586,0.018000081703407115,0.024295998994246927,0.03587922627202379,-0.021364851715527714,-1.1988804148769707,0.07569286289298949,0.6171875
0.1554261099132458,-0.06149540810714127,0.11734093248726787,-0.3192892962819814,0.015525044726351309,-0.031092595866036913,0.005056550519284883,0.6477475017105087,0.009220489631624472,0.012883318796600303,0.017901753114827522,-0.010898608240509148,-0.5968066456173691,0.03816134443696969,0.625
-0.023370465468173285,0.010041121790672392,-0.016122358734563417,0.045531951065037934,-0.003954515251875824,0.0029555274175179966,-0.001772156256076044,-0.09514110930638149,-0.0007672138638609699,-0.00012171837795384565,-0.0025942919980959374,0.0010206212633081181,0.08928927773350369,-0.004714860221665299,0.6328125
-0.160115067489593,0.06465703313544541,-0.11827597624462274,0.3247170669107429,-0.01887751561327709,0.029013161144964363,-0.007012843402420748,-0.6629716690135956,-0.008410897766357256,-0.010081860025126897,-0.01824909696981374,0.010146634461927742,0.6130525707906588,-0.03748993337785464,0.640625
-0.23931697419018494,0.09634356170314705,-0.1783293969856956,0.4880590823673627,-0.027625823855247922,0.04420100678446443,-0.010102748122285754,-0.994315949347537,-0.012894921204432596,-0.015905499699904763,-0.027331797777029335,0.015486846937539845,0.9176606461449837,-0.05648702405577883,0.6484375
-0.3066804213803549,0.1233831731398112,-0.22999873897743833,0.6281423949987467,-0.03511717185039128,0.05718707421278512,-0.012761235023794202,-1.2782116603303828,-0.016754003096220018,-0.02088517261188418,-0.035078914438453956,0.020061842737776177,1.178799547146712,-0.072680669374776,0.65625
-0.33749010763763637,0.1357232653040478,-0.2533918965008857,0.6919549519347505,-0.038504179407888264,0.06311249234872919,-0.013961645206155693,-1.4076005353444523,-0.018510667009100246,-0.02313911731910258,-0.03862721519122764,0.022139398640884468,1.2986841006524747,-0.08010764763870365,0.6640625
-0.1741578371699575,0.07023702558991442,-0.12980019638464896,0.35585348178134124,-0.02051155444441097,0.03182826607551155,-0.007615246926936506,-0.7243555717546839,-0.009276948811558116,-0.01114550891040252,-0.019890698197577678,0.011146371456026058,0.6697656173471973,-0.04091450174325236,0.671875
0.17347734717134194,-0.06902111895662773,0.13224432418394175,-0.3581262153536712,0.017651414623188894,-0.03467091677059291,0.005829448385349527,0.7273669353954901,0.010322053812467136,0.014303226930234041,0.019994616730056983,-0.012191159774829175,-0.6685625099831703,0.042531522726421786,0.6796875
0.38277467162878887,-0.15279993564334243,0.28922121996591516,-0.7867250344637899,0.04053390548719801,-0.07461857218208419,0.013871552961633433,1.5993053366062961,0.0220715954277529,0.029572569279357464,0.044009942983496815,-0.026192630471299605,-1.4733650881101163,0.09276365010031433,0.6875
0.2844401037316568,-0.11336287442593289,0.214362326729018,-0.5834673670523971,0.02965111285058535,-0.05571326824995709,0.010016630673222901,1.1866906240305053,0.016479011921775276,0.022326087934742885,0.03272989786194727,-0.01954177966659494,-1.0938010377108927,0.06914722011160898,0.6953125
0.14149264937204586,-0.05608201199367218,0.10666683262772267,-0.2897781350951194,0.013965742885566644,-0.028367512679424767,0.004490882573606437,0.589739511595447,0.008421033237844181,0.011863267828096111,0.01632607726080326,-0.009946009620264774,-0.543397249449158,0.03483925219193724,0.703125
0.1450722370982581,-0.057494430384317764,0.1101104751676768,-0.2984454306413688,0.014448769632481762,-0.029150573153772247,0.004683825812554912,0.6064474390039443,0.008671379326793734,0.01216783456137237,0.016731344769748843,-0.01023641666028899,-0.5580805980003263,0.035717365718381064,0.7109375
0.10774971549412594,-0.04254259494710255,0.08271133232906468,-0.22358899987612316,0.010437025769848382,-0.02211570773812356,0.0032943125336503515,0.4525712570137633,0.006622668157078033,0.009477458685116512,0.012450516351712314,-0.007780926932056691,-0.41565934020677225,0.026757800608947207,0.71875
-0.045147603139405114,0.01867602081460531,-0.03259655641777165,0.08996769110349052,-0.006357825753918553,0.007132359121165031,-0.002624404700603976,-0.18568050120941718,-0.001990052505088731,-0.0017207714896239554,-0.005084152501653385,0.0024904078675387865,0.17245784018452434,-0.009970374477676772,0.7265625
-0.09669875635007033,0.039338756672521055,-0.07227871520145794,0.1971955302564209,-0.012113778523694692,0.01708700006498481,-0.004677353319527059,-0.40278936943750787,-0.00494659199348975,-0.005550589412550997,-0.010995913597530892,0.006006854825736324,0.371555910142833,-0.02235869270067116,0.734375
-0.09582067818465041,0.03906402129555564,-0.07195473070865098,0.19606346862783752,-0.012058605078468078,0.016938702674138405,-0.004663246507738173,-0.40017750606544045,-0.004923717735169513,-0.0055185065586421745,-0.010903658895203271,0.005962304234641506,0.36849712321192113,-0.022126714747966035,0.7421875
-0.32419239108034775,0.13056288328545523,-0.24302110748182917,0.6630440783904696,-0.037013250693202694,0.0604738470272528,-0.013415558501333571,-1.3515254977086202,-0.017733268082012706,-0.022177752419700027,-0.0371146980927581,0.021215508154884474,1.2463678849237767,-0.07691662976646822,0.75
-0.533666449367298,0.21434273665186657,-0.3996421095187517,1.0910926070983165,-0.05986348563265808,0.10039947490239437,-0.02143166073679247,-2.2230650114773436,-0.029464934372123355,-0.0374262546702148,-0.06113702994089839,0.03520065133451054,2.0513600132466308,-0.12718932179436562,0.7578125
-0.17251265467793464,0.06951658651969107,-0.12786940282650225,0.35091481688696025,-0.02024855318283781,0.03140550449753073,-0.0075085217670663755,-0.7155116278927636,-0.009143572770447462,-0.01099920055100241,-0.019665003779601446,0.010999180102640555,0.6618640574137818,-0.040498460043167483,0.765625
0.49307082311679945,-0.1971111496517175,0.37206390770626635,-1.0122037337520564,0.052636019688101325,-0.09566457013393792,0.018099791214666143,2.0599696441349526,0.028260068452788965,0.03762820124086654,0.05672508776174335,-0.0335611710340852,-1.8980029975465231,0.11926261771204126,0.7734375
0.5671662190943076,-0.22669733266694053,0.4271992460887312,-1.1631299297772828,0.060669715911284776,-0.10972684223147187,0.020916981968477192,2.3672711213528785,0.0323986129980521,0.04301208656547847,0.06520167715501635,-0.03849066209608906,-2.1821806840366067,0.13702707171328044,0.78125
-0.049190261717629,0.02024144823587206,-0.03622576077463327,0.10040022706032242,-0.006909734435368084,0.008050064913323442,-0.0028305175319855175,-0.2046992632600714,-0.0022665086891373114,-0.0020376581588614075,-0.005574910836927491,0.002806722822233124,0.18932008300781897,-0.010940949482929408,0.7890625
-0.5062191580986969,0.2033032836708505,-0.3792956535227531,1.0365985598400684,-0.05694647062987556,0.09529487577651385,-0.02039818442455148,-2.1104394217586564,-0.027945534035253124,-0.03541345861481006,-0.058046658968435215,0.03338683065026764,1.946948730240567,-0.12062263449691903,0.796875
-0.3409922324605493,0.1371703101047992,-0.2545652939858752,0.6969290790851275,-0.038761193306992334,0.06362794855251179,-0.013988607899011173,-1.419783544455025,-0.018622399554005978,-0.023314533316726834,-0.03907513208150473,0.022268803551727938,1.3103870477463877,-0.08091593878571944,0.8046875
0.0763848654376099,-0.029919422122379986,0.059131184100776384,-0.1590865775445217,0.0070031981132590735,-0.016137399535543943,0.0020909856550024655,0.32183800099411564,0.004861567455425668,0.007185958647071162,0.00884103877470389,-0.005696109096527759,-0.2953197483543329,0.019272408717710333,0.8125
0.3890080795795979,-0.15513689055027324,0.2934928932958791,-0.7991424521742003,0.04120588619674684,-0.07578278582965153,0.014083082714613126,1.6250043500665856,0.022415328350231287,0.030003566423020465,0.044725344213189404,-0.026585658917839664,-1.4969081654219325,0.0942602071538343,0.8203125
0.5546254418625647,-0.22156744474460055,0.4173097258668698,-1.137396213490349,0.0592733179121016,-0.10732829747472464,0.020406309701072104,2.314376980945495,0.03167925850419273,0.04206602045388593,0.06374684652303328,-0.037622049074069325,-2.133080099366772,0.13397357086125528,0.828125
0.4244599552590458,-0.16948333626442785,0.3192917370032057,-0.87056019205311,0.04498571552042566,-0.08246586642112222,0.01538385762142037,1.7708754198926195,0.024336013361078265,0.0325296563979672,0.04884362571206921,-0.02889536242294554,-1.6325584098846517,0.10274998418162558,0.8359375
-0.0854810984299386,0.0348081717214358,-0.06358025757203849,0.1733092611158672,-0.010835553935362851,0.014852902004715621,-0.00421403200636501,-0.3552420774119091,-0.004310542556551249,-0.004718280604190272,-0.009653953579079918,0.005220820117100031,0.32816576127069796,-0.019602452828616224,0.84375
-0.5556654778192949,0.22316527152699622,-0.4163766522193116,1.1360471699558616,-0.062282485328296416,0.10460114141750251,-0.022278224590608017,-2.3150562558054086,-0.030704978200402324,-0.039034805382419185,-0.06362921916619697,0.03667393432456518,2.136273293886883,-0.1324390449013637,0.8515625
-0.5201594125170912,0.20890322720434698,-0.3895715395672237,1.0640442158154408,-0.058393433377445424,0.09786486167616325,-0.020917268468796404,-2.1669411692576817,-0.028707999452809156,-0.03642480724345016,-0.05959001891183531,0.03430299526570335,1.9999721516351572,-0.12393843075022051,0.859375
-0.14371952765506507,0.058091057588272155,-0.10722908280951596,0.2942164559093906,-0.01723555867595282,0.02607402479034129,-0.006472174777682748,-0.5986434909892688,-0.007590848719151539,-0.0089535489571876,-0.01640871409791971,0.00914138834722916,0.552822740673629,-0.03362593756071515,0.8671875
0.10084019781971962,-0.03982354991474937,0.07601307290368858,-0.20630786277846383,0.009487197779756566,-0.02058662499811727,0.0029135176985646874,0.4196876523974438,0.006123175476776801,0.008874197531100332,0.011650312051707062,-0.0072026058713232696,-0.3873452224754285,0.02504115243947385,0.875
0.11788017531061808,-0.04660289622742841,0.08919232480670787,-0.2423534766664849,0.011400142077221316,-0.023912692748316308,0.003605727685048351,0.4916108244218681,0.007112513353634081,0.010135104423297401,0.013596614122771402,-0.008376920366452096,-0.45355104310987926,0.029130287647596582,0.8828125
0.10554499645897197,-0.04171812625020643,0.08100382076937979,-0.21885483576241255,0.010174560193915761,-0.02166767440859654,0.0031996640038639513,0.4431828539304609,0.006493701912722253,0.009306952070144044,0.012186282446236657,-0.0076236845277788895,-0.40748641968285965,0.026202259357313393,0.890625
0.11195996483647816,-0.04440007082582047,0.08635616488285465,-0.23251893617230648,0.010934982176181548,-0.02291676775914044,0.0034689847306148174,0.4718051176165451,0.006891531032275643,0.009827979455742545,0.01294914563512304,-0.008082402667133884,-0.4326713120368405,0.027780908403761108,0.8984375
0.06689574150818457,-0.026342874789489826,0.051828289412759215,-0.1388634891614035,0.005919547820221097,-0.014232436063470494,0.0016867273280890933,0.28235152371476135,0.004316876900038504,0.006498545172023747,0.00778226674823124,-0.005020914284538384,-0.25852840181214054,0.01697438034878181,0.90625
0.004471877037329927,-0.0011640329700321227,0.003941927439260128,-0.009414809052535084,-0.0010279761708185734,-0.0022388467597208557,-0.0007709781796199058,0.019089608554168754,0.0007407668592984243,0.0018472826604955896,0.0005764705851732943,-0.0007886885630359515,-0.017703763078195205,0.0019686222605862693,0.9140625
-0.019518417484088234,0.008588209020746715,-0.014141103634770962,0.03951286195760246,-0.0036524631463246953,0.002313041052368895,-0.0016879820711269398,-0.08148308056369805,-0.0006167045407581102,6.159916644363319e-05,-0.002207716922112079,0.0008084750928176204,0.07413097173208949,-0.003805836182214593,0.921875
-0.03784145954759831,0.01585408454860531,-0.027078053229812767,0.07522654854178056,-0.005549425144647123,0.005705808601852025,-0.0023355784899830494,-0.15540262697322024,-0.001590363716362167,-0.0012100941584696964,-0.004272123470984482,0.0019795139958171115,0.14376607243100323,-0.008181352672701321,0.9296875
-0.052101533086903955,0.021384543158780384,-0.03726282380332159,0.10325236289625245,-0.007040312300507259,0.008365372080233068,-0.0028497079321243308,-0.21281020066599898,-0.0023498384690829443,-0.002176433403838277,-0.005841381727821884,0.0029063168304199853,0.1986490175069098,-0.011569505925911694,0.9375
-0.010249555345253803,0.004556513778607426,-0.006333759601429012,0.018454882823029983,-0.0025185413904342388,0.00043758441881640384,-0.001274982516140202,-0.03943656344501369,-2.8907771284952084e-05,0.0008675299028691074,-0.0010182286149004278,0.00014443107007662648,0.03875921841269624,-0.0015279748491147526,0.9453125
0.03031329627842102,-0.011629826867711253,0.02318783124289126,-0.06263781147065883,0.0018056361144945924,-0.0071734807178457085,0.00021685930543271603,0.1269265144804714,0.0021848036183187668,0.0037617892220835583,0.003613454511850728,-0.002502125729588385,-0.11593790584817602,0.008172505872734081,0.953125
-0.03774584949570374,0.01566826403137115,-0.0282253815569651,0.07763950796886541,-0.005679859411711624,0.005880079912956767,-0.0024256809050297243,-0.15782312615770816,-0.0016604884069699218,-0.0012320673602841986,-0.004211877205542887,0.0020805039277044766,0.1464371099414814,-0.008178250728517874,0.9609375
-0.1283202942006198,0.051933049213779746,-0.09563592770264892,0.2621513920459216,-0.015519497683226366,0.0231021905313379,-0.005864849110326365,-0.5339470148125183,-0.006706949215951687,-0.007803572716829636,-0.0146069838260607,0.00810438614690192,0.4942636906046512,-0.029904411097453662,0.96875
-0.06661200229135573,0.027236540179430658,-0.048558605252554586,0.13425121308687912,-0.00868589645203895,0.011229972623765608,-0.003435643999185934,-0.27505081200938003,-0.00318995354005165,-0.003257671607172787,-0.007537751377293863,0.00391891614751823,0.25575153967860575,-0.01509024048243749,0.9765625
0.07437996252900804,-0.029181514547513734,0.057296160764124165,-0.15465579437246416,0.006726367892363105,-0.015673539306019894,0.001982487601679401,0.3124147379920495,0.00472678867971812,0.007016304455069855,0.008624115779793228,-0.005523594699271798,-0.2872005861469721,0.018733497315891138,0.984375
0.09825468862174822,-0.03873589967431957,0.07453303099075015,-0.20218993862372472,0.009252135344657337,-0.0201455516358263,0.0028440617043711475,0.4102714297166892,0.0060133714119818,0.008697109493190516,0.011357251814154444,-0.007077688106313612,-0.37874783148205504,0.024452537557669893,0.9921875
0.08158398157186247,-0.03211318811663975,0.06170542799201936,-0.16719367334175475,0.007405376695936458,-0.01694750958837008,0.0021773409729667226,0.3402461112378352,0.005043806944804277,0.007450068025342729,0.009439997980241406,-0.005939571595949198,-0.3142708595498146,0.02044813254195732,1.0
0.21328833054859464,-0.08491723629851237,0.16133383112503533,-0.4381670816265833,0.02191953079371907,-0.042195752777841655,0.007295453650992993,0.8911987957885464,0.012485897709756012,0.017112166819300625,0.024543377344818543,-0.014800421186633491,-0.8213977236454437,0.05205288232653707,1.0078125
0.33512976367231795,-0.13370363705845073,0.2537550792903098,-0.6896544726780556,0.03535690031264038,-0.06556366006250194,0.01205119755161034,1.4013839791725562,0.019404090490700965,0.026076495490438955,0.03852073845182138,-0.02301710477870249,-1.2910762826304154,0.08130340214439608,1.015625
0.1260967860188263,-0.049892950767933514,0.09652911856543109,-0.2614220758976237,0.012432054509739719,-0.025630716399326847,0.004003881020905757,0.5292996144944889,0.007665782820392988,0.010812542987601079,0.014540915529100121,-0.009014901288220838,-0.487093542612791,0.031164142367392806,1.0234375
-0.31701053803804147,0.12766823936047023,-0.23757514195897692,0.6484788192858774,-0.036227694196443776,0.059104040646331076,-0.013122619751562386,-1.3213178456067158,-0.01730576956180656,-0.02161462445687897,-0.03629629075923152,0.020728310321247778,1.2186810005500321,-0.07516463790672383,1.03125
-0.5527855561608366,0.22209119386332674,-0.4154593651505569,1.1331540104142588,-0.062118432563597926,0.10421545137730343,-0.022254430697165404,-2.3062957792924474,-0.03061813377932734,-0.03888321197692014,-0.06334298771859286,0.03657235724480466,2.1268206318694087,-0.13177167699335002,1.0390625
-0.386445213396226,0.15536355678282596,-0.28984977706014214,0.7916119862494969,-0.043819738900225065,0.0724119988638223,-0.01583199788200829,-1.611028308005679,-0.02125136167534737,-0.026710732223424197,-0.044248553043698666,0.025411127444407218,1.4865039778455924,-0.09188491583763522,1.046875
-0.03254527222269101,0.01351881265042827,-0.022759778038113174,0.06442842301177423,-0.004927628827375609,0.004720362561370123,-0.002141284877316866,-0.13214593904045832,-0.001287135472292228,-0.0007926830498365821,-0.0036329770000928553,0.0016438144761179837,0.12386470383126792,-0.006954351238229294,1.0546875
0.19476443248675104,-0.0775532468613003,0.14846791934945344,-0.40259197493242527,0.020007588536987322,-0.03874046501748337,0.0066562955140181505,0.8170410064390657,0.011547672432916467,0.015875970381269502,0.022465904824628513,-0.013619608832107711,-0.750656572851606,0.0476357473559263,1.0625
0.14758857509132817,-0.0586329570122693,0.11252576671255639,-0.3055550818680808,0.014771258914357425,-0.029681477699654048,0.004831463570679791,0.6191790955778727,0.008897683462216002,0.012451913962926608,0.017077348559675354,-0.010447576240061084,-0.5681370059905417,0.03635919426535888,1.0703125
-0.023774881659435407,0.01005333173372951,-0.016941107595526347,0.04702775589068585,-0.004087935246614884,0.0031315296016084762,-0.0018168815811231082,-0.0974192889083054,-0.0007901103310818472,-0.00011746454426482791,-0.002583785782216712,0.0010705510212846497,0.09153465665267743,-0.004759906718033462,1.078125
0.020015332797550186,-0.0074265584310647444,0.015580062329641032,-0.04127975572173154,0.0006655396820948637,-0.005188363578503274,-0.00018029273240843075,0.08364605659140312,0.0015969702312762185,0.0029843290028074175,0.0024045917330887882,-0.0018278744455400618,-0.07738065266565362,0.0057129556255744104,1.0859375
0.33071639311986256,-0.1318367364437602,0.24913310161570956,-0.6777277141824907,0.034718357300844924,-0.0645641945240983,0.011783677587014842,1.3790139353797675,0.019034934937966413,0.02563817063909977,0.03802348997452021,-0.02264113115315063,-1.2728093048774958,0.08025729063270179,1.09375
0.47097645459011434,-0.18803517098745925,0.35504004884976115,-0.9664035797723274,0.05015481809940822,-0.09144558753106677,0.017238967370235857,1.9653074020792698,0.02696705964361041,0.03594240710394006,0.0541303101087725,-0.03208058507241598,-1.8122149841275794,0.11394978284064629,1.1015625
0.1424009212623501,-0.05649244618971912,0.10860755652285083,-0.2943613502918063,0.014231682142733359,-0.028747302256663845,0.004626296855157148,0.5970476507036621,0.008556683057262647,0.012008352611504142,0.016458992853946593,-0.010106624376549208,-0.548591537699508,0.035117732196893486,1.109375
-0.28490548356106177,0.11460516196359409,-0.2127300859862434,0.5817376725631453,-0.032593352517439285,0.052931167772128876,-0.011866582856051333,-1.1846837408720707,-0.0154711913269695,-0.01922809379053867,-0.032572435445940726,0.018550558668360938,1.094756770474203,-0.06748374814741095,1.1171875
-0.3213239529096049,0.12920774100666166,-0.24095521341103066,0.6581117995525725,-0.03668626414196659,0.060018832405687506,-0.013344197987361778,-1.3386511158665613,-0.01757853533501353,-0.021961765384516344,-0.03678077387597741,0.021064773842453054,1.2354888018983223,-0.07629545379294414,1.125
-0.08260918891441517,0.033687863394874354,-0.06204562107774977,0.16974129458702952,-0.010612268839175744,0.01446381650052784,-0.004164392866761132,-0.3452267153515751,-0.004187470185124828,-0.004542404766992178,-0.00941427721101561,0.005094279775190532,0.3182976541607096,-0.01900051024384542,1.1328125
0.016937950335309773,-0.006096223156313063,0.01329591275292045,-0.03541308432200447,0.00033622947086321236,-0.004653179187956808,-0.0002640615385570706,0.07030824895575676,0.0014485778654098804,0.002781780841754125,0.0019995092861119007,-0.0016335875253144366,-0.06475330644514728,0.004947551474803929,1.140625
-0.06745234137813658,0.02769125417529897,-0.04918975321125027,0.13573923274179772,-0.00879651550829473,0.011344685146592617,-0.0034511434836701875,-0.27920600743312496,-0.003235709734779725,-0.0033327309224497914,-0.007682894690003589,0.003959146250524804,0.25851578281595805,-0.015293650471166379,1.1484375
-0.11405056948608856,0.04627199771593419,-0.083928778500379,0.23068280801724653,-0.013851492504633018,0.020232048548450572,-0.005252426554916195,-0.47189855550033444,-0.005838801423773883,-0.006740094334183035,-0.013019004474729574,0.007085661821805613,0.4368312847633168,-0.02651472806931222,1.15625
-0.08400504132743064,0.03420386136381696,-0.06195772813660748,0.1701559744984398,-0.010628365122002794,0.014578583110639691,-0.004149729468902471,-0.3476657003195045,-0.004189683890891501,-0.004587468657652688,-0.009553793465481037,0.005122248884022121,0.3217834314450015,-0.019317921257579564,1.1640625
-0.07259731058470748,0.029668602123344434,-0.05411552751135966,0.14813484769853386,-0.009483957645298484,0.012487887170909215,-0.003750016195742762,-0.3025454383982432,-0.0036010221356005474,-0.0037870319308002214,-0.008231918894340709,0.004391889460565896,0.27912446024554805,-0.01655353700720574,1.171875
-0.06128496289489186,0.025136992192442836,-0.045555164331666904,0.12502152870992908,-0.008255412155713638,0.01032950581927379,-0.0032988387034640332,-0.2558915467680004,-0.002967577420277538,-0.0029417166986221302,-0.006924990180665617,0.0036156845818491544,0.23592818352775455,-0.01380582828960242,1.1796875
0.012714628839979085,-0.004577775067140109,0.010964756192824526,-0.028084363224513135,-3.6607691412600056e-05,-0.003903713541476074,-0.0003873255149387665,0.05533142736568624,0.0012546050863925643,0.0025320405205308343,0.0015831225216869802,-0.001404522984224283,-0.04991565760383325,0.0039910391652080105,1.1875
0.12358869170952219,-0.0490490654106336,0.09504821800860963,-0.2566190647832151,0.012216030076906753,-0.025179990523228342,0.003929638227146202,0.5204995490910863,0.0075469309880698745,0.010683643637559463,0.014324129264854761,-0.008881468396047707,-0.47780220172441584,0.03064028767351826,1.1953125
0.22509577347706178,-0.0896862433691278,0.1709923848813778,-0.4640499321932022,0.023302179263740043,-0.04453522195798452,0.007811977394864493,0.9432300278696905,0.013233941706019011,0.018072464424913844,0.02596769590131469,-0.015655101391740298,-0.8680600084473237,0.0549944744141751,1.203125
0.2903790639109115,-0.11577487432597221,0.21902624441149346,-0.5958990915149514,0.03032867743617791,-0.05686597292464519,0.010251521356216015,1.2123900410078046,0.016827590549282463,0.02276554923126111,0.03342953713843449,-0.01994953234044195,-1.1175725807275105,0.07059453173050215,1.2109375
0.25897450102267183,-0.10316284360472217,0.195052532656845,-0.5306356018251455,0.02684668898715806,-0.050803495176192225,0.009013493580799966,1.079951867286448,0.01502542068430144,0.020439483906709535,0.029801052968135355,-0.01781264546268714,-0.9957508365035391,0.06300639570952436,1.21875
0.09674977433318471,-0.03817574857927801,0.07381880951786796,-0.19929380752649162,0.009166693853585053,-0.019906879252323473,0.002815896381996308,0.40501679524259726,0.005945542040207931,0.00863087639202673,0.011185847950216375,-0.006994872509993529,-0.37221282046134035,0.02409184536513999,1.2265625
-0.10122854415507047,0.04114119310677487,-0.07435179912582493,0.2050572479489243,-0.012442501634983146,0.017807754284793406,-0.00475931095924319,-0.4189745107967803,-0.005138990932452684,-0.005790935516463662,-0.011521006075730618,0.006217167130539311,0.3886191105530933,-0.02338902619100588,1.234375
-0.20362739685440517,0.08217340623823294,-0.15175519327539136,0.41524525583017824,-0.023714558045818273,0.037401646811517295,-0.008731114906838457,-0.846967962163975,-0.01091653404054247,-0.013300788891042635,-0.023267405071184154,0.013105029955582177,0.7828445801601235,-0.04798006188326037,1.2421875
-0.20870977390579323,0.08419747958832237,-0.1565636541866237,0.4272081738217388,-0.024386769134717396,0.03848481247389684,-0.008999150729078967,-0.8702994225340722,-0.011261080875098502,-0.013736814381585553,-0.02385227351101151,0.013517064310247098,0.8033775341466127,-0.049235334639051075,1.25
-0.21350514920325225,0.08609572904846084,-0.16047545430967805,0.4376491804876241,-0.02494393809726782,0.039433805739057,-0.009208880815636965,-0.8907418790472169,-0.011547329942531048,-0.014106038653649127,-0.024405136636260982,0.013862370926545258,0.8222195355209486,-0.050389374361149174,1.2578125
-0.24918097580747686,0.10038642085406092,-0.186635816001503,0.5096077458646866,-0.028782042789972682,0.04616909135264741,-0.010534760582653863,-1.038051798270986,-0.013508929713696041,-0.016671968579294833,-0.02850577275986189,0.0162065070628246,0.958730716679249,-0.05893392616499802,1.265625
-0.23166669475173568,0.09338534696245963,-0.17273661891917189,0.4723176999037711,-0.026795301327336502,0.04273899563032291,-0.009801701153498705,-0.9637490119083798,-0.012479574806686657,-0.015352853835417048,-0.026503771232385013,0.014978244729637238,0.8901202186790487,-0.05472080038707971,1.2734375
-0.09410779675219613,0.03829203305750637,-0.06935721603459477,0.19059300597169543,-0.011737390008514991,0.016465660254692073,-0.004498960062956691,-0.3903973382908157,-0.004752124001777017,-0.005309674170755064,-0.01072049347157995,0.005756566836642762,0.3602994008720763,-0.021692549151094597,1.28125
0.07396559020539192,-0.029017925134507325,0.05636368333731982,-0.15236871982314476,0.006609127885730722,-0.015565355226938672,0.0019334087540333372,0.3092568872118832,0.004658778127334421,0.00693524717546911,0.008566140628697113,-0.005467479674339535,-0.28594608038074876,0.0186682943503118,1.2890625
0.12091119096297635,-0.04781418824375072,0.09127611292869756,-0.24782458289920956,0.011712814852592663,-0.024474107309434664,0.0037143154423777878,0.5043370071186767,0.007281986887034614,0.01035196161307625,0.013953435659704073,-0.008584073607171528,-0.466058026089995,0.029928239536539232,1.296875
0.09245221242275128,-0.03647408505492971,0.07028836266776355,-0.19059150168314018,0.008637492592833097,-0.01906043567754643,0.002642087979343401,0.38658134423558127,0.005711695532934284,0.008307646619605475,0.010698708862147386,-0.006690119589101267,-0.3567512106818502,0.023050088938351865,1.3046875
0.2166879635304446,-0.0863411278327711,0.16457588201951334,-0.44695843059667556,0.02234941844769512,-0.04287860666687122,0.007482228440317033,0.9068932219652687,0.012748369856464475,0.017448879010478563,0.02496954055949107,-0.015059356339961734,-0.8352703996671313,0.05284163419854636,1.3125
0.4955267707629369,-0.1980347168080497,0.3747952281590386,-1.0190352904449862,0.05296958265043279,-0.09620623451296106,0.01825817462861246,2.0714126325167825,0.028457385378441998,0.03786387762165438,0.05696077668387544,-0.03378391153572309,-1.9082655320348845,0.11980852130301775,1.3203125
0.555273426037737,-0.22183526306591794,0.41948740105513566,-1.140647629554749,0.059487958120055744,-0.107591924894641,0.020540937820791024,2.320055756364857,0.03180017603152739,0.04220982782532971,0.06380185037141307,-0.03778828729386751,-2.1378208176263547,0.13421060231251333,1.328125
0.18710727989934117,-0.0742812895248893,0.14183944313335034,-0.38481576752015945,0.01905570516803072,-0.037174533802306856,0.006295349118305226,0.7824720577830387,0.011043086518191124,0.01524562570615386,0.021569618593504675,-0.01306979339757914,-0.7203953797340861,0.04585102687714509,1.3359375
-0.23650367685044363,0.09531760277564565,-0.17737751600131244,0.4841790679182915,-0.0274206910144075,0.043800675892147166,-0.010077588759868689,-0.9858232283674849,-0.01282615341839562,-0.01575358883676554,-0.02700492851818828,0.015374752806626172,0.9109567072436209,-0.055863904694671014,1.34375
-0.29118832501449426,0.11713009582080684,-0.2184423801246246,0.5961035660196345,-0.033387660904786155,0.0542077788431426,-0.012174018442892103,-1.213659467802706,-0.015898301623400727,-0.019740425074986155,-0.033275639021797844,0.01904359859780522,1.1222324557550318,-0.06900202250550069,1.3515625
-0.17044194465012708,0.06881486509466427,-0.1269571803699799,0.3475044412281855,-0.020083947157099113,0.031048320024116075,-0.00745756940375611,-0.7086468292914921,-0.009057487816527487,-0.010876792495304436,-0.019440780083652454,0.01089132809993428,0.6563913135157425,-0.039977537701887035,1.359375
-0.3046746796711027,0.12266264809786122,-0.22742443472887913,0.6216039347994835,-0.034755279075573076,0.05665092298363575,-0.012592059168509195,-1.267472037573312,-0.0165687667766597,-0.020670446925026398,-0.034837063294474745,0.019837523072276427,1.1704107054291537,-0.07215902725043825,1.3671875
-0.5784788874868659,0.23228381741653525,-0.43375538991577756,1.1835195917871122,-0.06480718509644183,0.10903831167190295,-0.023188781447444674,-2.4100978910803934,-0.031996461538082464,-0.04071627237779326,-0.06623321644110425,0.038223037489876474,2.223137928272259,-0.13791228794786184,1.375
-0.5571970672320982,0.2236548933498299,-0.41872581462305286,1.1422571790519624,-0.06257802607103904,0.10510867461899755,-0.022448897485988016,-2.32359045201224,-0.030872988616483424,-0.03921972486328414,-0.06382052748127272,0.03688322662595763,2.1429184113138144,-0.13288514114189864,1.3828125
-0.242625224154554,0.09767115243897728,-0.1825860852917176,0.4989137547960363,-0.028163909993966053,0.04504740771402203,-0.01033890730181154,-1.01342011404881,-0.013215454829659112,-0.016249656007132567,-0.027798878647159898,0.01583067287285033,0.9341088685809176,-0.05741898458629814,1.390625
0.06673162671010496,-0.026130512291503892,0.050708962453068385,-0.13661687570308464,0.005791596444321878,-0.014170682278389479,0.001655965536779247,0.27768631066281035,0.004232296667569975,0.006405238607181095,0.007666491883680354,-0.004963623799847547,-0.2567566228355071,0.016868757327476808,1.3984375
0.38922139830651237,-0.1552626905715426,0.2942472881653178,-0.8004214968948248,0.04123869161552071,-0.0759029240405445,0.014151318693335682,1.6257077993644735,0.022447813391404885,0.030038553352920324,0.04471082492458161,-0.026645791771826192,-1.4991049140809494,0.09430786570929087,1.40625
0.8147192769290986,-0.3257313612162873,0.6145001139037428,-1.6736010314472873,0.08789587385126119,-0.15716324474207208,0.03053446124774145,3.4020668628577235,0.04639845368400044,0.06114650718150186,0.09357654848388791,-0.055156065043621076,-3.1365936901664946,0.19640724836516074,1.4140625
0.9481867574087615,-0.37915938059707416,0.7141561224194968,-1.9456866308556093,0.10243949211557397,-0.18253552611056742,0.0356141944091322,3.9570093920828966,0.053853006658679474,0.07084911453767044,0.10888090213952613,-0.06404207791165668,-3.6489700960876434,0.22839984028099114,1.421875
0.4057052676252105,-0.16175650996348478,0.3054179292499697,-0.8319814179990634,0.042912928959542775,-0.07885106893020521,0.014680113970047579,1.6915632744654103,0.023291333078764374,0.031157828401130697,0.04660724197653489,-0.02765812727549969,-1.5604392212807494,0.09821908766373667,1.4296875
-0.37163804999942035,0.1496130884730629,-0.27897299793980335,0.7611870860988462,-0.04222990636549052,0.06956868522077349,-0.015239328088975998,-1.5505576273075303,-0.020411322098364767,-0.025625288362057012,-0.04257392514358329,0.024399414191128413,1.430507808469785,-0.08828460702786456,1.4375
-0.6020042911231683,0.24168846565202842,-0.45114023615373716,1.2315359616038248,-0.06734417480110128,0.11346561725902812,-0.024059432601673533,-2.5079463838749474,-0.03329806685134711,-0.04238136222615038,-0.06895200340618783,0.03977686527750384,2.3154869308334476,-0.14353618650232072,1.4453125
-0.26976016992411267,0.1083894031078054,-0.2005387067468207,0.5492544863128405,-0.030862988319795746,0.04996369733218223,-0.011239153864219996,-1.1192984631609664,-0.014568906215474117,-0.018055657889954845,-0.030782922282611133,0.017491100415093476,1.035670862263701,-0.06380119695891784,1.453125
-0.020905247755642443,0.008690645009080346,-0.013892910475506332,0.04008571657617711,-0.003660900822827315,0.0024934434347024933,-0.0016925264782081044,-0.0823634580713114,-0.0006079486780876271,8.955872270851489e-05,-0.0022294423997602265,0.0008564337472230759,0.07828231261974108,-0.004091506451702825,1.4609375
-0.12240726125159758,0.04948753909544378,-0.09137513923912173,0.25029321909276125,-0.014910411019690232,0.021991525322737526,-0.005665825769256269,-0.5091519932362806,-0.006390827060349938,-0.0074054912075007875,-0.013916012646110478,0.007721867836648305,0.4704068366114266,-0.028472006107516594,1.46875
-0.22834622483289524,0.0920255782752157,-0.17143875712155823,0.46831822716639077,-0.026552820286190052,0.042266758446204124,-0.00976073064778827,-0.9525834194511844,-0.012376059391078768,-0.01516976780820861,-0.02611020264406152,0.014836861969076954,0.8790858408291112,-0.05392165369463126,1.4765625
-0.09996703668430854,0.040608866152883165,-0.07417542571414074,0.2038822560215079,-0.012394097077409362,0.017658860028100208,-0.004760001933978788,-0.41544628017943264,-0.005110853880766902,-0.005740201220222725,-0.011389577312958971,0.006183687665422113,0.38448954884142234,-0.023113172639375814,1.484375
0.07145926958670515,-0.02805960757506861,0.055429160719592065,-0.14897775076023795,0.006473124619700081,-0.015191201597110161,0.0018979773348857345,0.3014206807417021,0.0045774348607787625,0.006828309701919094,0.008287496588812436,-0.005354649072794537,-0.2761963575266113,0.018053206065813805,1.4921875
0.10653160814480549,-0.04207223870599323,0.08144921053174477,-0.22042270905181455,0.0102715011263438,-0.02186723329333173,0.00322912332877967,0.4468211323643775,0.006529392040173893,0.009364563413225377,0.012314464308974388,-0.007687073901714565,-0.4109649079175702,0.026480707601783313,1.5
0.10708096451504864,-0.04224690865363991,0.08096730476837084,-0.21990954898010318,0.010219663149994012,-0.021852444346707002,0.0031845991104566995,0.44667802757161557,0.0064978232451987,0.009344757843087444,0.012377366854693447,-0.00766341005481646,-0.41189315344143673,0.02659693596977985,1.5078125
0.15156779355427508,-0.06002579408756006,0.11421262356124709,-0.31068148457137695,0.01506696424328115,-0.030312788812569283,0.0048796251724001986,0.6315020525165329,0.008978852162802644,0.012577826124801133,0.017487529946429336,-0.010628986342185169,-0.5825786927116644,0.03727343408980504,1.515625
0.10509150011193849,-0.04138958992823886,0.07999002857326917,-0.21685539668734757,0.010060715831113731,-0.021534020310341167,0.003141974965393121,0.4394055750065701,0.0064134994595440465,0.009221721051284775,0.012155259344432977,-0.007566184769512314,-0.4046860890955697,0.02614002967825269,1.5234375
-0.062399219298503915,0.025644049123504074,-0.04526287032034876,0.12507794668927635,-0.008216408361000167,0.0103753341876143,-0.0032620088132054815,-0.25729809466976805,-0.002949603365183692,-0.0029731744567660936,-0.007076196023629199,0.003613961367433261,0.23854409343203833,-0.01406705149394831,1.53125
-0.10661156696514017,0.0432246396922316,-0.07871176288323849,0.21615129809843162,-0.013096117707111155,0.018876389420641168,-0.00498950234470341,-0.4418440110904264,-0.005440940491031344,-0.006206666937907827,-0.012157881474702835,0.006606949697573838,0.4085865048704318,-0.024730484283455124,1.5390625
0.06630294911301991,-0.02612113036184038,0.05045948503086131,-0.1365927236056287,0.005748548760498023,-0.014026525067371615,0.0016020767172745692,0.27758880238325984,0.004225792985177241,0.006384322799993862,0.007690745276494313,-0.004906599453927417,-0.2557018721867303,0.016725044267930752,1.546875
0.13851353897018792,-0.0549976728075809,0.10424876507877653,-0.2837538507636907,0.01360437598095569,-0.027766787324006104,0.004349678462719141,0.577412373487355,0.008250191639360471,0.011626761282877372,0.015978073069271872,-0.009711721682561673,-0.5327574966962054,0.03404972855813139,1.5546875
-0.09433873867738303,0.03837193685180078,-0.07040370670296775,0.19256714035120734,-0.011866571484798149,0.016649685710397644,-0.004581926263404438,-0.3932714579241119,-0.004813263414014533,-0.005367732732916443,-0.01075836947405983,0.005849416408411326,0.3628503520393372,-0.021817455857118254,1.5625
-0.2863813887400267,0.11531674661008114,-0.21385795062256846,0.5846203437232265,-0.032806064626510395,0.053224292682401066,-0.011909768259152026,-1.192308926642689,-0.015551613928516462,-0.01934028968816794,-0.03279822340548632,0.018643776142069673,1.100872984020425,-0.06786645249982977,1.5703125
-0.09568473211527376,0.03888160662908495,-0.06999911133260625,0.19331158421252753,-0.011835832407639427,0.016730822244667567,-0.004531267997547446,-0.3953845728603957,-0.00480735820707167,-0.005370511081660351,-0.010878500577379121,0.005829751601972375,0.3666879076006608,-0.022030253467517937,1.578125
0.20066119162825827,-0.07983504003556238,0.1524060247360691,-0.41323222169050794,0.020622862213025003,-0.039860409949709866,0.006857135690093464,0.8404188150355116,0.011825537014940745,0.016259708866336743,0.02317098895052566,-0.014002120037048956,-0.7732821949634096,0.049142876909529384,1.5859375
0.18533473878776227,-0.07364199545249443,0.1402004373907606,-0.38093202858072456,0.018870258869586664,-0.03686472857156295,0.006226046504995328,0.7750125990220309,0.010932618973205627,0.01510166775003884,0.0214096766140766,-0.012932731541346902,-0.7136948279258415,0.04544929391842989,1.59375
-0.009854539445372639,0.004579110715614185,-0.006632618813324425,0.019157207618601603,-0.002560309337200181,0.0004602448138500579,-0.001291599859518857,-0.0400830336893243,-3.69087044698584e-05,0.0008453630955273178,-0.0010331612365814323,0.0001493435508008042,0.037755416238401326,-0.0014438552503549878,1.6015625
-0.03996529869784754,0.01660011591801916,-0.02868012650832954,0.08027138418696289,-0.005820722342849086,0.0061750909965610085,-0.002412904345187515,-0.16509108671797784,-0.001705706618838762,-0.0013176306881358,-0.004519602066731057,0.0021297340984641915,0.1533571091340296,-0.00868811576245125,1.609375
0.04393646265659718,-0.017082764429073742,0.03491002974520237,-0.09239363962912271,0.0034461034530876887,-0.00992363398353475,0.0008413116858673941,0.18639020398628992,0.0030233881416275314,0.004826940542054313,0.005128761477896122,-0.003518742710163782,-0.17024003502862733,0.01145927788350495,1.6171875
0.03569640720036741,-0.013831106053298091,0.028509548295264163,-0.0758134881981865,0.0025610312265926497,-0.008360555612830011,0.0004950076726433388,0.1529248527468784,0.002551247711546791,0.004201976868526359,0.004236321039883441,-0.0029424570437872532,-0.13871620124312445,0.009478093472764005,1.625
0.005042854994337313,-0.001557582711625079,0.004670467092704588,-0.012292666878598417,-0.000869047731574867,-0.0024154457892166543,-0.0007476925570739175,0.024177114378154327,0.000799040669387044,0.0019242995995292801,0.0007484281602291604,-0.0008273104339288781,-0.019770405678949624,0.002094551441560071,1.6328125
0.05647645494805045,-0.02211131630736803,0.04263095663308926,-0.11621859295129648,0.004664023938302052,-0.012131097830165624,0.0011878245602942384,0.23647746843676523,0.00364914954149053,0.00563957779087004,0.006618887541339301,-0.0042278379937221245,-0.2167426549731054,0.014415048447493964,1.640625
0.06363365627569967,-0.024874344861660284,0.04798720100498966,-0.13023106573812993,0.0054088283935783705,-0.013493640337149499,0.0014747756020512938,0.264824998001636,0.004032661624759312,0.006130785112859376,0.00737198630528538,-0.004720066562854028,-0.2449334497518309,0.01612909078709434,1.6484375
-0.06566596518327315,0.02700441331542941,-0.04855723577892833,0.133572493941444,-0.008699615947781805,0.011098171314342355,-0.0034435062269983184,-0.2737378105855869,-0.0032010325543694604,-0.003298572808878792,-0.007503956700836105,0.0038830077963611957,0.2510255163012597,-0.014890560312160118,1.65625
-0.21701665731721212,0.08759646482932004,-0.16167886031409906,0.4423205632260127,-0.025198714780523393,0.039931428736074505,-0.009222262846674125,-0.9032138870442983,-0.011656965303407726,-0.014292956687279987,-0.024850701159475182,0.013979495976694505,0.8329875841907318,-0.05120303475284298,1.6640625
-0.28415159062454026,0.11436666199919909,-0.2122584930831148,0.5804541087051008,-0.032553468758915495,0.05281648795675402,-0.01182662777476088,-1.183066718795223,-0.015435031169508078,-0.019162762971269606,-0.03251429716834023,0.018501784910888074,1.0926121941031959,-0.06732285919935996,1.671875
-0.2369532977579157,0.09541603801710401,-0.17759072680729904,0.48565305460399405,-0.02747267262588428,0.043924595015467124,-0.010073190956825573,-0.9882166053156939,-0.012841314392548884,-0.015752100785054523,-0.027090785801893863,0.015406422732532428,0.9125486532840651,-0.05601843053427793,1.6796875
-0.031321802448312876,0.013148166197167317,-0.023533022387153338,0.06481693849138684,-0.005007887356531022,0.004670385160565351,-0.002177834069184995,-0.13206464584386426,-0.0013092458202261952,-0.000776564202683025,-0.0035188049860495683,0.0016571362610038455,0.1216360109033207,-0.006674323012061198,1.6875
0.24362131794899067,-0.09688824260447014,0.18371433611348129,-0.5003680669255554,0.02517852674657262,-0.047961019648463575,0.008465798208270757,1.0161721282252485,0.014201872552705603,0.019334361557238795,0.0280160071391083,-0.016815861227503427,-0.9373478282923378,0.05934249544888648,1.6953125
0.3247319417285756,-0.1294473516268723,0.24589677744529123,-0.6686816949556053,0.034210039772792696,-0.06359024290726477,0.011665698671757293,1.3579721279166856,0.01884220650696796,0.025338237325551623,0.03734301579485217,-0.022332147263588936,-1.250913583466952,0.07885996992901181,1.703125
0.1521975067367566,-0.06049317341708828,0.11680192645300018,-0.31542940359593963,0.015385165611181136,-0.030669713212355773,0.005038496928692449,0.6403697621444338,0.009163021566615533,0.012773887387387897,0.017578757097195023,-0.01080169752317946,-0.5876504148984539,0.03748285858889108,1.7109375
0.011516773206957532,-0.0041743990259476595,0.010455040948564621,-0.025697593724252767,-9.510508059265849e-05,-0.003716766279932994,-0.00043268083603948966,0.052162781322123486,0.0012005749002484683,0.002450610061988654,0.0014423159378755006,-0.0013294634700606338,-0.0456831337569996,0.003705130991303843,1.71875
0.07258547089388236,-0.0285134184894008,0.055366011936920916,-0.14937136520534014,0.006470819197508871,-0.015273136129943595,0.001855851004691318,0.30394092355580765,0.004569686874305909,0.006831317490702976,0.008421695542035347,-0.005357528832570696,-0.2798060882890542,0.018317105646273764,1.7265625
0.12806494406674326,-0.05064792009446877,0.09688681580785373,-0.2631708573196585,0.012520021687843913,-0.025850697286620348,0.003985778543721882,0.5346181532501119,0.007683053640674926,0.010862024282036442,0.014771796377143757,-0.00906807683571214,-0.4935025465919393,0.031607186835163115,1.734375
0.001105252332758636,0.00015058152309948617,0.0021708403200944616,-0.0045859305983921884,-0.0012977495854971893,-0.0016884407742103493,-0.000851652510532033,0.007255367407222835,0.0005995351510827538,0.0016479281310345642,0.00023564978937902544,-0.0006139482332312026,-0.005948637562759775,0.001159949552031699,1.7421875
-0.143367498967192,0.057939714684368065,-0.10593784575845859,0.2903245192653463,-0.017053675152829465,0.025833434132434305,-0.006374600340283563,-0.5936252466847695,-0.007480767522145446,-0.008844290902999248,-0.01629744323145583,0.009029611228846612,0.5497589986928785,-0.033479885244192265,1.75
-0.1265939991372692,0.051230814752560735,-0.0938891797323128,0.2568603772207753,-0.015277612232188128,0.022688186670092165,-0.005760337745444083,-0.5251015989562183,-0.006568195751068167,-0.007640002212759741,-0.014370034624793266,0.007943801992622233,0.4863219322497087,-0.029464793693267863,1.7578125
-0.07247051126298466,0.029574126952878147,-0.05421764017627156,0.14806634331781066,-0.00946891397494622,0.012479703831636471,-0.003749705529208044,-0.30207290218891053,-0.003595254457002712,-0.0037588969642121236,-0.00818919644818819,0.004393021476536093,0.2794070598923016,-0.016518309421836873,1.765625
-0.14252264224877623,0.05758403517338895,-0.1071494883316321,0.2925870510732044,-0.017168396271347103,0.02589307936616481,-0.006473514709851078,-0.5947965841932609,-0.007558867172163135,-0.008902390617343768,-0.0162465558789528,0.009113178921008984,0.5493315548970599,-0.03334983523800927,1.7734375
-0.2171159843543579,0.08742405515032461,-0.16252621035315543,0.4444372226116012,-0.02525157733622157,0.040041603879982714,-0.009295077375912685,-0.90416964367891,-0.01171106144569138,-0.01430942724826179,-0.02481505743783612,0.014063599620313665,0.8356468420764405,-0.05123509567093828,1.78125
-0.11799304731367141,0.04778769782798697,-0.08727310164014138,0.23993550281970255,-0.014319084677827993,0.021018202059454,-0.005419192320363075,-0.48946608086815857,-0.006092854167098264,-0.007031919758554706,-0.013462935363432576,0.007364120522836971,0.45325366348691043,-0.02742935785878336,1.7890625
0.05284491196294013,-0.020529827051223994,0.04108847880050472,-0.11007057705722131,0.004362794921454582,-0.011579745316843597,0.0011535627471379924,0.22224257927435145,0.003501519154368179,0.005423838204683024,0.006117614780452372,-0.004085146383626335,-0.20444053148210964,0.01357061567820262,1.796875
0.10617361389896321,-0.041831421654798966,0.08052316342709426,-0.21801797127041195,0.010116024122235766,-0.021664238581029217,0.003154773302578406,0.44273816277708133,0.0064483095998855355,0.009264889096283912,0.012233952265420444,-0.007616453310216164,-0.4090648385290122,0.026365920750753658,1.8046875
0.12553037526859026,-0.049577876695030186,0.09477896505006723,-0.2570238506409042,0.012208343645917082,-0.02532556164162048,0.003880638085174097,0.5226079012412302,0.0075118688569725195,0.010661535796128713,0.014459808422322763,-0.008892587889885476,-0.48284314288541985,0.031010350413298277,1.8125
0.27387371425135326,-0.10902133507767575,0.20689441726252258,-0.5623007155480685,0.028536063570835685,-0.053737703619005275,0.009641383623068895,1.1428174451855069,0.01589631211036655,0.021545649813473088,0.03148250920025337,-0.018867969332648185,-1.0539446872084428,0.06661015556210678,1.8203125
0.3836198119564129,-0.15304368114181055,0.290274539598103,-0.7892262561896617,0.040659089889531444,-0.07480714136424685,0.013929693619414731,1.6032024146279253,0.022139662487153884,0.02963020941648014,0.04408732427354474,-0.026275439384757147,-1.4774841102699465,0.09295665669606858,1.828125
0.16188587446872077,-0.06429525965922038,0.12364113304702855,-0.3352078052363055,0.016370568554358082,-0.03247227554592455,0.005391610591755403,0.6792194586221718,0.009691099870197138,0.013448376641763479,0.01867355000117403,-0.011424499923564053,-0.6250225031823853,0.03976325335559725,1.8359375
-0.2614513930156149,0.10525700283855993,-0.19550495890606542,0.5339626615074402,-0.030107618667711944,0.04847585871260189,-0.010974150261639766,-1.0883270414307236,-0.014166116229602151,-0.01752222237716891,-0.029875266014219658,0.01699411040089063,1.0046110938436963,-0.061826110410425156,1.84375
-0.43281072280613503,0.17390831407967547,-0.32506853529065166,0.8864800202870512,-0.04895013737140456,0.08128776515650216,-0.017628379510486496,-1.8046730786124212,-0.023852630356063206,-0.030083134731918575,-0.04952931431860103,0.02852996569413692,1.6649818387993784,-0.10297910764114888,1.8515625
-0.23716437367851304,0.09552617133711863,-0.17769943338497293,0.484948551895042,-0.027458780385191214,0.04389376496942849,-0.010085633857055184,-0.9874986371923036,-0.012835811255571542,-0.01578412077329767,-0.027089971911896896,0.01542007399320966,0.9119439163562123,-0.05607116977621411,1.859375
-0.04223283841893726,0.017408943145196587,-0.030325030075028837,0.08406561761712504,-0.005996916991854659,0.006574840423981206,-0.00252760421243465,-0.1722069868391401,-0.0018212982209245398,-0.0015069272824398262,-0.0047402279103870544,0.0023132715251833196,0.16089840008818748,-0.009302032539286811,1.8671875
-0.09796651700256885,0.03971153966752081,-0.07186774544766886,0.19790752436339576,-0.01207907632615506,0.017186078980904032,-0.004636895866156792,-0.4042677738295772,-0.004926318582851968,-0.005543647302293095,-0.011138826160455442,0.006009093982977079,0.3753323790222178,-0.022633381153034895,1.875
-0.16468383438542736,0.06643110052671287,-0.12236639819381046,0.33541212095118905,-0.019450380815910745,0.029974805112788515,-0.007211576955551435,-0.683897735446449,-0.00868932148775042,-0.010399858492775789,-0.01877550730795803,0.010481507035280115,0.6332617349460292,-0.03858464613722215,1.8828125
0.07606418251187104,-0.029980235665371488,0.05806832208247606,-0.15691550090188766,0.006862708408584975,-0.015946326045496836,0.0020230040131467494,0.31884700486489853,0.004808861392568354,0.007165134006829047,0.00885975574424198,-0.005613124823120131,-0.29200629097516045,0.0192051584990334,1.890625
0.4851360792043362,-0.19376473171124955,0.3652403501993995,-0.9944433676388474,0.05165197722046132,-0.09405390261755028,0.017740423334570588,2.023946035999506,0.02775654452417732,0.036982268784976666,0.055775083397119236,-0.03298637378869487,-1.8658950138380874,0.1173441674378282,1.8984375
0.5958606927596437,-0.23802666561043712,0.4485099398147791,-1.2212736110594742,0.06378186543263559,-0.11522818381894626,0.022005251698541037,2.4849725858509015,0.033948696318447144,0.045021113441531216,0.0684508315053165,-0.04040951505019818,-2.29240695624935,0.14390119694524486,1.90625
0.22439317676347237,-0.08920725691998807,0.16973420679473122,-0.4610155665856878,0.02312305986982275,-0.044343862016839375,0.007742193157830585,0.9362347563291248,0.013087082832408904,0.017909749655738317,0.025830643239718863,-0.015568163966436793,-0.8638653210187629,0.05477782632109651,1.9140625
-0.27305211163858906,0.10998753673745588,-0.20367006926377426,0.5572259052592548,-0.03131414200481962,0.05062228454904092,-0.011381613507390085,-1.1365953746909192,-0.014827488724419836,-0.018373139649556645,-0.03122820555970627,0.017723665064923066,1.0492115103503714,-0.0645976865277926,1.921875
-0.4304148946677757,0.17295239281220037,-0.32203486733532044,0.8799199607001298,-0.04855096419193974,0.08072548900009949,-0.017469060841385452,-1.7920840153211446,-0.02366461927226242,-0.029867717572859807,-0.049287543466081385,0.028292766519664527,1.6543027335332718,-0.1024119090930094,1.9296875
-0.21578922980969395,0.08700008669377156,-0.1614834021878724,0.44161650995173035,-0.025126647786319734,0.039844242420263895,-0.009265596088055161,-0.898669995895208,-0.01164215924295579,-0.014241094642805284,-0.024686311293152942,0.013979796687991684,0.8293612039396852,-0.050955434110390045,1.9375
0.010719629283095592,-0.0036279691728326982,0.00812937493448797,-0.021656234338359667,-0.00039409528903839696,-0.0033677449133111747,-0.0005618498441565423,0.04378541837431368,0.0010637911386216967,0.0022798233958736744,0.001282263120084419,-0.001164949169982082,-0.04081367774000362,0.003404252452901487,1.9453125
0.01296363706517766,-0.004460774285323911,0.010128009637197332,-0.02726780487590997,-0.00011024447523208786,-0.0038738352527298925,-0.00042433976621714976,0.05352382953854188,0.0012288129294590112,0.002483750559689437,0.0015374924371478094,-0.0013565380413729964,-0.04933115948214302,0.003976398852489153,1.953125
-0.07097298911536372,0.02907578512869573,-0.05192960882239739,0.1427271067422626,-0.009179303862632921,0.012031590384784541,-0.00358896439117825,-0.29341686146422286,-0.003414371846668234,-0.003580248585915883,-0.008071040585003906,0.004198148664414445,0.27204209666203727,-0.016137605134378962,1.9609375
-0.03940810740415266,0.016254679534447487,-0.027563394344409842,0.07706351516976995,-0.0056526258991106415,0.005959540889100411,-0.0023574601268102915,-0.15921025882006554,-0.0016013038940598972,-0.0012418491420056327,-0.004411712519820779,0.0020601005915486595,0.1490010007505879,-0.008548270084752467,1.96875
0.032486965082708465,-0.012623816806304918,0.02596924152527913,-0.06914229630414645,0.0021528492336895765,-0.007684038090908188,0.00035916577635585015,0.13957320162033754,0.0023985427018697577,0.003973905702252876,0.0038545365873403716,-0.002707265380856782,-0.12721734846362642,0.008688867139211486,1.9765625
-0.03337323082883296,0.013843279578605802,-0.024624523310343854,0.06795718150933244,-0.005187425961116219,0.00503001990360051,-0.002246665188261086,-0.13869364930515712,-0.001390654307369743,-0.0009109175419162278,-0.003725235203432408,0.0017769647029275582,0.12830249357694537,-0.0071674205923873595,1.984375
-0.14140810220922406,0.057224704500453936,-0.10613411316389237,0.29004818905813434,-0.017043646019381672,0.02569407455166095,-0.006417197416781034,-0.5908814414104578,-0.007500564725892656,-0.008827681162427726,-0.01614462799218709,0.009024842824446365,0.545245754406835,-0.033120043263225464,1.9921875
-0.028677535948425325,0.0120588942284776,-0.020444838475437512,0.057298344134124136,-0.004572438997624095,0.004032062395751518,-0.0020066193641277608,-0.11810208961272209,-0.0011021478437686966,-0.0005265547544406814,-0.003188795538995321,0.0014001205942635322,0.11031348427822701,-0.0060092740177764125,2.0
0.2675765850808283,-0.10667897000409281,0.20325845236815793,-0.55185160605991,0.02799973367565813,-0.052702146591619425,0.009472005769810318,1.1209205732082739,0.01563297981468972,0.02119219728910737,0.030845103149029957,-0.01851846602516045,-1.0315729189899756,0.0651775230675502,2.0078125
0.39737430316869,-0.15866777895953163,0.30056723253995443,-0.8174473434144687,0.042183628623126225,-0.07748170214868967,0.014452931125126174,1.66191645858457,0.022919344818867687,0.030657251773373684,0.04574241182573376,-0.02719750385526694,-1.5311445865354258,0.09634965412009307,2.015625
0.21936023732246748,-0.0872770693928012,0.16562730908251264,-0.4502698750142591,0.022549469312558454,-0.04333698845975967,0.007519757768362219,0.9159988421686625,0.012824221432932718,0.01756647530425934,0.025280208828180665,-0.01519812683504392,-0.8444737286576608,0.05358125525763675,2.0234375
-0.024052466759055962,0.010293273986489082,-0.01778264309388137,0.049820490460346506,-0.0041625285183948865,0.0032263016017648784,-0.0018839385457603123,-0.10102692701672165,-0.0009060787880024355,-0.00025310488914011075,-0.0026808445469572065,0.0011344449308479973,0.09333207837686566,-0.004866724779223202,2.03125
-0.12966982546870942,0.052592809600435955,-0.09645076483755816,0.2650529149552574,-0.01564450471353282,0.02331332365319999,-0.005899818243799948,-0.5397930246277911,-0.006798440279613278,-0.007921552613096123,-0.014804007000846458,0.00815907520704459,0.49908313299866985,-0.030199649412131907,2.0390625
-0.14640797892420343,0.05924715028849517,-0.10832424172018737,0.29767236894309834,-0.01740129495503188,0.026414174286662588,-0.006495226214807891,-0.6074651073349399,-0.007681582776839545,-0.00909833871903477,-0.016718753667089418,0.009234354473099374,0.562195578072289,-0.034210490990757396,2.046875
-0.12908437152379096,0.05226792978607488,-0.09564757972227977,0.2622810056762343,-0.015555373530013062,0.02315130088473245,-0.005855510911612362,-0.535750187109831,-0.0067177583124325676,-0.007855338674222261,-0.014724876529564106,0.008103026862940711,0.4954169044892858,-0.030087121990291656,2.0546875
-0.07111746537156527,0.02903730146340178,-0.05299757112437648,0.1449482358462686,-0.00931660508461451,0.0122146273099384,-0.003693451206518386,-0.2961008699282469,-0.0035118022303600722,-0.0036723771599518717,-0.008061726494390058,0.004290889519673959,0.27353002656977177,-0.016214039708273027,2.0625
-0.048517668993812144,0.019991046786043482,-0.036311447673528056,0.09925136528498474,-0.00687056152186079,0.00795378328267289,-0.0028485139320998864,-0.20247916516502462,-0.002256627998589798,-0.002030404308601797,-0.005459226451657618,0.0028043004313470007,0.18741475607004096,-0.010796932029168187,2.0703125
-0.08028059429538925,0.03272215793779618,-0.05952397445374678,0.16315406783395098,-0.010271409417861319,0.013940009457323392,-0.004023144655725782,-0.33336099070592895,-0.003995060734702623,-0.004307890083043588,-0.009110087510037517,0.00488761487302105,0.3090118702822238,-0.01840694046759611,2.078125
-0.03073503544573976,0.012880518916655244,-0.02150925656255423,0.06009566295419854,-0.004761135807670743,0.004373659877113702,-0.002052990062537971,-0.12508533022011634,-0.0011576138711923822,-0.0006454394366013857,-0.0034356126298021854,0.0015115016618190969,0.11713084269043847,-0.006506985244421169,2.0859375
0.058444266136728096,-0.022838623068777816,0.04545610062246659,-0.12242874303918028,0.004994787463186844,-0.012655726586126563,0.0013817171569674804,0.24641983749664712,0.0038459274083813837,0.005861353151237031,0.006798173455255336,-0.004462302688678244,-0.2263449380221811,0.014902411014634381,2.09375
-0.0435681103708072,0.01801422921893427,-0.03200022441244321,0.0884993947142596,-0.006267493609163992,0.00692221811618638,-0.0026048990275122784,-0.18090947168784507,-0.0019499380010967581,-0.0016446315229648625,-0.0049058299760624535,0.0024231685371973477,0.16664428076561708,-0.009576701182334347,2.1015625
-0.202478131589432,0.08162426896262055,-0.15189120084418348,0.4151980063790989,-0.023719015891948896,0.03732113205668285,-0.008760952492798537,-0.8443987810037173,-0.010914517741128636,-0.013287139232683886,-0.023149852553530505,0.013102648004444087,0.7781070691021764,-0.04773370539407408,2.109375
-0.03994516415363731,0.016464822644931022,-0.029260038994540723,0.0809014534937184,-0.0058527195992378956,0.006206954295426138,-0.002465616581298173,-0.16512994012082938,-0.0017374589916715414,-0.0013791171377061718,-0.00450663514155728,0.0021912686844526006,0.1521878741175913,-0.008760647501662095,2.1171875
0.2256332373544171,-0.0898890769346715,0.17110317074286843,-0.46498799424489035,0.023326212955663155,-0.04462161264039478,0.007825025055423436,0.9439196062798197,0.013243219501459081,0.01807965732085568,0.02596780975733734,-0.01565127574819611,-0.8698496175098338,0.054982840431651754,2.125
0.02207005991092853,-0.008197817277834883,0.01825512835998127,-0.04759650777127101,0.0010307283275434542,-0.00576386781629285,3.5814085782350323e-06,0.09435803710538916,0.0017912805510392686,0.0032100953307305493,0.002598238984885223,-0.0020485628319793186,-0.0864003158885218,0.00620175064114634,2.1328125
-0.3622552818976645,0.14588853005283708,-0.27097425808648157,0.7412628147984635,-0.041126950199111924,0.06769272883654705,-0.014828655958217073,-1.5097611137687752,-0.01985507000658559,-0.024908504287518302,-0.04150887643249146,0.02369568936149984,1.3924615517977923,-0.08595269135488956,2.140625
-0.04173575685624242,0.01745131644584605,-0.030301092670586994,0.08443770142746398,-0.0060325610633023535,0.0065132523153075255,-0.0025194976714440157,-0.17250970254301107,-0.0018415138416998246,-0.001496274333117127,-0.004687032890959565,0.002248728005878269,0.1599497467383175,-0.009013297511137731,2.1484375
0.8209951236784593,-0.32831664349239154,0.6182200749736828,-1.6846455538595113,0.08851808568243084,-0.15827324706852497,0.0306962750298299,3.4272731616393255,0.046688228182296905,0.061580305693861796,0.09437891364340292,-0.05551252039018599,-3.1576521580741583,0.19799664401805084,2.15625
1.0329781477964577,-0.4133356277975727,0.777718476441337,-2.1194828674196726,0.1117795504120896,-0.19878933526478726,0.03887587882760126,4.311968573234588,0.058622413204095634,0.07709890474410733,0.11871348461015248,-0.0697057791657331,-3.9721692754575115,0.24883683742333518,2.1640625
0.24950179788764795,-0.09945887577018303,0.18902265052267114,-0.5135730902788775,0.025961195611998448,-0.049173163133000415,0.00873021489655768,1.0438839286241077,0.014575470675071396,0.01984005814247101,0.028755796702134424,-0.01725089411593795,-0.9592925332683944,0.060799518782681534,2.171875
-0.5668458637348028,0.22758029828083276,-0.42452552123762405,1.1595212254236074,-0.06348228746636098,0.10675920251161627,-0.02270558097099973,-2.361094694787511,-0.031324994408182844,-0.03984111080457579,-0.06494701555986004,0.03741743815829216,2.178923479190755,-0.13513652440565246,2.1796875
-0.7467557713116115,0.2996015398696082,-0.5602693989772968,1.528850699000342,-0.08325313576754093,0.14121921729253514,-0.029686086417601745,-3.112234435883004,-0.041472429968352764,-0.05302564703077531,-0.08556735906437875,0.049514923165121405,2.8706455000133557,-0.17836272759087915,2.1875
-0.6323935197903906,0.25378126024244213,-0.475272455137861,1.29641786044855,-0.07083428497662525,0.11951392782077506,-0.025351058208116364,-2.6377448952549094,-0.03510600251072387,-0.0447131100791191,-0.07245218546058027,0.04192805649894319,2.4325849645349957,-0.1509617729182597,2.1953125
-0.5449084654125714,0.21882869179596764,-0.4099260505035425,1.1185111672548917,-0.061310442234767365,0.10282955152728555,-0.021983974157576754,-2.2750034200389906,-0.03021422728246223,-0.038334279784320156,-0.06248072716934349,0.036078989544482985,2.0973557562654714,-0.12996011452574954,2.203125
-0.2805069218119236,0.11300198521668527,-0.2104093179794548,0.5752029824929862,-0.03227065100143493,0.05218316830867197,-0.011720652013602778,-1.1710245892279576,-0.015289894884978544,-0.018966132734482888,-0.03217875553469067,0.018294554553120377,1.079170579592207,-0.0664554909675429,2.2109375
0.18994565229660065,-0.0754493293601968,0.1443909393444022,-0.3919467393964126,0.019402464517409665,-0.03783391176583438,0.006473087979049076,0.7945965704291027,0.011247235584660138,0.015475522155853213,0.021845149243573978,-0.013294784099810797,-0.7325902076392186,0.04648390148565814,2.21875
0.512731030311378,-0.20475912820617415,0.3873081825933162,-1.05466241151633,0.054801671518694715,-0.09948917088136454,0.01889699694610638,2.142360574407275,0.029415262104244094,0.0390656627171626,0.05893101862895406,-0.03491636857033637,-1.9750102917850716,0.12393093387683708,2.2265625
0.5223297733615027,-0.20855677756390026,0.3937665888280957,-1.072919036988982,0.05576458065140718,-0.10120783017210874,0.019202809542786223,2.180475820324688,0.02989966505096283,0.03970845786038577,0.06002726580311144,-0.035499885506312875,-2.0109988054768735,0.12619884968454342,2.234375
0.3517991167971706,-0.14021300818704693,0.26484724412768285,-0.7217693236953292,0.037000415526043245,-0.06857273682744507,0.01259677011717336,1.4669570019284666,0.020257654670453276,0.02720809696356024,0.04044339606628292,-0.024035995156091144,-1.3535693457230655,0.0852789150458317,2.2421875
0.0928815483690628,-0.03656524539909567,0.0704461198270149,-0.19126354119789124,0.008676640159716477,-0.019176654684353395,0.0026509745591971295,0.38768884033791695,0.005710544071936222,0.008325173433640691,0.010754631797296603,-0.00671623380982831,-0.3569927004340342,0.023190999111843687,2.25
-0.17665340743145638,0.07127218895191942,-0.131206793735543,0.359677132069686,-0.02072617516635043,0.03220036151425307,-0.007671483039232414,-0.7334245363536251,-0.00938145822602932,-0.011293122542248452,-0.02013802754039217,0.011276372885393324,0.6790055041132065,-0.04144427483403512,2.2578125
-0.2715885498105306,0.10921613899675778,-0.20197053825907493,0.5533620877570531,-0.03105651909766566,0.050287252682293296,-0.011299902998031302,-1.127208076151527,-0.014674819593527302,-0.018193804474421846,-0.03101993806615414,0.01760185053647793,1.0429245810671428,-0.0642069634800488,2.265625
-0.14784380954232196,0.059659096902482896,-0.10943056031533113,0.3006777681203856,-0.017561382785698118,0.026717894886323954,-0.006570587089909103,-0.6122126478558013,-0.007746307217536852,-0.00918996442552704,-0.01683274037534433,0.009346909959555446,0.567027041112189,-0.03452583527052463,2.2734375
0.004421268133326105,-0.0012641381850725631,0.0040010983565535755,-0.009443936050487527,-0.0009984112002143959,-0.002231936937126683,-0.0007715358131929565,0.019716041972609243,0.0007413866031466391,0.0018721824413072885,0.0006177634858307774,-0.0007860031576613855,-0.016980811659635938,0.0019681260152325554,2.28125
0.06822311932601179,-0.026759019882061714,0.051604820431812165,-0.1394205083371566,0.005955430965128965,-0.014355007762897762,0.0016676849766341746,0.2842709657172804,0.004298527477822781,0.006517063425868122,0.00791544734357697,-0.005037967289469987,-0.26124836271094526,0.01723485931915627,2.2890625
0.10508953473720085,-0.04151297104139477,0.07999253689088455,-0.21629826426495558,0.010071616814286132,-0.021485091326634648,0.003138588681281452,0.43958734183173404,0.006417007527810629,0.009248135338879537,0.012133374889070531,-0.00755411319983538,-0.40407161517447604,0.02608404605290746,2.296875
0.14445143072388625,-0.0573073750135969,0.110279551419563,-0.2986332770699833,0.014454692252771625,-0.029129592878676724,0.004704610224787958,0.6058202213128441,0.0086814146924657,0.012153308814361373,0.016658266618323862,-0.010239496504997343,-0.5572718853905946,0.03556646238268922,2.3046875
0.15370658295306955,-0.06102896481636054,0.11694804560465924,-0.3173739229950378,0.015423612212131114,-0.030883994621105866,0.0050392058409817,0.643867588342054,0.009184230604573657,0.012803287698715962,0.01773547372615978,-0.010840918096595596,-0.5930198846619056,0.03780054688486601,2.3125
0.1259774712135574,-0.0498727366699449,0.09520276176718277,-0.25885185144412665,0.012278679580263671,-0.025457335820056316,0.0039057014991232737,0.5257165511691345,0.007562551045265716,0.01072261032412386,0.014556882872779538,-0.008922221550667742,-0.4848908376399239,0.031124388399161314,2.3203125
0.008732983022593541,-0.0028214289764265975,0.006751984713862985,-0.017848319708576636,-0.000594084873487979,-0.0030089247366189994,-0.0006312248907415205,0.03558057417555893,0.0009457945171362513,0.002134236745135982,0.0010968959005559897,-0.00104789254901474,-0.03297416424995115,0.0029757143781683837,2.328125
-0.233125699406692,0.09408934898099557,-0.1744166175471018,0.4765980657604215,-0.027008514926478665,0.04309690951483404,-0.009897934510201978,-0.9716436585005338,-0.012609670808958966,-0.015504136802737174,-0.026659792786341622,0.015108473518041912,0.8967080418972643,-0.05505572447379744,2.3359375
-0.4046098657232076,0.16269908732759245,-0.3026022109098383,0.8265827271432528,-0.04571702506132835,0.07576187147134714,-0.01645201155720897,-1.684839653238699,-0.022195887426772705,-0.02798311173138141,-0.04633603936562867,0.026550182658081675,1.55528551234112,-0.09621112861532095,2.34375
-0.2841585663620223,0.11432101101335992,-0.21216038857564398,0.5799310476922087,-0.03254519541082437,0.0527927109853437,-0.011826719956201534,-1.1823049222520914,-0.015421940460790843,-0.01916990256509784,-0.03250927369986144,0.018498427667974125,1.0917912200601383,-0.06733030792905034,2.3515625
-0.03269262350647356,0.01352552853969937,-0.02386456757795402,0.066022757204892,-0.00508396076555669,0.004865642923925556,-0.0022006642497659056,-0.13493879173013523,-0.0013312110326511163,-0.0008316114399318825,-0.003645239865705982,0.0017115941393319718,0.12504204585404968,-0.0070027236676869125,2.359375
0.027531763518041374,-0.010563763507628955,0.02101973398666911,-0.05672480281489237,0.0014728519677512616,-0.0066008129847874575,9.177830001239553e-05,0.11529511359444991,0.0020260988136243017,0.0035407921652854404,0.0032672551748026035,-0.0022977191559083597,-0.10624298129493763,0.007450556936091088,2.3671875
-0.06745143624633253,0.027566738311047435,-0.04989905369185174,0.13693525350739602,-0.008880859623273594,0.011471151614637076,-0.0035235170013469485,-0.28014163264349373,-0.0032818024822339436,-0.0033721343842137478,-0.007648512746187547,0.004022659409448895,0.258944491768349,-0.015329647591298448,2.375
-0.08458038321224327,0.034487146071846046,-0.061989323415457986,0.17067347713996264,-0.01066928338900555,0.014634238442637096,-0.004117337608083348,-0.35012803348859695,-0.004193993832975033,-0.0045753416627830334,-0.009634313126064449,0.0051061248831443294,0.32427606127844166,-0.019412247711580552,2.3828125
-0.025831813193346934,0.010954886040511518,-0.01765100785507432,0.05020183134469859,-0.004193787541199866,0.0033602202839472105,-0.0018388501710470335,-0.10451222198216795,-0.0008879769160805665,-0.0002816448704159308,-0.00288583249961012,0.0011540179566734007,0.09780525198045412,-0.005277897838402307,2.390625
0.08185059398275049,-0.032206153973502044,0.06274573758511505,-0.16936685237834231,0.007569711738727807,-0.017161579794626187,0.0022645236632635323,0.3439236318463459,0.005125186845833671,0.007542531026685735,0.00950212274464127,-0.006018302133404174,-0.3162521398197848,0.020580372263210828,2.3984375
0.40197441145637924,-0.16041771519754455,0.3028559539443018,-0.8244549818036951,0.04258300846586516,-0.07820691130758578,0.014548612274465396,1.677956854533429,0.023094342853377428,0.030905635381303077,0.0462435251160761,-0.02742001963202342,-1.546766421988983,0.09739038568964606,2.40625
0.7814688642968926,-0.31234904827413795,0.5882128344424584,-1.6020266884465066,0.08413758108890167,-0.150635564727702,0.029165887766737623,3.260065536362853,0.04443445252649281,0.05864302667391845,0.08974684671799507,-0.05284789209704471,-3.005840103339504,0.1884435855268352,2.4140625
0.6268811997648751,-0.2503848139603461,0.4725403559586323,-1.2856877968609262,0.06723396807520625,-0.12115237252465119,0.023249406904397932,2.6156428757305763,0.03576048953504227,0.047363617630571585,0.0719642603498683,-0.04253746857863384,-2.4116404606341395,0.1513502318090097,2.421875
-0.1427737345515789,0.05781464542459095,-0.10558633878460613,0.2906808438839265,-0.017033273883889897,0.025753960572754985,-0.006359215961719253,-0.5929571804018474,-0.007486450970604847,-0.008853497840172298,-0.016324625871258346,0.008984963073770499,0.5478332762121858,-0.033324837544958914,2.4296875
-0.7173445820242116,0.2877885987231769,-0.5375435472181753,1.467299816173189,-0.0799624264106223,0.135451644091031,-0.028488280852814834,-2.9878363108519697,-0.0397626463612821,-0.050802211486228294,-0.0821675610001381,0.04748497981386598,2.75778044461024,-0.17118849157822957,2.4375
-0.5309821026875362,0.2130407586752174,-0.398031037949515,1.085730723149842,-0.05959737762649172,0.0999322571010447,-0.021355665959217163,-2.2108942422972424,-0.02929459296250236,-0.03717751048079785,-0.06072973547683562,0.0350572155330205,2.0420933850197067,-0.12648736434635052,2.4453125
-0.024313027318306597,0.010141292512880687,-0.017902601203206445,0.0490009203008023,-0.004178960284433891,0.003291098422224783,-0.0019044291970137942,-0.10005734456118663,-0.0008701102207898679,-0.00021402359946661776,-0.002628164706424927,0.0011787254071659637,0.09428713687387465,-0.004970144344494904,2.453125
0.20097358109982605,-0.0799769606427486,0.15125415860919939,-0.4119039670103527,0.02046844709973444,-0.03970231843822094,0.006756072103802401,0.837856919362102,0.011751838048917737,0.016181475921028855,0.023148775815284465,-0.013902789404261328,-0.7726822949188729,0.04902857779715019,2.4609375
0.14255444367762385,-0.05649920716295251,0.10797573023001171,-0.2934754308266875,0.014136666027469763,-0.02864827524507703,0.004561888313529691,0.5952211391465195,0.008502020254984382,0.011926096343472952,0.01641463070215839,-0.010045198952298853,-0.5494100696547227,0.035011530886660557,2.46875
-0.06487034500660807,0.02657860185734206,-0.04723511780484392,0.13027300526110794,-0.008503689172098393,0.010878040886776533,-0.0033693822185157747,-0.268021046564904,-0.0031037755330319697,-0.003164548857677556,-0.007369403669813735,0.003795763970561456,0.24786376615363867,-0.014723464495583784,2.4765625
-0.4398009096315306,0.17671898072897713,-0.32926705402125583,0.8996361887301036,-0.0496000494518657,0.08254935246019414,-0.017830768277325944,-1.832212776913764,-0.024200724941739485,-0.03054709150644211,-0.05037296951837676,0.02893113915885562,1.6911360392594672,-0.10468429798673345,2.484375
-0.6672103851773912,0.2678307593541998,-0.5011433483192275,1.3678076909520893,-0.07462210487132097,0.12610547634820535,-0.026657472572880033,-2.783164390957669,-0.037055337475751925,-0.047222138054594985,-0.0764708973823962,0.04423002457229195,2.5672867694816404,-0.15926706908392924,2.4921875
-0.279347580315446,0.11258482414565942,-0.21004394567853768,0.5731251887588797,-0.03218244428089377,0.052017138862217274,-0.011730394733372744,-1.166650174433401,-0.015261592644495793,-0.018922237574850762,-0.0319820230807924,0.01826285830866038,1.0752623941266197,-0.06616581434111768,2.5
0.4407579559636035,-0.1757616470165862,0.33197336235740654,-0.9048212159581819,0.04679266625197876,-0.08567092640851055,0.01607756418570689,1.8387180971753232,0.025300300726578694,0.03373488093366511,0.05063465728174203,-0.03004405848776245,-1.6962949397596427,0.10670232625875027,2.5078125
0.6830720131202218,-0.272890863405943,0.5153382992249833,-1.4035414832627375,0.0734810742590288,-0.1320843230593674,0.025488559136904277,2.8527767958483734,0.03900863660279356,0.05152271043785307,0.07845497479151,-0.04635875955862971,-2.629897509548059,0.16490179196426044,2.515625
0.35172158214271854,-0.14035806062708395,0.2667809020596938,-0.7246412180203006,0.037239435742776626,-0.06879837930475442,0.012732688520006055,1.472542762900593,0.02039310188573008,0.027354202716456607,0.04047893540814871,-0.024177965919366464,-1.355414044119728,0.08539937143654254,2.5234375
0.11269661363088684,-0.04471466178890565,0.08648894530989687,-0.23323023557938335,0.010977813126009997,-0.023037305452284502,0.003463758286639463,0.4741664689973716,0.006895660786946159,0.00984991714181935,0.01307413435133227,-0.008107231309228394,-0.43484030082499475,0.028009361116614187,2.53125
0.1918962610938364,-0.07635870554659062,0.14500763326575106,-0.3937782097152537,0.019529570031697172,-0.03803811010287723,0.006443887717855946,0.801415756047666,0.011276304043478319,0.015553300698243,0.022121451785907284,-0.013339829508099778,-0.7383896816551122,0.04694107909950894,2.5390625
0.1498654630270371,-0.05942966011379136,0.11312843715475081,-0.30725099636015446,0.014888655357545452,-0.02996712259641976,0.004809783233222262,0.6248922108209569,0.0088942803420204,0.012445968090769203,0.017246593803827377,-0.01050651105439738,-0.5766700946892632,0.0367836440946001,2.546875
-0.14334364717656622,0.057976463703025685,-0.10659769167437416,0.29233527113747126,-0.017147178882209353,0.02595739459115141,-0.006434240450728398,-0.5960961167901705,-0.007543741525192513,-0.008923901065093158,-0.01638591558481637,0.009087352613956653,0.5503719848144412,-0.03357632113352928,2.5546875
-0.30520202278263114,0.12272462903549688,-0.22765064028367946,0.6227216887808048,-0.0347964135203472,0.056775107252863194,-0.012619119754465034,-1.2690685478236983,-0.01659697456358522,-0.020680542365157886,-0.034901874288754645,0.019883460025985795,1.1725061779348318,-0.07235503618056541,2.5625
-0.23067230273533176,0.09287758202112359,-0.1720494163024436,0.4705732412051522,-0.026677345968037027,0.04256650814175391,-0.009769636735004016,-0.9591536752898516,-0.01242914901029261,-0.01524583045092996,-0.02632461906914185,0.014913757539491389,0.8865530473222029,-0.054436527092629576,2.5703125
-0.19004905232112915,0.07666134727491102,-0.1424916851140047,0.3892211346067383,-0.022343334424773455,0.03492749558623603,-0.008272778493695412,-0.7923734736198799,-0.010209619447659158,-0.01234577260451869,-0.02168222558772919,0.012259596301850324,0.7316091786668674,-0.04471153064787302,2.578125
-0.1905999391704812,0.0768885978105259,-0.14313428474190437,0.39106534504773116,-0.0224280037046602,0.03506819773620858,-0.008313932010158908,-0.7952926767273132,-0.010257734963848828,-0.012407958704736407,-0.02176651070297765,0.012318030004567401,0.7342009125788016,-0.044860130994524544,2.5859375
-0.031035302608379303,0.012957365493235843,-0.022414387532179694,0.06271152270855707,-0.004852291752680728,0.004487717288159589,-0.002111502301736046,-0.1278512063753521,-0.001234743527109131,-0.0007017063226768695,-0.003466205141058637,0.0015787813701835982,0.11957079164985693,-0.006551423560737266,2.59375
0.17100086442059584,-0.0679477432300146,0.13012177487553542,-0.3529545769645614,0.01735470901772289,-0.03419015133338213,0.005722921393269715,0.7163273206134342,0.010174304087124345,0.01409854574145858,0.019710634945998534,-0.012003738392341963,-0.6587589009072183,0.04193249904848636,2.6015625
0.17935818790819447,-0.07126019050105345,0.13610458222783253,-0.370150094952489,0.01822444974687421,-0.035736734996195306,0.0060230602811742655,0.7504581887915948,0.010633579103491279,0.014684631550468783,0.020674595682769963,-0.012546192356189884,-0.6912392178923396,0.04390237206808018,2.609375
0.08958633723749085,-0.03528013684466593,0.06784343804691323,-0.18495233833453426,0.008295423388096872,-0.018483290193652205,0.002505126033682238,0.37421898988637503,0.0055351342474438845,0.008071552226080875,0.010387474075616805,-0.006481673055239265,-0.3453008849341008,0.02234017457410654,2.6171875
0.05281802141066263,-0.020512209710061822,0.03999002366269058,-0.10869427424252523,0.0042506132670408715,-0.011449108610113284,0.0010744385555597844,0.22000773010264232,0.003435843885491806,0.005362300571233544,0.006164071992756609,-0.004010239979495805,-0.2031508029529533,0.013546698595731424,2.625
-0.011503422198444082,0.005300136646246111,-0.007694021338860776,0.022602112954187226,-0.0027105301368049316,0.00073059232166812,-0.001350158531855352,-0.047216339512631864,-0.00015705838917984955,0.0006931475022849247,-0.0012405583136794848,0.00024528333186131713,0.044144174082346846,-0.0018430741580103805,2.6328125
-0.05531715168133003,0.022833416697735247,-0.039768647031385815,0.11090767956686261,-0.007414276280384689,0.008988669191018591,-0.0029759131726877133,-0.22779555963775372,-0.002560426229645917,-0.002453664720756356,-0.00627720906596293,0.0031202160586052442,0.2116069102765858,-0.012333417484549452,2.640625
0.11046403016980932,-0.0436478001569159,0.08498484908217603,-0.22954925633353804,0.010750781279068764,-0.022681775511469795,0.003414046617400449,0.46469704413653423,0.006791953259649194,0.00968029519226222,0.01276062366497115,-0.007989132656595274,-0.4270346029355462,0.027450234904888685,2.6484375
0.2494524551590328,-0.09935800336671892,0.18872942088169428,-0.5132317691062848,0.02588304860038257,-0.04912923175556907,0.008711157293231134,1.042933178932223,0.014567145964919339,0.01979659832527798,0.028717794996754174,-0.01724410128918691,-0.9612963989706057,0.0607856578198149,2.65625
-0.06558512196400099,0.02686961528298612,-0.04883041493870598,0.13418559285106546,-0.008717465495718366,0.011146188018924455,-0.003479547225389166,-0.27330490797967383,-0.0032101712992622738,-0.0032770649500736167,-0.007446286730229962,0.003915540972111432,0.25176945035754916,-0.014853079933898632,2.6640625
-0.5576681930951062,0.22400088539802818,-0.41862335510026405,1.1428605596360457,-0.062613431692242,0.10514336742491205,-0.02243207560302276,-2.3258312029273656,-0.030883253908307727,-0.03923834970720535,-0.06392934260850529,0.03687957829102757,2.1449245682277573,-0.1329785273053297,2.671875
-0.5403172879641539,0.2169824827198293,-0.40484103250889314,1.1057754091413883,-0.06063007089491435,0.10176195128616676,-0.021714812754329203,-2.251369502398643,-0.029847473371560605,-0.037921310567451995,-0.06193345449925715,0.03567350838432224,2.0771179682801435,-0.12882091582726393,2.6796875
-0.07077897435411647,0.02878612266439203,-0.0514846976089442,0.14229816561666198,-0.009142427393581377,0.012041449999591537,-0.0035926471850254303,-0.2914463077478434,-0.003396645049956115,-0.003554071403272289,-0.008020779197298395,0.004192231856322038,0.2704737592210812,-0.016116566086848808,2.6875
0.21587325359035753,-0.08609720978733683,0.16363233256079956,-0.44472563584463326,0.02223633810633066,-0.04266785093323089,0.007435226613474592,0.90357516652694,0.01270968645578986,0.01741758651246679,0.024915757567165832,-0.014989166018394623,-0.8308206028530719,0.05269858650805675,2.6953125
0.23730242933130644,-0.09464238956002624,0.17912356608429852,-0.487400950037803,0.02453529139447843,-0.04670301579941112,0.008216304979227736,0.9915030709388553,0.013864150172589778,0.01895975670442249,0.02739381662991043,-0.01638254308980488,-0.9116601021447432,0.05784555019632595,2.703125
0.33623086926129075,-0.13419002232272864,0.25324239027513973,-0.6894805760517088,0.035352905609555715,-0.06560693127776117,0.01199723209852954,1.4033985196843386,0.019383294987050725,0.026127968575842528,0.0387273982572958,-0.022993363856080806,-1.2924783714919577,0.08158992382720552,2.7109375
0.36908297199217405,-0.14729727498911319,0.2781854887127802,-0.7570737649874861,0.03897138100093393,-0.07195967210895236,0.013276911966806004,1.540640345425291,0.021220518012653598,0.028482083760433156,0.042464763289774464,-0.025221066865965484,-1.4204146738908483,0.0894959571352414,2.71875
0.060111780610629426,-0.023500290583957598,0.04642685833941768,-0.12469849683632407,0.005169065465805123,-0.013026918843354692,0.0014227251676135278,0.2526634841217754,0.0038755912718767805,0.005916861591815039,0.006986899441204776,-0.004570229374551852,-0.23279095204673467,0.015364858780223735,2.7265625
-0.1659363429138923,0.0670944361881772,-0.12312774797238302,0.3377399283864429,-0.01955760813458178,0.03013400336038305,-0.007251833882949716,-0.6894498574554899,-0.008792050337073512,-0.010557002046407148,-0.018968338985658747,0.01054908393725493,0.6369015570581245,-0.03890789310113774,2.734375
0.17096779578356547,-0.06781554247976944,0.12998145303188782,-0.3527588798242504,0.01732996875623835,-0.034143915837463484,0.005705097064204281,0.7156186514148518,0.010163466456027285,0.01407213793992864,0.019681160273470822,-0.011995220309302515,-0.6586662937205531,0.04189522452271851,2.7421875
0.5828101528229284,-0.2327595459740547,0.4388868976061023,-1.1957381956480206,0.06236404774561756,-0.11270160832695446,0.021515045014306566,2.4318146509075267,0.033283854085015385,0.04413080081128587,0.0669415718115812,-0.03953365066477146,-2.2422295482203247,0.1407119412076074,2.75
0.2983054601034152,-0.11874972682320299,0.22440416740392796,-0.6115274149484978,0.031123014375429015,-0.058312239477375565,0.01052998585213691,1.2432349099245377,0.017244514505056128,0.023309727940607934,0.03429801658716903,-0.020450064652077025,-1.1467434634496296,0.0724540869072322,2.7578125
-0.4594658145372795,0.18482293630185728,-0.3450407937593972,0.9411840250470304,-0.05186999389805092,0.08636806018437318,-0.01862488586832091,-1.9173090940285713,-0.02535157026321968,-0.03204556174035607,-0.052657358185349036,0.030282233521985176,1.7684203468425457,-0.10937468070460687,2.765625
-0.8316467374641704,0.33380698848504325,-0.6238813467638218,1.7022822466405219,-0.09253696781032515,0.15734394779642139,-0.03290156777554271,-3.466817872039849,-0.0462145710768943,-0.059185859312179206,-0.09534588901825951,0.05515525023366702,3.1984926162369165,-0.19866750394338337,2.7734375
-0.5894021786551653,0.23654745158577622,-0.44109858625277304,1.2046990503202528,-0.06592473478390355,0.11101899948184414,-0.023551028869005033,-2.4535798043517656,-0.032549741781933685,-0.04144506924215137,-0.067500618160932,0.03890291417847172,2.2647461720865762,-0.1405067481723998,2.78125
-0.23815969477496204,0.09571529602318861,-0.17748735766128093,0.4857254727940238,-0.027500300237626264,0.04400346214253634,-0.010070473492865687,-0.9891868093759286,-0.012835270581313736,-0.015807162117161443,-0.027170620165560773,0.015421814930269364,0.9137471199822595,-0.056234129508532696,2.7890625
-0.12345087874851303,0.049849694655364825,-0.09229997120072769,0.252449600090578,-0.015060027772632158,0.022231190771164457,-0.00572238534651029,-0.5141741388265699,-0.006464041300331623,-0.007499249275060638,-0.014044009410626288,0.007815474020323877,0.4742865971668715,-0.0287924533052579,2.796875
-0.08393328924724908,0.034173846129419184,-0.06285997165942005,0.17186413499484948,-0.010761594417662222,0.014723519581190793,-0.004209154247892668,-0.351006301368984,-0.004267007030647486,-0.0046396070063186,-0.009559156765339525,0.00518219621050012,0.3231261844985475,-0.019370157959930894,2.8046875
0.10365529061269013,-0.040936363143002634,0.0790937723726818,-0.21409864168701212,0.009912600721260713,-0.021230189795752356,0.003087122504496263,0.4338185885880434,0.006342348205685186,0.009130205216681016,0.011966527738816067,-0.007459623276664115,-0.39959264199767475,0.02570446128572713,2.8125
0.3644990222907502,-0.1454784267001787,0.27607121269374785,-0.7500095957062048,0.038614765953367894,-0.07119843274605273,0.013200763909598423,1.5248113402400465,0.02107508671279198,0.02826207160894018,0.04192926084514259,-0.025006792600507362,-1.4042624366236256,0.08841501227509231,2.8203125
0.45579716696588585,-0.18204784424465387,0.34433429500953927,-0.9363615896956327,0.048584621042047395,-0.08862845355074377,0.016697544335737086,1.9050680833324745,0.02619107410426426,0.03491626711934427,0.05240967259672059,-0.0311042705951535,-1.7550477309184838,0.11036291451438188,2.828125
0.30527308425003785,-0.12168266778695638,0.23011206122489888,-0.6258915986139378,0.0319664018340136,-0.05974922609039537,0.010828147974451854,1.2742193871295453,0.01765489762332226,0.023842736165798902,0.03511173784279575,-0.02094770252011612,-1.1744597982576424,0.07419639751219402,2.8359375
0.11865835039614506,-0.046897748511743165,0.08954919788992155,-0.24269971073613344,0.011487877940964727,-0.024047500144296463,0.003619252337257599,0.49475059323267695,0.007136318258050732,0.01018650515332364,0.013683129338340653,-0.00842453913157454,-0.45574238043408904,0.029382057384090717,2.84375
0.09265644401698714,-0.036515153098832666,0.07078712950510023,-0.19077484133726585,0.008732849843832208,-0.019161409145634065,0.002671878925565915,0.38822986006523785,0.0057265529170872345,0.008346133767328064,0.01070798144501434,-0.006733278962655715,-0.35625496839292775,0.02315467438972978,2.8515625
0.15455982306396213,-0.06133643837063276,0.11796719760594997,-0.31937570501355933,0.015581238216092426,-0.03106365292949766,0.005104094668205417,0.6481617675846737,0.009261591779712747,0.012919915770900627,0.017827303204706654,-0.010922941942890401,-0.5952909327169649,0.038013323151153675,2.859375
0.1527854905043463,-0.060616164887456046,0.11624592355764794,-0.31581738750887,0.015324241621105081,-0.030672433852772168,0.005008590263212829,0.6398874991507398,0.009147909057139861,0.012766120870302159,0.017640910789408104,-0.010777760202059906,-0.5885219081749504,0.03755973928112447,2.8671875
0.11519068375176723,-0.04557442077455891,0.08711216498556647,-0.23739997270917132,0.011097048305846567,-0.023368824100358898,0.003491644676511715,0.4811315614656407,0.006978621156730841,0.009962879991758178,0.013344537809055599,-0.008197015853138777,-0.4431098965080101,0.028513043897010926,2.875
0.08643207737472831,-0.03410661239168857,0.06525596055514082,-0.17773393583790784,0.007921922287963557,-0.017834915414670617,0.0023585238847123715,0.3608134958998593,0.005341154233303972,0.007848455944248711,0.010050395943203803,-0.006248234116624349,-0.3319628034456934,0.021610430338277312,2.8828125
-0.02142861244679049,0.0091004569224183,-0.015178550855176129,0.04222788088806484,-0.0038264412214623054,0.00268555123210018,-0.0017501327210000086,-0.08771503854878053,-0.0006871845002842657,2.4829735616938393e-06,-0.0023367011290570806,0.0009343462806384251,0.0823601495522065,-0.004263980173738214,2.890625
-0.18241955809994065,0.07366437378287274,-0.1355161743511259,0.37069253725199214,-0.021398517603277156,0.03334301675477816,-0.007895013469793636,-0.7581221994375659,-0.009699727744058417,-0.011733593240099385,-0.020821937334262512,0.011665378043709098,0.7005520201401231,-0.04289083471667321,2.8984375
-0.25438069332241736,0.10253460700722544,-0.18977503398245055,0.518579237115779,-0.029294486075406335,0.047097497943519265,-0.010673212161796942,-1.0588639244638762,-0.013759986172873878,-0.017013262605761633,-0.029085512202039428,0.01649183483765531,0.9771055519644243,-0.06016318656560612,2.90625
-0.37988786217890375,0.152774770387379,-0.28499503251281333,0.7780445026335069,-0.043113958277353225,0.07115782175604111,-0.015570807448505307,-1.5840844824259535,-0.020879171885743696,-0.026244413173366007,-0.04349870114501406,0.024961977836568755,1.460624359244388,-0.09030530006786522,2.9140625
-0.7913339039375745,0.31756215031907664,-0.5948533517754794,1.622805206016524,-0.08823162947877125,0.14978850517574374,-0.03146275808575509,-3.3013065236191244,-0.04406390481318209,-0.056363604955325435,-0.09072906582317178,0.05256641152717638,3.043626001122445,-0.18907670755215353,2.921875
-1.1054353949658517,0.44340449260824466,-0.8305228109721793,2.2655485751397215,-0.12259903023931183,0.20971626163019405,-0.043532863783499874,-4.610495648457396,-0.061708754107801383,-0.07931443687759732,-0.126780832784956,0.07357514388722708,4.250879649091363,-0.26446387875982147,2.9296875
-0.634898248285895,0.2549249327397142,-0.475776985603725,1.2989504565528387,-0.0709556215886993,0.11973455179773426,-0.025335717465596767,-2.6455763481058,-0.035175317582434765,-0.04485968898693582,-0.07279020866603182,0.04198023026844991,2.439824759403748,-0.1515080664418533,2.9375
0.4512670019812336,-0.18017570484539042,0.34133482350479827,-0.9281434869939139,0.048091094551091666,-0.08776588593134327,0.016551813664753428,1.8862722731916166,0.025968640786274495,0.03460137183454503,0.051833797160381084,-0.03082682724233134,-1.7378794020806596,0.10921524754729897,2.9453125
1.1920275678195673,-0.4768761517486109,0.8979536832070234,-2.4455136336530146,0.12921440177533638,-0.22920118120102392,0.045076334733326374,4.975385179684265,0.0676279623132313,0.08876678181278758,0.13682829634734545,-0.08043856670527157,-4.585992729261437,0.2870360201647981,2.953125
1.1616589126716568,-0.46471618080485977,0.8744636867443917,-2.38194412529055,0.12582232102196328,-0.22332158612857425,0.04385462004985899,4.84735501959968,0.0658717806530377,0.0865103507788434,0.13337277029183514,-0.07835389027877931,-4.468420228919978,0.2797550291598858,2.9609375
0.790920102518619,-0.3163512553128051,0.5952782503321439,-1.6213987890053811,0.08517338239101514,-0.1524699139974037,0.029524224952951456,3.3005927284668792,0.04497746306784572,0.05936993253019639,0.09088171321269281,-0.05346440667292463,-3.042221518933422,0.19074721247318888,2.96875
0.4062146600359179,-0.16239931246025002,0.30607211487618496,-0.8331363420664585,0.04304509674648062,-0.07901140010513603,0.014702286095422372,1.6965077097990757,0.0233413216274226,0.03125394034596502,0.04676140447551477,-0.02767776534217958,-1.5622138010111266,0.09838567623604863,2.9765625
-0.0446453890960888,0.01825690379447047,-0.03241276587087256,0.08980113887456752,-0.006303336088732388,0.007042223146662018,-0.0026188722762626924,-0.18340523040073975,-0.001977708866139917,-0.001663908463294704,-0.004979841302074092,0.0024828148433926555,0.17192154057531372,-0.009810925728863157,2.984375
-0.3969154049571027,0.15954891036266114,-0.296761852598375,0.8104984126863142,-0.04486560686962798,0.07428763878947123,-0.01615063663917601,-1.652345375859583,-0.021760241986136252,-0.027397537166676623,-0.04539855642802912,0.026027974710755426,1.5258582887978054,-0.09432506774744781,2.9921875
-0.38257144986612424,0.15387431020748876,-0.28613962426296785,0.7812323526027755,-0.043325468989637746,0.07160307367238983,-0.015626777059739833,-1.59300319095522,-0.02097651148159163,-0.02638758224804278,-0.043741707221177054,0.025076779587418878,1.469825796816802,-0.09089714858917566,3.0
-0.2279753552639125,0.09191710203443895,-0.1707674725689221,0.466332113948701,-0.026482368912134707,0.042200630248296525,-0.009740911362736271,-0.9502284684502079,-0.012345869898508464,-0.015149274980870877,-0.026029102502096346,0.014787134806349978,0.8760583482668644,-0.05385424436614228,3.0078125
-0.3140359523005176,0.12644377376128674,-0.2360716181200716,0.6443098955462393,-0.03598086236821655,0.058694623384317704,-0.013076680583688074,-1.311427285570604,-0.017222477870659492,-0.02146339727388166,-0.03596582813945969,0.020583564360268945,1.2087078255132833,-0.07453369574987104,3.015625
-0.483294118577741,0.1943454097650557,-0.3628741847332664,0.9903353202968432,-0.05448329039422371,0.09092612524275939,-0.019539004165656744,-2.017062869720721,-0.02670419433038616,-0.03379860347059773,-0.05542111255950995,0.031873129363647695,1.8597071654911146,-0.11511778294400311,3.0234375
-0.379447954704686,0.1526987755822022,-0.2838530378488938,0.775282272128719,-0.04299730128539492,0.07095537359583547,-0.015479992258331236,-1.5809793261528935,-0.020794487699886646,-0.026159295759551084,-0.043484915749690475,0.02486139872303214,1.4584579316605404,-0.09017638777990958,3.03125
-0.10875953683478942,0.044106076805335015,-0.08013151881838727,0.21981247208292173,-0.013300520365241505,0.019245634362825476,-0.005068246326134341,-0.45001173708240627,-0.005551496059736155,-0.006373816278372465,-0.012396741650253491,0.006747416041763523,0.416114067628562,-0.02526362080096966,3.0390625
0.026330421104464898,-0.010034297057929456,0.020681292560360092,-0.05561347365020072,0.0014270540031805317,-0.006454322872800622,7.580954247595317e-05,0.111993284371183,0.001999454473006468,0.0034560265175219767,0.0031008044078364894,-0.002239980822910258,-0.10252400441498721,0.007113827686321286,3.046875
0.05888758527701109,-0.02292981801896026,0.04450489740280593,-0.12096058255073915,0.004918670956046589,-0.012623177128517342,0.0013104578866676732,0.2452991099073563,0.003785386994261419,0.005812735474939518,0.006822041517467441,-0.004404539535725911,-0.2259626086725317,0.014973210271435994,3.0546875
0.15033453473094124,-0.0594957737737211,0.11362419942431395,-0.30883768506728004,0.014975451317714423,-0.030163189649115966,0.004878750990697702,0.6270068322066092,0.008946660660963442,0.012536884442247294,0.01732277819141354,-0.010581164657145837,-0.5773682715815397,0.037005978871453835,3.0625
0.23698449353715362,-0.09436378302148951,0.17981012196128926,-0.4880066163533698,0.024587802049441956,-0.04681950260235523,0.008275260067031052,0.9915758726199737,0.013883749321125256,0.01893826658599817,0.0272924068807868,-0.01644670944402864,-0.9122940406485633,0.0578360145560054,3.0703125
0.2337314909870638,-0.09325513640233454,0.1779234131177212,-0.4820979457868251,0.02429437257200451,-0.04622682193242936,0.008163528026478116,0.9803701637066067,0.013737460251406621,0.01872564354263427,0.026939692775774758,-0.016244256274982563,-0.9016269960180043,0.057040526151686546,3.078125
0.22836561195924157,-0.09111715222085152,0.17335640770404953,-0.47013812484171896,0.02364036427777255,-0.045128445179741336,0.007914320206022979,0.9568903060715895,0.013403053107849719,0.018290959990751164,0.02632469002234373,-0.015845871584569904,-0.8810084071397503,0.05573781155369356,3.0859375
0.24833471505401225,-0.09899930146884614,0.18739441349927885,-0.5094336758038438,0.025711659936877646,-0.04882802476848635,0.008625229664218623,1.0372244167366387,0.014463175336570001,0.01969048491281764,0.028605556481494526,-0.017126489584334787,-0.9561675725112863,0.0605164556653626,3.09375
0.1651663354609544,-0.06561632315022466,0.12461551808909176,-0.3385657629668035,0.016570106549448394,-0.03289625044922997,0.005407853593606945,0.6891696319265797,0.00976734053983612,0.013601893069589668,0.0190566277059641,-0.011538423303453239,-0.6351313288889424,0.04053550670557574,3.1015625
-0.03966670804456665,0.016437659960082476,-0.02867859663515216,0.07993612259593706,-0.005787710665204724,0.0061523446984355365,-0.002434215316623724,-0.16363281487577178,-0.0017095028322816378,-0.0013245004834038486,-0.004443689003199262,0.002137683641244655,0.1521322346597907,-0.008623983801618147,3.109375
-0.19784544324798625,0.07982685376827978,-0.14698478694824912,0.40280921042294254,-0.023042960046275377,0.03626957934731484,-0.008478752723318118,-0.8219259395883053,-0.010565393458798365,-0.012850380806482162,-0.02259093827114043,0.012685450399471564,0.7595986608608647,-0.04656665155778491,3.1171875
-0.20204731393865094,0.0815489381823559,-0.15054003645745526,0.4119199095155461,-0.0235477001872377,0.03710124934587716,-0.008663030194837358,-0.8404863639977788,-0.010825928200929329,-0.013183654563503063,-0.02307724151797921,0.012988928172539115,0.7762130252971726,-0.04758366511033366,3.125
