AF3,AF4,F3,F4,F7,F8,FC5,FC6,O1,O2,P7,P8,T7,T8,time
-1.1552750788834392,0.4631975851877501,-0.8679665835989628,2.367381066659261,-0.1280975768455429,0.21937404881716535,-0.045457528575623136,-4.818121397802537,-0.06447429508992848,-0.08285507568530733,-0.13244045284916342,0.07692708031089338,4.444100708317742,-0.276451747035084,0.0
-0.956887630883879,0.3838019767545051,-0.7193052645168966,1.9617388992705118,-0.1063761177702383,0.18143944704410264,-0.03783422809374795,-3.9918542298229283,-0.05336381126186993,-0.06841407314809039,-0.10969579494191622,0.06366211679090576,3.681707227758266,-0.22882830432336496,0.0078125
0.0012751086726014783,0.00012638045111590087,0.0012989905874836885,-0.0025752701612911525,-0.0013408124208760758,-0.0016808093849506552,-0.0008825931960327987,0.005047002199992881,0.0005390895716995791,0.001619236746972234,0.00022186899851477237,-0.0005665631273859116,-0.0038821709248137554,0.0011788306130611646,0.015625
0.9468998744251131,-0.37863386089329054,0.7131501697226001,-1.942544333859548,0.10237054185807931,-0.18241437108864417,0.03561744726481393,3.9519878045933354,0.05380314427043869,0.07080285076331529,0.10872106020897386,-0.06399180103233862,-3.642451097612479,0.22818802512426384,0.0234375
1.0626933020335807,-0.4250803171245911,0.8009728775450496,-2.181371548458736,0.11513174132979953,-0.20460317549204146,0.04011811760255625,4.437582170003287,0.06037414475032882,0.07931242414211957,0.12203109220741475,-0.0717984139651322,-4.089342763013967,0.25603125007126937,0.03125
0.4902641039238662,-0.19583904272727756,0.370446291294864,-1.0077120617431221,0.05237738436125832,-0.09521971996734208,0.018030680035857408,2.0494836548104503,0.028143534703886697,0.037437486798575496,0.05638106003193915,-0.03342512750974702,-1.8876718967179535,0.11864866011953226,0.0390625
0.06701030281394404,-0.02633258456060236,0.0513655218899359,-0.13860857342531685,0.005877907595069319,-0.014220851402549545,0.0016458038764549034,0.2812505150962493,0.0042578903334660224,0.006430811039111566,0.007826217544968527,-0.0049919222465412616,-0.25862381247528127,0.016989276519317923,0.046875
0.10606591861814942,-0.04199706703722103,0.08016723486838241,-0.21801755291521838,0.010067968589427994,-0.021573243685123117,0.0031115258095913284,0.4425057278158066,0.006433038673799537,0.00926185856298467,0.012287028718398057,-0.007557871368310254,-0.40833323114258246,0.026276178163313766,0.0546875
0.07522433339045674,-0.029600295343367913,0.0572803520454951,-0.15566872294533898,0.0067217018367005344,-0.015738482503655376,0.001962722197544772,0.31479888871869266,0.004749484152500201,0.007040696283737588,0.008715929688107225,-0.005519890755254611,-0.2903571131170171,0.018877647739746047,0.0625
-0.35190918859081394,0.1415818280293166,-0.2632126947028014,0.7190321835213096,-0.03998737603538241,0.06572734292895042,-0.014435417977816127,-1.4652633683988,-0.019231256740448153,-0.02414831649006318,-0.04031401061106889,0.023034131584220782,1.3517123059964031,-0.0835594864817797,0.0703125
-0.6687402019968703,0.26851163997301847,-0.501288378543537,1.3689441391209785,-0.07467945104396612,0.12623838405813403,-0.026645336500547005,-2.78670380547016,-0.03706922798542547,-0.04731885779821355,-0.07666690842214013,0.04424993328184105,2.5702921532829337,-0.1595665453247192,0.078125
-0.39114504295132063,0.15724771594247347,-0.2931140344110925,0.8010388076035806,-0.044331796539832595,0.07332240123082764,-0.016008514880671117,-1.630114394784595,-0.021505088750049237,-0.02706541291872372,-0.044801554587691673,0.025705645152272315,1.503447972534314,-0.0929974093540881,0.0859375
0.1218234287069684,-0.04825445390617516,0.09201897294325477,-0.2501427709708961,0.011814761052597825,-0.024605812179638982,0.003723068020780533,0.50829619612811,0.0073225668069601445,0.01041556579427626,0.01407028344354312,-0.008619275834501536,-0.4683181332389143,0.030060202766091393,0.09375
0.2759285361887358,-0.10991069661641935,0.20803132871222968,-0.5669478402153062,0.028735981076010938,-0.05413194176205972,0.009702185436539761,1.1512856930611768,0.01601382665570838,0.021713530046445887,0.03175910266095669,-0.018974868469222916,-1.0605163140725264,0.06707406153221544,0.1015625
0.11077971910858792,-0.04371894655694695,0.08461347575269838,-0.22962170048794128,0.010739048226430029,-0.02271472493290959,0.003408527374911408,0.46418097842561795,0.006773690040166018,0.00970161701554051,0.012816969472816644,-0.00798029654874367,-0.42606748114138343,0.027515680457194283,0.109375
-0.0013886128300752997,0.0011298400034926268,0.0007486752282910655,0.00011476921279623175,-0.0015032547128013799,-0.0012997661915841526,-0.0008966062939784314,-0.002290164196965306,0.0004871722615808028,0.0015329027438200002,-4.166238398752502e-05,-0.00048743886778089296,0.0044529323392148434,0.0006203699634300873,0.1171875
-0.010954733763938013,0.004883346068186374,-0.006907463135415379,0.020806633796952904,-0.002616776085257441,0.0006371097419311007,-0.0013164888698102386,-0.043208732302572356,-8.384874820840262e-05,0.0007972452873909306,-0.0011398241425888205,0.00020511044080149144,0.04151631368930214,-0.0017293309198254865,0.125
-0.03505409919235237,0.014589771000554003,-0.025875210888889423,0.0713550849309325,-0.005361819826287361,0.005325236584815417,-0.0022966268095124687,-0.14609792467536242,-0.0014878104572771545,-0.0010314714567111426,-0.003930409066891145,0.0018751920250400897,0.13494979117998074,-0.007564509698551594,0.1328125
-0.02185364064007323,0.009386024725853953,-0.015998236876469087,0.04419636220249894,-0.0039208562883896545,0.00276085254443754,-0.0017748857828214363,-0.0913404015229364,-0.0007432500448276253,-8.040958242507541e-05,-0.002439429734449729,0.0009762727419602295,0.08385311208436026,-0.0043711665743754805,0.140625
0.03809354464668894,-0.014681011439487114,0.02999570265359915,-0.0797345198415183,0.002760982778863801,-0.008798028215503993,0.0005923092794946316,0.1612601659195057,0.002677313509971038,0.004362520226975318,0.004452143324929031,-0.003103807423518781,-0.14784242037260908,0.010083145295840562,0.1484375
0.009834856416932648,-0.0034935979475723554,0.00939883234691569,-0.02223611930415187,-0.00025146917378391037,-0.0034337163871085066,-0.0004740605734427964,0.04535586063908069,0.001110402122005029,0.002346582236496918,0.0012410608367742367,-0.0012363326653831263,-0.03956420093375058,0.0033205336350703926,0.15625
-0.08241842192989836,0.03345471594591415,-0.060543952063687644,0.16775448423819506,-0.010424861413815682,0.01427443875946818,-0.0040752274995648355,-0.3407686996112569,-0.004114717515476378,-0.004434016943220414,-0.009341788162288924,0.00499314132494045,0.3159564388302048,-0.018864949289270946,0.1640625
-0.0640163204869926,0.026210146754675125,-0.047759345979452805,0.1309824646930376,-0.008532327161565099,0.01086890423656488,-0.0034253518936937836,-0.26647474064753524,-0.0031176967504655934,-0.0031584460300456176,-0.007248192362326604,0.00382193306076825,0.24603645143168837,-0.014490887151448669,0.171875
0.05734419462148998,-0.022344668438772128,0.04338690458505459,-0.11832462496556563,0.004755579303337979,-0.012299555837955532,0.001250775414128062,0.23978573457894414,0.0037263816773033206,0.005713459818191825,0.00668593083096929,-0.004308824954665593,-0.22056964316619926,0.014633767449809737,0.1796875
0.13787229123754743,-0.05466705859448843,0.1048061079643936,-0.2849977276572022,0.01367997496362498,-0.02776558308678035,0.004405682570591027,0.5777798606269912,0.00830264810440722,0.01165879767411503,0.01594891500381687,-0.00975528682043443,-0.5308650542926949,0.03396322903806738,0.1875
0.13603442826003267,-0.053952213447149996,0.1039456000231019,-0.2818929658000053,0.013525884390886254,-0.02748161885959389,0.004367702323734427,0.5706933952027998,0.008208264485869728,0.011540480923498821,0.015718622943018602,-0.009662004204686379,-0.5244324888646957,0.033501773578109365,0.1953125
0.014811517498210743,-0.005311317292176863,0.012320582878082405,-0.03230420329429273,0.00017213778717860363,-0.004294946621729492,-0.00032751622312095143,0.06322836866279495,0.0013522273789352687,0.0026300958181924463,0.0017635916740794616,-0.0015159464362099991,-0.058118038456427906,0.004398702717426605,0.203125
-0.2572192348198855,0.10369435264935674,-0.19285977985373193,0.5266950594618882,-0.029708942032803987,0.04774196613912192,-0.010851878307353686,-1.07285252528336,-0.013981763816897171,-0.017292279151359093,-0.029451717426399467,0.01674549639054228,0.9887608847442327,-0.06086044362591525,0.2109375
-0.39785200921824043,0.15997951268856858,-0.29855060293022656,0.8150949435098477,-0.04510065080933932,0.07461265837890162,-0.016276116776495327,-1.6588492920377829,-0.02188950895181306,-0.02756154125000082,-0.0455595936246944,0.0261666785811006,1.5298581968236125,-0.09458099596475515,0.21875
-0.04032491811959952,0.016771342424820642,-0.029248581821643065,0.08143689077467632,-0.005865826487184062,0.006241038643256802,-0.002463892694148493,-0.16663065206545014,-0.0017596040851475306,-0.00140794544929896,-0.004550806607704699,0.002181087682802644,0.15436891575103542,-0.008774461237299622,0.2265625
0.5613177896822354,-0.22417363063691897,0.4234488930689033,-1.1525906799029386,0.060088241496069617,-0.10876200577873935,0.020758048476624446,2.3431060082422874,0.03210131961988355,0.04258622862258601,0.06444958756631484,-0.03815650215453011,-2.159968840571528,0.1356114763126583,0.234375
0.6830063115730984,-0.273004606984419,0.5150858056175758,-1.4026942792289168,0.07343220993274854,-0.1320109042166175,0.025456769594844494,2.8514700900283,0.03896972736090271,0.051521275575361285,0.07845525702740203,-0.046316309953130255,-2.6281773672816064,0.16482547450451468,0.2421875
0.147888241638547,-0.058852917976002665,0.11270710935367151,-0.30611600140766976,0.014796225729825875,-0.029725050038225762,0.004811984249287118,0.6206679404957149,0.008883690147624378,0.012444249489735618,0.017146753796075484,-0.010446043328325149,-0.5701843567728431,0.03640064095092913,0.25
-0.41930442895605774,0.1683190749549859,-0.3142309800658074,0.8574849454862714,-0.04740221827543521,0.07870184447736465,-0.017083461111571118,-1.7460243452191782,-0.02304702739394527,-0.02903997548191614,-0.047926858404626974,0.02759286231585301,1.6119507170442262,-0.09974310523426747,0.2578125
-0.4648301877949914,0.18676254983745602,-0.3491473105599319,0.9526681308236433,-0.05246424109100261,0.08742480033825661,-0.018856163833943635,-1.9389226889969862,-0.025658856338724473,-0.032433689820405884,-0.0532456103477154,0.030670851271168545,1.7886097261647802,-0.1106753032984168,0.265625
-0.10870487492696951,0.04425955431633722,-0.08138814860155773,0.22330947002563453,-0.013434896977441326,0.01933899851336301,-0.005108767319704502,-0.4546214640262281,-0.005640239925885753,-0.006421159376912447,-0.01244998929663427,0.0067920200266311,0.4195135068292989,-0.025180017672786662,0.2734375
0.14772586848579677,-0.05854403253394117,0.11231049276866051,-0.30371499875628305,0.01477752603042918,-0.029736470489591365,0.004816929584806686,0.6176354482930368,0.00882469349517695,0.012369394778304642,0.017003645264496478,-0.01044281268153058,-0.5682681158548077,0.036385564491354126,0.28125
-0.03033559433313948,0.01263625131229142,-0.02084685436808578,0.059941252193237204,-0.004641298661346585,0.0042502150158260045,-0.0020305906211003414,-0.12228895434138333,-0.0011591787806946613,-0.0006089798369309674,-0.003369200472055318,0.0014586725978120952,0.11500972424054225,-0.0063580497165107485,0.2890625
-0.4706002828462214,0.1889778965041785,-0.35223703781075844,0.9629184566728585,-0.05292899069796823,0.08842549487110385,-0.019032833403852704,-1.959475482090954,-0.0259506675571208,-0.03281431242704068,-0.05386586585953178,0.030989023806450296,1.8088524558650283,-0.11204503886090708,0.296875
-0.6000971477402003,0.2409283629168493,-0.4505245317569682,1.2295917994327223,-0.06724300559365955,0.11326359353371263,-0.02407482517964805,-2.502363535422823,-0.03328284804276261,-0.042335868334370835,-0.06873397737407798,0.03972153863883363,2.3080631194248586,-0.14314721697484994,0.3046875
-0.13521682828089573,0.054787094001682676,-0.10131586127833717,0.27654785036754437,-0.016357178160241286,0.024477226719849792,-0.006172259921433759,-0.5640697000274549,-0.007132557830996268,-0.008386722053413648,-0.015415950994743315,0.008590100451942946,0.5193901814801665,-0.031599260904861155,0.3125
0.4627735658095159,-0.1846983882494861,0.34881301924585223,-0.9506448268583697,0.049232005820847455,-0.08984360093180055,0.01691490570502026,1.9320208287814316,0.026561335719407546,0.03534508157953375,0.053169124314496496,-0.03151467749322833,-1.7822352529361465,0.11191822573256818,0.3203125
0.6392477974085587,-0.2554004133845948,0.48209523726389764,-1.3133579332473198,0.06865579693961572,-0.12365002643162643,0.023766493858964,2.669962014226686,0.03653899750762191,0.048301916917635385,0.07341781529983173,-0.04338343668368629,-2.46116461813637,0.1543164323873415,0.328125
0.5312807189498311,-0.21225675804773803,0.40090785021374,-1.091606594641213,0.056825483493972005,-0.10300775568865407,0.01960276152345691,2.2195704416573787,0.03045630777602045,0.0404466669157917,0.061073499947989905,-0.036144423358008215,-2.0445002770137592,0.12844425366214365,0.3359375
0.5112460653118686,-0.20432704197059204,0.3852971239970554,-1.049440161580254,0.05454486351508801,-0.09906454820445201,0.01877458866014067,2.134383500343934,0.029275559873836468,0.038957774834309344,0.05880787047839519,-0.03474958455876114,-1.966199514658306,0.12360379166685417,0.34375
0.396276749098228,-0.15823396988755556,0.2984019872713933,-0.813287285842479,0.04187711330190013,-0.07703575182158824,0.014307443775522144,1.6532911169633777,0.022775822478818996,0.030505529165885625,0.04558815853278242,-0.027009597051883775,-1.523652781929015,0.09594151139931506,0.3515625
-0.11757665488169719,0.047714915595951,-0.08776677285705088,0.23962956653469375,-0.014401153044913018,0.021051249059067238,-0.005460435048730955,-0.4901119468875845,-0.006107830558950594,-0.007057100083369505,-0.013426429016753056,0.007391626775526641,0.4525708148985969,-0.02738732345251172,0.359375
-0.681384106301691,0.2735771121266297,-0.5109988747118148,1.394935517179502,-0.07608903767520248,0.1286403108080099,-0.027125713114570606,-2.840539852379783,-0.03778687005226222,-0.04822508222924142,-0.07813396593138817,0.04510615726594913,2.6205954994031537,-0.16262985996293872,0.3671875
-0.7581083091518033,0.3042112544650269,-0.5682867507292712,1.5524763032376834,-0.08445120429222046,0.14329644840608888,-0.030073085387209268,-3.1596220876749705,-0.042103782161821424,-0.05381241607809996,-0.08690960341720935,0.05022744442233522,2.915075169381328,-0.1810052321496317,0.375
-0.4682772520899612,0.18805332842513917,-0.35079248070712954,0.9589368195076065,-0.05274959995363268,0.08803735833149529,-0.018955059109300332,-1.9514144203244168,-0.025833162417446865,-0.03266294996045734,-0.053630543460079734,0.030853823568138924,1.8001545727862316,-0.11150068078477889,0.3828125
-0.241137468554336,0.0971417098282419,-0.18077392349732815,0.4935232979516353,-0.02794580373521199,0.04470908532194969,-0.010242853016534988,-1.0055271866570787,-0.01307786721224192,-0.016108048965860065,-0.027579272783859115,0.015684161714254043,0.9267925690048056,-0.0570534197573872,0.390625
-0.04884101676743853,0.020217713466333585,-0.03625901489709435,0.09908081271389883,-0.006868014212848919,0.007907137279066776,-0.002812113010343637,-0.20360041434785664,-0.0022520062233836033,-0.0020534760740897,-0.005538097017004822,0.002785941360835862,0.18712587985602877,-0.010876952916617194,0.3984375
0.30817179662917843,-0.12281169808395252,0.23301754600232774,-0.6331653359918552,0.03236557472260835,-0.06040327432942256,0.010998232442497525,1.2875475410220847,0.01785491308971082,0.024092692410331802,0.03543737649903221,-0.021197972164429636,-1.1865718831504553,0.07490036710736869,0.40625
0.5852851061783876,-0.23393711553553875,0.44209613964555433,-1.2015302559210057,0.06282194763454697,-0.11336212386482517,0.02169689426374882,2.445510257046092,0.033459634803481415,0.044398001294585314,0.06728455900011969,-0.03980169436649316,-2.2526529808212987,0.14146389817644978,0.4140625
0.4699736433272427,-0.18777711874357272,0.3550199655637209,-0.9651121136680445,0.05013869719585083,-0.09125775217964047,0.017220558970165563,1.9640884158877445,0.026967129706086574,0.035962134219711346,0.05408727010263355,-0.03204487294901704,-1.8085599820305107,0.11376638119186279,0.421875
0.1915765709646075,-0.07611471489312929,0.14470687486012948,-0.39412448293137214,0.01950934831981626,-0.03800936736268471,0.006451221757908547,0.8004786187267263,0.011285323996463035,0.015557363597898381,0.022119485598332326,-0.013338725547644772,-0.7369499164699989,0.04690533028433825,0.4296875
0.10145867386025705,-0.039885139862804356,0.07663888217224965,-0.20947594386208726,0.009601782738170027,-0.020818264183808326,0.0029784318484725398,0.4235755643882083,0.006209751135176027,0.008939134444694793,0.011735711962456213,-0.00729000095118749,-0.39012156883538124,0.025253270533362054,0.4375
0.023173477902547215,-0.008618615914026769,0.018404221275142022,-0.049599391155082016,0.0011086791591686039,-0.0059308210607820835,-5.327175457369008e-06,0.0985618027599665,0.001828327159862098,0.0032484367210672345,0.002744301020248255,-0.0020724588967403544,-0.08951218469242554,0.006442780458192287,0.4453125
-0.31419574421536206,0.12629798306369008,-0.23474576474810604,0.6417959658728495,-0.03580348273155126,0.05851022567241663,-0.01299138248229347,-1.3072644922894971,-0.017130091449465566,-0.021369804365422372,-0.03594907215501189,0.02052181949471757,1.2075890664770792,-0.07456019144342739,0.453125
-0.6044182330625947,0.24245659354967006,-0.45326084395124955,1.2374867611651574,-0.06766640174840254,0.1140307791726328,-0.0242027570297745,-2.5186301353401106,-0.0334677967681574,-0.042590455947721234,-0.06924019071040634,0.03999561502120468,2.3239225685944995,-0.14422688036645256,0.4609375
-0.4400182668293094,0.17668518034697492,-0.3302402970283816,0.901333238520885,-0.04974236948875566,0.08271559935527842,-0.017904607828701957,-1.8344150573740639,-0.02424135072881868,-0.030608451039633038,-0.05037863764680316,0.029011718774427396,1.6920143105551098,-0.10475013312395888,0.46875
-0.07492526902544214,0.030548663269203274,-0.05591854145000715,0.1530960495689278,-0.009763599229338527,0.012997641822498697,-0.0038415974372760777,-0.3120957832234502,-0.0037043723066712436,-0.003938934433227724,-0.008509287900415805,0.004552761865363757,0.2879596440460808,-0.01711537476700537,0.4765625
0.027457523573801264,-0.01038685923841157,0.02124701074678287,-0.05702801954251703,0.0014696160485490337,-0.00660571636833822,0.00013003795414802361,0.11477169726283819,0.0020647343680139903,0.0035420310328525416,0.0031829516105751983,-0.002327107063227134,-0.10601380608106012,0.007439134730929154,0.484375
0.026510869973562133,-0.009928565343262863,0.020879774056421,-0.0556529895932131,0.001398983526176718,-0.006505774677984532,0.00012631896986825148,0.11081231267252739,0.002013915916575398,0.0034709722028590144,0.0030395802305834435,-0.0022937140659916025,-0.10276430632559816,0.007206408791865351,0.4921875
0.30540419540500835,-0.12163160250998976,0.23108622949628296,-0.6284906641616046,0.032042519611573124,-0.05985640388597225,0.010891525414480135,1.2757168509932617,0.01770830161002096,0.0238747867579964,0.0351032236606214,-0.021011417244439046,-1.1760324260754105,0.07417618852662757,0.5
0.63282896124846,-0.2529048358562658,0.47764126540323915,-1.300468817467916,0.06801086246245538,-0.12242348751972659,0.02350224234035373,2.643864006540116,0.03613556788701954,0.04784168322609486,0.07278425551342875,-0.04296051728825084,-2.4357983247279815,0.15279817058784226,0.5078125
0.5397538564913916,-0.21571756355616004,0.4073395065188393,-1.108713188069262,0.057791001527391535,-0.10459133028521021,0.019888188073595485,2.2554135611780026,0.03088217672139268,0.041037809553183355,0.06212374958510925,-0.036698427357352764,-2.0772746647505183,0.13046542731725128,0.515625
0.16641720573934646,-0.0660923768237628,0.12587370968629963,-0.3415079493656937,0.016764258962832054,-0.033211873082217604,0.005480708362576434,0.6950905758889656,0.009842225300456581,0.013707386677325208,0.019195363411122424,-0.011649524383390225,-0.6400699878782178,0.04085143327383801,0.5234375
-0.041508623225222696,0.017315412283940547,-0.030618571810922254,0.08505629187577116,-0.006061151321744646,0.006485963325244301,-0.002512658084922843,-0.1736935502274968,-0.0018569347325795124,-0.00150276737837167,-0.004727425257496268,0.002273013522950474,0.16002245470149293,-0.009045466328287715,0.53125
-0.13385173918106066,0.05427255920246766,-0.09928730421310741,0.27274469353503233,-0.016078513021221316,0.02402824872832913,-0.006018273094228837,-0.5566161011584772,-0.0069989175428473195,-0.008197873543899491,-0.015291333586992377,0.008405077821933934,0.5140525697879349,-0.03117992941721707,0.5390625
-0.40589215274418033,0.16313534578807665,-0.3032030004853232,0.8293459676571795,-0.04580085952941191,0.07595054318551292,-0.0164720443014963,-1.6890874006460783,-0.02225909679571581,-0.028029221581842862,-0.04646000300257496,0.026597612533169977,1.5595865985719355,-0.09645071578970071,0.546875
-0.6665192873859418,0.26751084489070565,-0.4996489457424949,1.3646609782232457,-0.0744279177108394,0.1258342559111568,-0.026557281481363222,-2.777488928085472,-0.03694777126268694,-0.04710580763049461,-0.07637259583465206,0.04410404603262226,2.5630313501646365,-0.15902988358062817,0.5546875
-0.5110629822988989,0.20525436626378035,-0.38384865477187263,1.0475590545387405,-0.057532404855692464,0.09628667896540469,-0.020648906819728707,-2.131792403042825,-0.028268142630447517,-0.03582424936119949,-0.058551115194902824,0.03377721720224206,1.9664146112692213,-0.12179494319185999,0.5625
-0.08731060895585888,0.03547545430971889,-0.06562323264730067,0.17877888932919353,-0.011134024908969396,0.015366789630649406,-0.0043533877085249785,-0.364518572245541,-0.00445098781647594,-0.004892917269941175,-0.009908302503299483,0.005421420281840567,0.33610593260733324,-0.020143448749157862,0.5703125
0.09526179655735091,-0.03768270572691373,0.07230885519243557,-0.19711866604352354,0.008963327926517014,-0.019630923894718384,0.0027336363907752527,0.3992950387716207,0.005868990933396171,0.008493940602805885,0.011067953420177652,-0.006866580650417591,-0.3675764776658703,0.023717968990066327,0.578125
-0.004133124768193901,0.002151762315342306,-0.00166912464505639,0.005457570214462329,-0.0018394025696814526,-0.0007524046185912641,-0.0010310145920601355,-0.0133564749344427,0.0003377243187014414,0.0013018557350304458,-0.0003301547960091736,-0.0002756394790845258,0.014294753626432557,-5.150731086315473e-05,0.5859375
0.08152884913635548,-0.032180861005888385,0.06269322745853273,-0.16968271069188723,0.00753445247227014,-0.01706963946754958,0.002260882508507712,0.3438692826179337,0.005158784667292064,0.00758180098615436,0.009495344152293264,-0.006004775240468919,-0.314509726948785,0.020509448834270368,0.59375
0.5156690361032283,-0.2061067311614101,0.3885315142102352,-1.0583212912203934,0.05502656200025444,-0.09986909580468332,0.018925493883246797,2.1532007833920956,0.029529573376096376,0.03926183113095925,0.0592887892820923,-0.03502756729092891,-1.98391351801693,0.12461219134901108,0.6015625
0.8089738755328759,-0.3234710819996409,0.608836572737115,-1.6589483904110085,0.08711879005856443,-0.15585980691899157,0.03020558673751504,3.375076740520799,0.045991529868587934,0.06064522418906395,0.09288718383694843,-0.054661408025336755,-3.1122033722126994,0.19495133448764,0.609375
0.49065513607975814,-0.1957620034678414,0.3699336800102395,-1.006953184809401,0.052272664710547666,-0.09515288085096342,0.01799370139883866,2.0469678515039464,0.02810263813939834,0.03738455403232558,0.05630678837367864,-0.03339071604715964,-1.887982816056647,0.11860512326454135,0.6171875
-0.17877438197655054,0.07240186229188682,-0.13284920352973037,0.364625124792678,-0.02100607065516789,0.03262578846083882,-0.007745041870583302,-0.7443695777415782,-0.009517879905244147,-0.011499176810247569,-0.020500835360635714,0.011408681435372207,0.6868674835361985,-0.04199457747535248,0.625
-0.5179792154342486,0.20807934385410376,-0.3878538605530157,1.0601186299772414,-0.05814134214211613,0.09744277891948985,-0.020826040696333748,-2.1583529613884593,-0.028600080078599027,-0.03627377326298326,-0.05936580404593991,0.03415044475520215,1.9916017014297356,-0.12341759054988068,0.6328125
-0.36039962044932816,0.14483367888479712,-0.2699146397998329,0.7378210591802382,-0.04092486625722127,0.06743368587831987,-0.014808627339609904,-1.5016643148063,-0.019773170479505338,-0.02478820272725292,-0.04124337628432438,0.023646040712628647,1.3857911739477944,-0.08564758918117042,0.640625
-0.20402066947024966,0.08228139821195796,-0.15295247570447312,0.41752765284053495,-0.023873134195650153,0.03759844397231104,-0.00881156230328989,-0.8508711424724097,-0.010998302067647878,-0.013396081544964368,-0.02330407033962572,0.013195404669348166,0.7847098336125085,-0.048116460455765474,0.6484375
-0.2968178844937108,0.11956754954550479,-0.2227261814835509,0.6071799080793915,-0.034050783024857104,0.05525717227398052,-0.012358805102334319,-1.2380864086611407,-0.016196215654722197,-0.02016858690222038,-0.033966044659538834,0.019386190832758273,1.141424526618717,-0.07033091763212175,0.65625
-0.201130536268428,0.08118860799960487,-0.14999841227595725,0.4102057411844614,-0.023464547235502117,0.03687406383037241,-0.008617363969020632,-0.8368596108858624,-0.01077369676902039,-0.013116295047316477,-0.022972020832495575,0.012919244437632742,0.7724125047933506,-0.04730375126628931,0.6640625
0.3091168421919893,-0.12334109847233325,0.23439632980746927,-0.6360353993826001,0.032547739035291165,-0.06063115905472677,0.011066677697456591,1.2936814325418318,0.017944092556109,0.024225778420705026,0.03560702040351123,-0.021299135596733357,-1.1908630025769944,0.07517663913008218,0.671875
0.6083770528902375,-0.24324863786156206,0.45914374816770737,-1.2489758309117516,0.06531008583390849,-0.1177295696274103,0.02256396192964719,2.5415478032779966,0.034756721946964275,0.046079394754829826,0.06995035047940215,-0.04132067948351162,-2.341421771239316,0.14696537973267032,0.6796875
0.17532220418420433,-0.06966738074524088,0.13256996044845665,-0.36046059929696167,0.017736722957794458,-0.034915686092831355,0.005826156307471494,0.7326960071841547,0.010364479491729828,0.01436202286624825,0.02022658164776467,-0.012247813198653555,-0.6745796305723183,0.04297880749655628,0.6875
-0.44353627797119277,0.1783160220541557,-0.3330866014435387,0.9083529370800895,-0.05012152501108953,0.0833125055231498,-0.018028244530891427,-1.849925280066947,-0.024455628615875236,-0.030898169977603054,-0.05081330473644292,0.029233145014448274,1.7062641287494116,-0.10556679214147696,0.6953125
-0.43522700228519917,0.1749158084987419,-0.3261591105085601,0.8907270393628599,-0.049133589103881534,0.08167458123000748,-0.017674529312431176,-1.8137766025001638,-0.023966938408864633,-0.03024699961965949,-0.049846823140178645,0.02864289076384464,1.6737820625851645,-0.10356038629361929,0.703125
0.07604266604588993,-0.03000703635401429,0.05885940576781304,-0.1579687528267179,0.006956014931750684,-0.01599572492908314,0.0020427987271576173,0.32062292289730776,0.0048155466404990535,0.0071724816956537886,0.008852552822781459,-0.005633594739354475,-0.29334073254126636,0.01913830985800908,0.7109375
0.4117731003991992,-0.16448922734284652,0.3109504998719846,-0.8461389209756466,0.04369866144681788,-0.08005679902791035,0.014951491736961491,1.7207125087319513,0.023701129923533015,0.03170104312839733,0.04738735333021613,-0.028101074712314173,-1.5846850267656343,0.09968474530937282,0.71875
0.35595429714755233,-0.14203550397897846,0.26824069625331126,-0.7311607520384897,0.03749414642081472,-0.0693292555854687,0.012763901614246776,1.486395293127442,0.020546643795904287,0.027570896023209383,0.04096752431859745,-0.024324254687430737,-1.3697570585102634,0.08627884278032182,0.7265625
0.09018075482413157,-0.03552414883299382,0.06811064059611054,-0.1858471512085048,0.008340899356610615,-0.01856732844368874,0.0025161005214387904,0.3769042456653811,0.005585295616630588,0.008112809810595844,0.010440984750448764,-0.006508754156943906,-0.34726949581914945,0.022499217975983008,0.734375
-0.2901858906803747,0.1168563953823658,-0.21772599647617705,0.5941040299603101,-0.033317779679923075,0.05403500773139158,-0.01211860061468585,-1.2101599803206258,-0.015815668528921946,-0.019692352804400418,-0.03325497325406137,0.01896307045485568,1.116220612072678,-0.06880728322643866,0.7421875
-0.592213024363591,0.23787020559243424,-0.44451566158325395,1.2131008394027876,-0.06638030871865751,0.11166472844709058,-0.02372571862711494,-2.470219144002792,-0.03280378889127654,-0.041760820634287474,-0.06795354648293214,0.039179916252983504,2.278091435655173,-0.14131615762098673,0.75
-0.46359451831737686,0.18629610871724006,-0.3474055454842476,0.948880787153092,-0.05223700992668825,0.08704679833986095,-0.018747826687563036,-1.9325469016598147,-0.025555519414930675,-0.032339302786059065,-0.05316386162825102,0.030539969063569927,1.782387848781757,-0.11041665138764249,0.7578125
0.05632817473771104,-0.022116068415730685,0.04386498654148785,-0.11744182764195829,0.00478637810793082,-0.01227830989473225,0.0012860057674817127,0.23830852660304871,0.0037052625928796173,0.005694684536265359,0.006587684615167069,-0.004310944455238928,-0.2186589919973279,0.014436953139999587,0.765625
0.49613585484583317,-0.19828251942678718,0.374488757724082,-1.0188460741481526,0.05297463725571698,-0.09626122115518809,0.018217795316076636,2.0730336133322154,0.028432712771601913,0.03784801000307517,0.057093229874780174,-0.03377998743815953,-1.9100103708433434,0.12003592625288967,0.7734375
0.6264098960335,-0.25020603660250634,0.4720920818389396,-1.285323525388653,0.06719137810776675,-0.12112975754999725,0.02323485393778999,2.6140089328130385,0.03572530570901037,0.04733536426725924,0.07197549361622907,-0.04251094353459343,-2.4098197952362597,0.15129445064340738,0.78125
0.5582103630626101,-0.22270023889247273,0.4207718372348456,-1.1455261844142075,0.05969489356640776,-0.10812810233094117,0.02062749470580173,2.3280420127170647,0.03187963119747272,0.042324409703231064,0.06407745492900667,-0.03795732655431163,-2.1475660852914715,0.13489883089350738,0.7890625
0.23932325668995327,-0.09512812450083201,0.18142666575707456,-0.4925638121735183,0.02480476466069763,-0.0472403339985128,0.008360637750791884,0.9997465647983722,0.013985215451580654,0.0190515826166905,0.02750993811541808,-0.016605917594129067,-0.9223565106495886,0.058355143286943856,0.796875
-0.3835083314704588,0.1540533848692576,-0.28655745866784754,0.7837654542470697,-0.043391173822856614,0.07175473774312134,-0.015644250326116188,-1.595635421540281,-0.021001813144974867,-0.026406146075717635,-0.043872785359063436,0.025132029364579974,1.4731608685863251,-0.09110633651737819,0.8046875
-0.8455301230823683,0.3390231898497427,-0.6342788190593935,1.7314791777924705,-0.09404977164302326,0.16007758207577524,-0.03348264770819757,-3.523082103753392,-0.047002400200896445,-0.06015961024274693,-0.0968379935587682,0.05612253058244828,3.2520666381302243,-0.20197889489784313,0.8125
-0.6601040512779479,0.26484734128301946,-0.4956641172001465,1.3524063123466221,-0.07382149060703352,0.12473733988363579,-0.026384903752463034,-2.7521649548134772,-0.03663050679842851,-0.04666070424220951,-0.07557665538799299,0.0437496419388166,2.540385568829858,-0.1575264827403977,0.8203125
-0.17931454119191456,0.07236143095751821,-0.13470625651313936,0.3671215981554552,-0.021188457228014497,0.03293358062292495,-0.007881346002025107,-0.7482476854016819,-0.009616518956969987,-0.011577275546512335,-0.020455644265955253,0.011569540973507042,0.6908445741583631,-0.042229250535628975,0.828125
-0.09276749043515213,0.03773575643514104,-0.06938906409932467,0.18892983067999086,-0.011661958425960784,0.016340816259038764,-0.004515817806451242,-0.386342960491898,-0.004714952061486785,-0.005247785346126574,-0.010561369457995292,0.005748900943862916,0.35684988733006573,-0.021480793412322643,0.8359375
-0.22074382130415413,0.08900522538390922,-0.16490724764035072,0.45031429708622595,-0.025600397134523098,0.04067069823178129,-0.009391686519009401,-0.9182236046692399,-0.011862857911846466,-0.014553807862771296,-0.02524471383211333,0.014266444988901514,0.8483799178854706,-0.05211092703605632,0.84375
0.23392566436347045,-0.09315283623944214,0.17727007506829678,-0.48176630009628574,0.02424539409673124,-0.046215047359658944,0.008138373701500707,0.9791254821156161,0.01371783673375424,0.018696122228024463,0.026950533167184088,-0.01621503142615308,-0.9008185956909316,0.057078088728753994,0.8515625
1.1977492476136502,-0.47925054548675294,0.9016057796355817,-2.4567016678237454,0.1297907360167159,-0.23023471594986866,0.045228473904145514,4.998473972263131,0.06789246710994164,0.08909645369399619,0.13753813677138266,-0.08075035739926618,-4.608494587265163,0.2883508438631401,0.859375
1.508390830324909,-0.6036126865326252,1.1348335628372483,-3.092961436278827,0.1637581100972443,-0.28950248211682444,0.05716482246293343,6.292767656092923,0.08533434491096613,0.11174384783193488,0.1731319007391895,-0.10153615879613438,-5.80373841468671,0.36283718812133103,0.8671875
0.5463181080159607,-0.2181354690212923,0.4117661012125783,-1.1212910667831473,0.05835991299002423,-0.10579737819603786,0.020131560882766297,2.279627507783996,0.031232818038599928,0.041429777725932475,0.06270698737224495,-0.03711955250019512,-2.1032282737928356,0.13197800162358875,0.875
-0.781267993668895,0.3136261029484475,-0.585824518152945,1.5993914012966015,-0.08702102197061498,0.1476825242514483,-0.030963209416484217,-3.256692661715279,-0.043406680631994,-0.055540915904221055,-0.08959039299985477,0.05176895997941239,3.003729331114348,-0.18654110065026736,0.8828125
-1.260143055993293,0.5052898293697858,-0.9457846454148267,2.5812789058450774,-0.1394529346420723,0.23916565413232052,-0.049415828211104094,-5.253293588739434,-0.07033859606014943,-0.09049902639547756,-0.1444780025655853,0.08385794635453567,4.846563108621778,-0.3014448066626897,0.890625
-0.8682618516059804,0.3482167423125653,-0.6517136186813133,1.7790976462101626,-0.09657283826445759,0.16443209504202866,-0.03437559767492264,-3.6196747837489385,-0.04833488224790647,-0.0618836871497543,-0.0994967785739231,0.05766404428125934,3.3399765494903986,-0.20746634564581515,0.8984375
-0.38102761151712555,0.15313381395462464,-0.28597922005631576,0.7809280485507115,-0.043265328265092516,0.0714377588698198,-0.015640605060673118,-1.5891285507264845,-0.02096125570245546,-0.026322895221495942,-0.043619624693141124,0.025061250242062863,1.4659756267376387,-0.09060002763564272,0.90625
-0.10825512389599969,0.044023983274842846,-0.08084434470255732,0.22104172794925606,-0.01337236143414092,0.019279909386653152,-0.005100862257256347,-0.4516347861722517,-0.005598576994340137,-0.0063834185486792185,-0.012344024690797328,0.006763080803219681,0.41625588775353134,-0.025129929172506286,0.9140625
0.1592141349944595,-0.06310158589714196,0.12088995712956464,-0.3284007547530762,0.01602224279557889,-0.03191164013066783,0.005261470245014081,0.6657477509122175,0.00949477579546876,0.013223463478891839,0.018356261951006314,-0.01120853991182936,-0.61314317821555,0.03910767710068349,0.921875
0.3898938356199264,-0.1556350839276531,0.29476936327758846,-0.801568545381779,0.041360633123686236,-0.07600287769272854,0.014164237742684683,1.6295836774914476,0.022488619195438375,0.030122863627618682,0.04485131242971862,-0.026681684655510393,-1.500662487123821,0.09448690131398194,0.9296875
0.3250987038698214,-0.12974268756997143,0.24570923627327232,-0.6682425630944897,0.03421645211358434,-0.06356228594824881,0.01163065152554679,1.3587852484714358,0.018819665789556357,0.02536169842332489,0.037430343343053285,-0.02230928992403905,-1.2512909921976003,0.07890785103008364,0.9375
0.04575755168578799,-0.017732261138340772,0.03498800545726646,-0.0952389628806101,0.003509650506998345,-0.010131233462752309,0.0008313283602292764,0.19161745399920174,0.003080346328148135,0.004893546607728144,0.005366319532945934,-0.0035576573764849683,-0.17651033860726434,0.011838128293361332,0.9453125
-0.05908837245564718,0.02437708784465835,-0.04391766203912571,0.11966876988547949,-0.008001641434675522,0.009893653595337433,-0.0032023838354772725,-0.24647281078243735,-0.0028180732958187427,-0.0027821252361165715,-0.006688239228213791,0.0034625851150300252,0.22704333643449526,-0.013311907498474522,0.953125
0.19703981464219403,-0.07830330316753906,0.14937389355162095,-0.4054586491936589,0.020153385617120333,-0.03910411751537512,0.006699212526119976,0.8235667373232018,0.011604379165647044,0.015972994697852762,0.022691510209683713,-0.013734132033209162,-0.7582653644554048,0.048198281156688394,0.9609375
0.5763366912136386,-0.2304000073939263,0.4351413969684447,-1.1831074278505798,0.06180162495161179,-0.11161257535128984,0.021330112025924004,2.4078620841147336,0.032955043510342036,0.04372826078203256,0.06622889359786255,-0.039169043294999005,-2.2178804825980385,0.13925165405900414,0.96875
0.6214807804562494,-0.24849923337774274,0.468777853550441,-1.2758144847538884,0.0667161271650686,-0.12020352711056888,0.0230484640413407,2.5962741419141806,0.03549944757901366,0.04701520455947337,0.07142900516914909,-0.04217517109798959,-2.3920839239031375,0.15007593008685216,0.9765625
0.12355316874336046,-0.04895032672878697,0.09362555437181992,-0.2549293169875343,0.012051669373161095,-0.02500665907310956,0.0038223595331757947,0.5175830082928375,0.00747645434143627,0.010574926606327095,0.014297554307801481,-0.008772998514699152,-0.4764509783457232,0.030548775437228094,0.984375
-0.5142610406117645,0.20655896036116025,-0.38621855562470203,1.053032843890591,-0.05787418234384894,0.09685390231163821,-0.02077356592139503,-2.1440462349496983,-0.028425536430604408,-0.036076591301991236,-0.05890392039974596,0.03398445965126788,1.9777911834608162,-0.1225496635691421,0.9921875
-0.6544715095047848,0.2626843407413773,-0.4912272267189096,1.340500486320681,-0.0731782336786265,0.12356940471920487,-0.026151825062088914,-2.7285017604266217,-0.03631661739984442,-0.0463154044705405,-0.07501488249684994,0.04336249108330508,2.5172975931401407,-0.15621315366374866,1.0
-0.27062362338845714,0.1089630626723058,-0.20213932731262063,0.5530572365601013,-0.03106281607827651,0.050180063787360084,-0.01131668232203185,-1.126783520017418,-0.014701217869164805,-0.018223882214756033,-0.03098179327378615,0.017606371995109553,1.040141673367694,-0.064080425288156,1.0078125
0.052940731109770094,-0.020584666236048856,0.04116992342476201,-0.1104466036505579,0.004376096784505784,-0.01159634873065834,0.0011640866416543112,0.22264320866385134,0.0035160550846015833,0.005450298811643599,0.00615925385147239,-0.004089975022546243,-0.20482588412271346,0.013601255446285855,1.015625
0.02334461670584815,-0.008767736576609274,0.01860364242289147,-0.04906411120568943,0.001088009970871725,-0.0058534183295329695,-7.818357300816975e-06,0.09868967178178932,0.0018359785216723228,0.0032815004638065744,0.002786491603741345,-0.002086705908845292,-0.09050050507565084,0.0065120076762507076,1.0234375
-0.08848837876565867,0.035975646644550933,-0.06578509739333499,0.18093815315929815,-0.01119230429621201,0.015534620113183132,-0.004345449809250087,-0.3681561723343077,-0.004479509493842714,-0.004917131614796823,-0.010052825281871819,0.005431756217710829,0.34013748021697177,-0.020335777176213467,1.03125
-0.09873239021531068,0.04016026593199203,-0.07360638417137456,0.20176295315322143,-0.012327532818649223,0.017416014922739694,-0.004724169722639506,-0.4115076105375189,-0.005059824636890095,-0.005684948953461416,-0.011270841974098025,0.006112665974312084,0.37930798186529036,-0.022797211047792643,1.0390625
-0.11887462110808886,0.04834423377731816,-0.08861006989009274,0.24223271974014002,-0.014527926555094831,0.021177071542907617,-0.005461663064778546,-0.4958603200690053,-0.00617679826486149,-0.007150654252547196,-0.013609295665601937,0.00743477032425626,0.4563500643120017,-0.02762193225141082,1.046875
-0.1500600816069993,0.06078831846944324,-0.11163872777807769,0.30552917863378404,-0.01788660406514315,0.02712869286818973,-0.00664927651950409,-0.6247303840614127,-0.007910871867621773,-0.009396774655629426,-0.01716071690239191,0.009508280417701447,0.5763450259563241,-0.03511669489124181,1.0546875
-0.10975153666955137,0.044480345112149274,-0.08091916918212066,0.2228364904961208,-0.013389899728647084,0.01949875152608418,-0.0051170060857916805,-0.45456934074493294,-0.005634024095429327,-0.00641647308556218,-0.012479594700504979,0.0068147525075103405,0.421787474417729,-0.02547897778431316,1.0625
-0.07769805149131753,0.03155995216370937,-0.05689636326681669,0.15761977566042978,-0.0098707406963289,0.01345399153703777,-0.003915682454877152,-0.32052562528215944,-0.003846955934494208,-0.004072643509955844,-0.008762410785632897,0.004688941903112906,0.2990685721904564,-0.017805741798771136,1.0703125
-0.031249827946829654,0.012974141486033796,-0.022547559435999055,0.06308422830869145,-0.004864232999639529,0.0046137356116379,-0.002150204655159914,-0.12844567531014553,-0.0012661310270497717,-0.0007090794080973091,-0.003422335923890314,0.0016027468826592054,0.12061531452190916,-0.006637636104765909,1.078125
0.23614098780316226,-0.0941097485144145,0.17812826772827373,-0.4850182367314611,0.02437524555525905,-0.046502213967645645,0.008159449342242527,0.9859808447307352,0.013773996899987631,0.018814491569537746,0.027248371783552144,-0.016306305258160528,-0.9085517927492383,0.05757222592097368,1.0859375
0.5830894246221084,-0.2330408847348182,0.4393689214996041,-1.1972169930805778,0.062443075563794324,-0.11287523950019097,0.02157476798895182,2.4345833845241787,0.03334271076546507,0.04419462730009568,0.06703039605597635,-0.03958985720810286,-2.24435708638132,0.14087537053692153,1.09375
0.5826634873486689,-0.23276401400401034,0.4397037594038557,-1.1972357952921122,0.0624836657599215,-0.1128767594147442,0.02160653823878623,2.4344285591063275,0.03336690100275533,0.04419494797596066,0.06694929151798616,-0.039614514044695064,-2.2433684444462623,0.14080923267238515,1.1015625
0.339461307104474,-0.13527626983683294,0.25685206047999387,-0.6981905552088963,0.035821623874881844,-0.06639066173025769,0.012221787164949637,1.4192823948837001,0.019661459912220736,0.026403504796981492,0.039026434340216784,-0.02331648435676066,-1.3072178405118955,0.08244074428941915,1.109375
0.36602416919543124,-0.14596332152796682,0.2761185564340108,-0.7513134230367889,0.03861621369250573,-0.0713332380718669,0.01317283368286384,1.5277672099638044,0.02108334919400264,0.028281137843119218,0.0420675107319845,-0.025025611193012262,-1.4084263690176853,0.0887384291580595,1.1171875
0.542446331909202,-0.21668841308308262,0.4082878732921105,-1.112612041080708,0.05786836938719624,-0.10494505293869967,0.019926029509117142,2.2624156041352115,0.030977361559293246,0.04112998739527159,0.06229520739548648,-0.0367959943638399,-2.087122256024579,0.13098086779868992,1.125
0.2052456366224959,-0.08159575467080658,0.15512877283634918,-0.4223724019332768,0.020970344996461485,-0.0405929517618468,0.006971464663876532,0.8568149514356452,0.012049027323564736,0.016508042249219545,0.02359265436019731,-0.014239997014321357,-0.7908736115763266,0.05004769184238451,1.1328125
-0.6844620943007611,0.27477001315829813,-0.5131581010877241,1.4007209789463875,-0.07641167670802093,0.12923890659453346,-0.02724784317649482,-2.852627566870263,-0.03795305843442099,-0.048456316252223394,-0.07846729217449865,0.04530563453131527,2.6313233181067464,-0.16338622791605495,1.140625
-1.4014797945951343,0.5618287830410341,-1.0522853512530979,2.8713091653058935,-0.15495314665456292,0.2661940251335523,-0.054879787362139824,-5.843032481341255,-0.07829588675467103,-0.1008358145485567,-0.16068486368913756,0.09335174695616169,5.39040226836892,-0.33540304320260006,1.1484375
-1.4550409895678509,0.5831731176661529,-1.0933446366789572,2.982606688705348,-0.16090642063651275,0.2765404114036793,-0.05700946910682878,-6.067957785482845,-0.08135864290040401,-0.10479115193296229,-0.16681167542092307,0.09701352824782664,5.597608635565297,-0.3483025444090236,1.15625
-0.9549782392894061,0.3829910282227042,-0.7180071881224248,1.958088266048626,-0.10619402145734895,0.18109207102640634,-0.03777722797046451,-3.9839781423046476,-0.05325938565763322,-0.06829317104640902,-0.10947683962544576,0.06355089471886864,3.674388191360847,-0.2283627541997955,1.1640625
-0.18059374086843857,0.0730219318487669,-0.1354618399368783,0.3696458687552953,-0.02130894140035515,0.03308725194806857,-0.007892186426214347,-0.7537160683744345,-0.009673497693156846,-0.011678547294220546,-0.020666527347158733,0.011619019030749404,0.6950231666753534,-0.042495147092258684,1.171875
0.5771545671487023,-0.23047858084993214,0.4352837386263177,-1.1852747183305603,0.06184121423730346,-0.11179699348152822,0.021381296115583388,2.409516274224601,0.033006095577911766,0.04378378900852479,0.06630105307376627,-0.039233754469380724,-2.2206514171471503,0.13945392270853565,1.1796875
0.9936466333795286,-0.39747165711616794,0.7490885330225694,-2.0396238301720735,0.10755037443352197,-0.19137774297461688,0.0374483721394616,4.148900975103769,0.056458003391236494,0.07427875450551757,0.11414889680700888,-0.06716637737874775,-3.823242488109777,0.2394564013043234,1.1875
0.9794612886290442,-0.39184785111398523,0.7380613191904248,-2.009728359269906,0.10593946182968228,-0.18856225378454772,0.036853826668752705,4.088907330944008,0.05562997140700165,0.07320844643880511,0.11253482565633399,-0.0661721142213542,-3.7685622741590254,0.2360095068518716,1.1953125
0.7564271750498285,-0.30235779934675433,0.569594001946639,-1.5517365777560201,0.08139620273163785,-0.14588083936233368,0.028218067000031273,3.1562123098814405,0.04304971815034484,0.05683599459379979,0.0869017843111506,-0.0511847694012138,-2.9104225363301865,0.18243351057947133,1.203125
0.5028667575175073,-0.20067455729974745,0.37887967948251355,-1.032464279147125,0.05360186106874272,-0.09749306074495391,0.0184655392606174,2.0981717391079036,0.028801269829189707,0.03828774257931353,0.057776234081640995,-0.03420979681593373,-1.9354185657150504,0.12158468580613509,1.2109375
0.22207363211724565,-0.08831653382185072,0.1684802354668254,-0.4579158152389392,0.022928111980192036,-0.043937998271799256,0.007688503173025032,0.9290800091830074,0.013050091729007778,0.01781117408115083,0.02556751281918554,-0.015436507095261471,-0.8560344974371797,0.054203011507427304,1.21875
-0.045273342055798055,0.018576804759093492,-0.03212265063426839,0.09006835241020575,-0.006305848987741459,0.007142879563693911,-0.0026123418039311866,-0.18456379799594563,-0.001975336851310333,-0.0017010885180279924,-0.005091587611418752,0.002478608908772441,0.1721523796135374,-0.010002504875171162,1.2265625
-0.21689530323523765,0.08730041334128533,-0.16177692285687734,0.44287203023870125,-0.025179318887350175,0.040021926830431216,-0.009274295926983074,-0.9017450857869808,-0.011661829896503809,-0.014283033664004869,-0.024787034455059163,0.014030205343754992,0.833041353547187,-0.05124283153821599,1.234375
-0.31595193215498046,0.1271078336343394,-0.2372017634025023,0.6468704270335939,-0.03615171342346494,0.05901432580726143,-0.013137932645433188,-1.3173969522288245,-0.017276424313812076,-0.02158391935630449,-0.036166828400706265,0.020712386565574135,1.2150693878612306,-0.07501487404277112,1.2421875
-0.37128954638331624,0.1493485239211486,-0.27900874920801627,0.7607004153870779,-0.04224578455818334,0.06957039395563705,-0.015272771598070634,-1.5491092190731994,-0.020410219068661722,-0.025647647105882212,-0.0425340826062651,0.02441635550900076,1.4283646218678037,-0.08825866854786814,1.25
-0.32706303340095216,0.13159648006784708,-0.2451646278213737,0.6699520820830213,-0.03732384123018572,0.061045000738776,-0.013531907657666127,-1.3635972526688227,-0.01791565250718227,-0.0223823207901506,-0.037472447880493975,0.02141416595331428,1.258040957658854,-0.07761252778508652,1.2578125
-0.22297179775646286,0.08985631889034146,-0.16632552061088546,0.4559388242392205,-0.02583657807087545,0.04107838546687966,-0.009480232697568345,-0.9280110846195105,-0.012034964955514703,-0.014724959470596568,-0.025505899559729643,0.01440160927062998,0.8573556456859951,-0.05259328962081405,1.265625
-0.24457471849845241,0.09849174758255481,-0.18251728326681196,0.4994872223573655,-0.02819573931358349,0.04518221641061785,-0.010302919706509218,-1.0175096592382906,-0.01322888725629987,-0.016274867858091072,-0.027923762661148252,0.015836318752213974,0.9404743571687523,-0.05772530379064376,1.2734375
-0.4121535657251083,0.16559702839568868,-0.3088253529776141,0.843114443241994,-0.04660728185735764,0.07725448096216658,-0.01678664534667046,-1.7168299938974092,-0.02265904046265318,-0.02852996425414781,-0.04711619673359411,0.027082900118262535,1.5853063986137406,-0.09792412802039022,1.28125
-0.448149556983676,0.18004738654101943,-0.33621979366629806,0.9176188737418004,-0.05059597321990889,0.08419688662376852,-0.01820073060072841,-1.867902503878298,-0.024701804310061838,-0.031191876284327055,-0.05128098252314211,0.029525574257411244,1.7239284381385047,-0.10660985824240407,1.2890625
-0.16211143314042575,0.06560457252900578,-0.1212945530170178,0.33123307455614576,-0.019255738090687983,0.02953155662956038,-0.007169276396866833,-0.6756513962761498,-0.00861440108381235,-0.010309652218662252,-0.018522588285145476,0.010371251653633708,0.6236231158035012,-0.03802929277037331,1.296875
0.22091215242096887,-0.08771681393414658,0.1668857773415038,-0.4548311285123701,0.022748158235360996,-0.04371235984163547,0.0076252979495915535,0.9220647843437113,0.012950960756182602,0.01768988220794591,0.025395187062887906,-0.015312165634396899,-0.850143652751375,0.05386198799513907,1.3046875
0.3745109338478232,-0.1493322910355439,0.28287210979222854,-0.7700408693740041,0.039617088733567576,-0.07305213164700596,0.01356245617776182,1.5639388109481105,0.02161510246936098,0.028941282627641493,0.043014160483171686,-0.025630536146133146,-1.442060490151643,0.09072038334713957,1.3125
0.36695468952153715,-0.1465073018382377,0.2776184654868915,-0.7538848483597244,0.03879861435244679,-0.07151499965316631,0.013256051684573411,1.533745223783557,0.02120047157770054,0.028408679818614762,0.04214833282231996,-0.02513153593642038,-1.4142456101873186,0.08890969505293114,1.3203125
0.5020398947788014,-0.20070292829721786,0.3791067895569046,-1.0301980255781666,0.05357357851428292,-0.09725435064673374,0.01843312615851021,2.097296563436129,0.028783386472395235,0.03828006117089222,0.05767593115599139,-0.03416847012212586,-1.9339027678941996,0.12135178694178875,1.328125
0.6987910697979297,-0.2794372287903151,0.5265131543917774,-1.4334920689081825,0.0750982307103262,-0.13486297140961356,0.025995764139350078,2.9166775009234045,0.03980933612508696,0.052642185811263495,0.08030750826192334,-0.047330372203616924,-2.68898051795287,0.1686099607216374,1.3359375
0.48549762194403373,-0.19391540917006567,0.36574505881882496,-0.9962946842499136,0.05172862676251488,-0.09417624946164617,0.017777238822488103,2.0258360347011335,0.02777965801477904,0.03703898557976755,0.055865104492163455,-0.033028568370641005,-1.8665825324013117,0.11743710417937732,1.34375
-0.20862874664576797,0.08412971367016994,-0.15598337718638758,0.4264433002516177,-0.024280022849813662,0.03836736265739274,-0.008946040157694861,-0.8689721987018084,-0.01124561243987999,-0.01368606906637183,-0.02380067643849761,0.013465835839636306,0.8035510858124856,-0.049159132524174975,1.3515625
-0.7049732967837675,0.28293442959231513,-0.52867564291613,1.443183730630758,-0.0786159529143466,0.1331312348483512,-0.02804039521842334,-2.9377075056687483,-0.039113638089583506,-0.0499420330662632,-0.08077743837405504,0.04669082397228537,2.711331527242367,-0.16827019343534128,1.359375
-0.4035834190518074,0.1622327857170449,-0.3019116169842907,0.8247509844309453,-0.045608163939444314,0.07555907187398762,-0.01642701448989243,-1.6800580090760013,-0.022145164832096973,-0.027910420278671754,-0.04618874211865708,0.02648695365586349,1.5510881669557972,-0.09591738436392974,1.3671875
0.3143416138010505,-0.12531486731737573,0.23738209882656733,-0.646453380712685,0.03296851319452492,-0.06148394238084891,0.011191173021163183,1.31305667294054,0.01819911538284015,0.024530323514916106,0.036190746022017925,-0.02157592009995232,-1.2099930649370552,0.07634399714626434,1.375
0.490700136605158,-0.19594744476419473,0.36932451326158156,-1.007032129603285,0.052217002856237045,-0.09507777601273641,0.017945529263613987,2.0470031583673145,0.0280866593528814,0.037380355895246485,0.05638964157039486,-0.03334048317918409,-1.887780600545789,0.1185827359450614,1.3828125
-0.15477920058095698,0.0626347031375728,-0.11602526634253554,0.3161770558769167,-0.01848775981040757,0.02817346164095548,-0.006904968076550543,-0.6452322978689303,-0.008199442208893994,-0.009799129920648459,-0.017720561226124466,0.009900832904742257,0.5947154595738362,-0.036346226994094795,1.390625
-0.8636199583447107,0.34660227361570217,-0.648310407489853,1.7685703147247456,-0.0960637849021466,0.16344476071604822,-0.034155738256407525,-3.600308198241369,-0.04802592093998868,-0.06156388306435862,-0.09905987402102737,0.057328800007961964,3.320693954247044,-0.2063692267300754,1.3984375
-0.8620183897036535,0.3459240193674966,-0.6465878860819245,1.7653489635168194,-0.09583845110767265,0.1631276138166277,-0.03407488128074669,-3.5927367976348923,-0.047927598676439316,-0.061405684610963886,-0.09884049537385277,0.05718664248344849,3.3148601396239448,-0.20590660447265388,1.40625
-0.28293903091811523,0.11386041570683222,-0.2115252017540341,0.5793085800294844,-0.032439489087193796,0.05264974308770394,-0.011815199354354934,-1.178228152522344,-0.015394985680883733,-0.019092399642813625,-0.032359364623804475,0.018435893936722205,1.0884104601334446,-0.06697728225784544,1.4140625
0.2193870869161719,-0.08740866033163674,0.16550608206343384,-0.44988163101799883,0.02252535794607433,-0.0432224791065413,0.00748999327310714,0.9156184703408645,0.012818952767273175,0.01757668981173105,0.025290309386793036,-0.015161448542467709,-0.8434758885503831,0.053494991846747234,1.421875
0.3709676991913668,-0.14807828497541178,0.2795698508620073,-0.7615238491622941,0.03914819264579573,-0.07227669116225743,0.013357964328301802,1.548005379903734,0.021350074964387847,0.028645242964325655,0.04268176481883567,-0.02534058466618448,-1.4274130478966245,0.08988986709069381,1.4296875
0.3814845371250875,-0.15226191251290408,0.28830919507924035,-0.784449373742718,0.04039832451833282,-0.07442705818618504,0.01383066638050428,1.593729090050633,0.021984623536045394,0.029462027094658446,0.043896698742473164,-0.026117627507457965,-1.4689079949054302,0.0924916133231462,1.4375
0.41300676395308195,-0.16495727105148916,0.31239514760989384,-0.8491799178190431,0.043905561703609534,-0.08044574539935759,0.015057474294993416,1.7264759604436495,0.02378109970821491,0.03180393120576143,0.047522325134585555,-0.02824169281060865,-1.5901200599092273,0.10006005391584775,1.4453125
0.37692568959781353,-0.15051850222668728,0.2845893309341464,-0.7738855300273341,0.03987961017399767,-0.07343438464706763,0.013610780734214244,1.574579157313946,0.021720604972886155,0.029126070767668707,0.04335540204471144,-0.025759958830474945,-1.4504135760122276,0.09132539200144159,1.453125
0.1891648107908361,-0.0751368343615769,0.14259510646894374,-0.38788091795138513,0.01919485065669301,-0.03750332847826913,0.006334508136972706,0.78873734722168,0.01111541103529931,0.015325417726951921,0.021751370511424464,-0.013137386470662099,-0.727714527057275,0.04622956671011163,1.4609375
-0.02248280002738715,0.009809716391693344,-0.016346521040155697,0.045361260030926366,-0.0039975784222451025,0.0028688815508314514,-0.0017905869566013043,-0.09440361166327935,-0.0007786616214472342,-0.00014950742794176506,-0.002559285884634629,0.0010036267980618819,0.08576963800994059,-0.004517243779011677,1.46875
-0.02934925665196416,0.012467956530357198,-0.02052433051860724,0.05764601340400678,-0.004634771588634096,0.004095486007222187,-0.0019955842342767437,-0.12018582547225136,-0.0011018031806381847,-0.0005639641730129966,-0.0032940589505125184,0.001398320032264864,0.11125871254445215,-0.006117532817458525,1.4765625
0.15200256244944907,-0.06041788792593433,0.11635594571988127,-0.31505162764169564,0.015319153887102727,-0.030558156473197175,0.005008283910540875,0.6388094096617323,0.009138667384886933,0.012767570264252466,0.017592027015506235,-0.010764874849215303,-0.5864205562433743,0.037404622295711835,1.484375
0.13003336321765477,-0.05168748914876091,0.09926067045628562,-0.26901740310326056,0.012857555207192218,-0.026299278268160243,0.004119772192252788,0.5462683575132181,0.007871411193177023,0.011137642066037323,0.015089310054979113,-0.009248796192296306,-0.5010192429204345,0.03212382894616312,1.4921875
-0.34086772838093543,0.13707470791355322,-0.25580931796702955,0.698128588928246,-0.03885739859909556,0.06372772344868462,-0.014079617610171912,-1.4208394786766403,-0.018676916880119326,-0.023365170091966276,-0.038986752000533836,0.02235327006686359,1.3114450271786642,-0.08088661107247837,1.5
-0.8171167933648966,0.3279216459464285,-0.6142686158186585,1.6751593102676958,-0.09107877856788557,0.15473281877378586,-0.032449574151938866,-3.408603091175602,-0.04548608016661098,-0.058217848834263494,-0.09367912719646164,0.05428379703932143,3.143805118085566,-0.19521757774995438,1.5078125
-0.6741617223775704,0.2705782776854513,-0.5062836884461904,1.3812650592478264,-0.07534475486938583,0.12738498721093505,-0.02691499475772086,-2.8110413562001493,-0.037417989144664994,-0.04774443938854196,-0.07729084420898234,0.04469086361879912,2.5934231746538208,-0.16097856630235477,1.515625
-0.05849296577550508,0.023904819410681757,-0.04267386762493865,0.11794137414122106,-0.007803345569203269,0.009692260872034748,-0.0031494825062394764,-0.24142311688020385,-0.002758353084036397,-0.002705659708125212,-0.006633456483598209,0.0034029288711455714,0.22433375126305452,-0.013230815890148281,1.5234375
0.3215174682853118,-0.12823797261075467,0.24326479912736465,-0.6614118285357379,0.03384324828682384,-0.06294828887207896,0.011513025347601936,1.3438445510794121,0.018619673810581695,0.025081975753839705,0.03700161634259233,-0.02209071066488982,-1.2379115721195695,0.07806307011777676,1.53125
0.26580592227327265,-0.10583680157039047,0.20110243412478812,-0.5466555137467903,0.027688881892520723,-0.05227114829677694,0.009350389307682649,1.1108294111773593,0.015473960778459556,0.020999738954528224,0.030632688299059622,-0.01835822745036353,-1.0235705139637064,0.0647830550710275,1.5390625
0.22858915005780006,-0.09094303149606571,0.17278079751719586,-0.46976587005772763,0.023571484704216526,-0.04510701421852474,0.00788729326703102,0.9551580715490201,0.013367667544520387,0.018256050980680515,0.026345078914263263,-0.015833188518679743,-0.8801507429155965,0.05582621040110904,1.546875
0.4469772171326773,-0.17844819011785235,0.3368740842186192,-0.9174053396671246,0.04750496961281611,-0.08683597439012318,0.016293976416976205,1.8658574766166467,0.025641742099302662,0.034190978939525864,0.051355068313668546,-0.030437592629131666,-1.7199967528045286,0.10814226577373069,1.5546875
0.5974538856048092,-0.23866927622257525,0.45017077249708987,-1.2263002663209666,0.06401606703479334,-0.11562337432239317,0.022114415083853287,2.4932492772011186,0.03411083545552964,0.045189515474205785,0.06859222277637722,-0.04052917622187384,-2.2988593011667264,0.14421094533949594,1.5625
0.32677495533086337,-0.13019774727473213,0.246926654862373,-0.6718425453433202,0.03436186134854,-0.06388944617400828,0.011710504179434636,1.3641996531772438,0.018912150674075198,0.02544775096372484,0.037548965690429294,-0.022426617360106108,-1.2580970462945857,0.07927186645146435,1.5703125
-0.29651159394600973,0.11938640273303561,-0.2216422108785688,0.6059687166597753,-0.033954728301015556,0.05526607047547109,-0.012312982638769893,-1.2353267409282258,-0.01612811393115773,-0.020070897071260838,-0.03393502495343458,0.019327372333658166,1.139022324011232,-0.070301087038224,1.578125
-0.8117879388473023,0.32564821207955263,-0.6094257509916581,1.6630645835351003,-0.09044463763231418,0.15374619284926183,-0.03220773820759331,-3.3847627208874984,-0.04513678944009266,-0.05775126731323952,-0.09303803666495768,0.05388868908900519,3.121582428857139,-0.19398034022344682,1.5859375
-0.71685920358434,0.2876001155419888,-0.5384829440976386,1.4693796385234341,-0.0800536677365338,0.13556832736963786,-0.028576844164060915,-2.989519507630206,-0.03984345853459233,-0.050856777754169344,-0.08214496529218822,0.04756046381629347,2.7577974690868774,-0.1711798684410148,1.59375
-0.019326224180151237,0.008294412720633356,-0.01386291264059795,0.039430874685548525,-0.003588431246704971,0.0022292984509208777,-0.0016718967115638115,-0.07990800742807802,-0.0006096468136344574,0.0001314511335528719,-0.0021226345428914436,0.0007976420789949796,0.07535935546110739,-0.0037023010508065455,1.6015625
0.5725439851454643,-0.22872862115870737,0.4319438801991683,-1.1751841796836178,0.06134089641430097,-0.11092312172512983,0.021196069847375782,2.39078121783866,0.032740622943570837,0.04344896634727313,0.06578046462060985,-0.03892596204576287,-2.202391212354919,0.13841303686390224,1.609375
0.3997200636224468,-0.15957350475449084,0.3026107038143291,-0.8223429848382062,0.04246259885008284,-0.077958158571964,0.014567949736261963,1.672034256994153,0.023069257539393567,0.030853415625121675,0.0459742069761368,-0.027381723699785088,-1.5392541876770884,0.09694743419518645,1.6171875
-0.2555097481065476,0.10278346965735233,-0.19031731062035206,0.5207609839760408,-0.029361998096396183,0.04725468723381937,-0.01071602941935835,-1.061287487048273,-0.013810044148294525,-0.017067060460385194,-0.02915719291108566,0.01655453140583315,0.9809057056861521,-0.06035259537433789,1.625
-0.5191582940936729,0.20838165601206846,-0.3894451952251408,1.0625096977418815,-0.05835178994029989,0.09775718125145082,-0.020945301092011936,-2.163609304290023,-0.028710035176861798,-0.03639756420704716,-0.05938712517263003,0.03428972443712795,1.9963357433474012,-0.12371159457577692,1.6328125
-0.12140266330622276,0.04914742827269533,-0.09101863128000919,0.24821019411497675,-0.014836644216124977,0.02188096089939164,-0.005653653420795896,-0.5065683355367065,-0.00636926596811304,-0.007358979316360565,-0.013794498200946345,0.00768223896743946,0.46739990666380893,-0.028337292848917808,1.640625
0.3361362995744497,-0.13401386940466328,0.25315847728358576,-0.6900639866955804,0.035332946296542767,-0.06556464317546304,0.0120088218972712,1.4024212053110263,0.019406464038155238,0.026095182755936207,0.03863094973176042,-0.022990949979669318,-1.2929444236389667,0.08144268010149466,1.6484375
0.36725902801340765,-0.14642739009572464,0.2772406426272197,-0.7549832783254085,0.03882981880270472,-0.07164295031032353,0.013267243158995433,1.5342025215040318,0.02121452073784917,0.02840385675250093,0.04217601840930883,-0.025130826025151324,-1.4139007876115761,0.0889721162980772,1.65625
0.232481949609231,-0.09246706104723039,0.17631342722463786,-0.4789950971454658,0.02408940762169476,-0.04594975815966435,0.008090376746113221,0.9728824540442182,0.01363838769688235,0.018566363716064117,0.026742534122242964,-0.01613163329920139,-0.8961366369363517,0.0567085580619588,1.6640625
0.29878546158061137,-0.11908352341629598,0.22582096844827262,-0.6139544754325077,0.031288176066388645,-0.05852980691448134,0.010600876339770741,1.2482458818667914,0.017320574899879725,0.02338516687395684,0.034378036959710034,-0.020542788621901523,-1.1506284076894007,0.07262291780071894,1.671875
0.3342901690402991,-0.1333228154391108,0.2518417751148071,-0.6857473809813757,0.03509547554043754,-0.06521180525168323,0.011922486282496939,1.3944956570833005,0.019280046215867572,0.02594264835098445,0.03843593949781879,-0.02286585646524964,-1.2861512937883801,0.08106909154047798,1.6796875
-0.023490109839239794,0.010025607591011405,-0.01725535301388243,0.047516785087759236,-0.0041074464802244,0.0031090178969526657,-0.0018472764796991815,-0.09823773971050598,-0.0008299514290618866,-0.00020060092051756598,-0.0026443446090659243,0.0011063225685320269,0.0904310127172018,-0.004822510085289298,1.6875
-0.5035443044505026,0.20233924679088333,-0.3774666773860031,1.0306672429597545,-0.05661554594944798,0.09468978735092894,-0.020279427768140963,-2.098971690697755,-0.027786810695085918,-0.035227836504282246,-0.057718034644597134,0.03320249970542941,1.936430043974404,-0.11994419123994211,1.6953125
-0.5878021662954087,0.23604818474482925,-0.44016655117563513,1.2030516789038281,-0.06576613649252756,0.11073082363754946,-0.023493132497883196,-2.4486762025738558,-0.0325035015889862,-0.04133602264864002,-0.06734921017884514,0.038799874469814026,2.260099025512083,-0.1400784171504575,1.703125
-0.3545875275544765,0.14256982708738516,-0.2651658346612386,0.7257476998528692,-0.04024741979796136,0.06628089504149254,-0.014553012118377524,-1.4764464748806072,-0.01941356314232552,-0.024312705111799043,-0.04057280721620903,0.023219579265755536,1.363550387735534,-0.08416120649517217,1.7109375
-0.21706474507325962,0.08748188493507143,-0.16268933509957823,0.4446651775404851,-0.025295403553470708,0.04013775038982995,-0.009322347696742098,-0.9051490739819231,-0.011728224565439415,-0.014329807208766634,-0.02480658749621795,0.01408434208150721,0.8353309589924834,-0.05127499667838824,1.71875
-0.1414864193251679,0.05725702623212796,-0.10601524147722659,0.2893056895273814,-0.01705415073069733,0.02566693382915646,-0.00640657184844055,-0.5906135942462604,-0.007487814016451,-0.008825696587079868,-0.016138240139628005,0.009011833351285097,0.5443031337333818,-0.033120657218749454,1.7265625
0.10845458419040842,-0.04285674713692442,0.08289943187595779,-0.22450829149615303,0.010441345638892048,-0.022253609058525105,0.003301941234666914,0.4544962551394742,0.0066206317749018286,0.009506240643737347,0.012565406894816226,-0.007833266381548243,-0.41843568880710064,0.027018948963478583,1.734375
0.3440353997887983,-0.13730609530679122,0.26087541407827036,-0.708206083432212,0.036375877031689166,-0.06735197269995846,0.012427772397143898,1.4399932724983264,0.019921541498956065,0.02678581995888735,0.039614333061281364,-0.023673060518449977,-1.3254540654814646,0.0836293357592009,1.7421875
0.34830234541263266,-0.139105976307377,0.26363546736069976,-0.7161363864027904,0.03681128206068186,-0.06806065016971632,0.012542512539829034,1.4573064451479432,0.020144627478149133,0.027068908108109222,0.040091014999988114,-0.023893520401786265,-1.3413299771468497,0.08453811776170794,1.75
0.367387230841472,-0.1467452423707819,0.27689770428078636,-0.7541367287105555,0.038764439549986006,-0.07153958379574296,0.013197133925343371,1.5341342220264313,0.021163058566051978,0.028391495921542578,0.042269658339770796,-0.025077448023631238,-1.4135951207348578,0.08898807496572081,1.7578125
0.44725762651717615,-0.17863512017579483,0.33664864129546085,-0.9180800972594095,0.0474615748234495,-0.08677048526190904,0.016268947343436948,1.8660146137537303,0.025646445047192677,0.0342173955220348,0.05144801215991355,-0.030424502942228236,-1.720242849786736,0.10816962389790176,1.765625
0.10687933008571228,-0.042180219848125075,0.0812904863452331,-0.2213769403977139,0.01024339319751377,-0.021856521747980282,0.003215722537034939,0.4471932559496515,0.006544311007797939,0.009382683555833299,0.012392367527771385,-0.007681349899888314,-0.4111503063784139,0.02654725654326893,1.7734375
-0.5360593436702632,0.21539325518365335,-0.401781525035412,1.0964846612346313,-0.0601329923287598,0.10088289067082455,-0.021523167307869934,-2.2338955447982727,-0.02959744908388906,-0.03760036651848312,-0.06142265342150313,0.035371481860049236,2.0614296536950407,-0.1277707246312274,1.78125
-0.49965656236706935,0.20076313272334517,-0.37467628495519345,1.0228592593949473,-0.056166092600473026,0.09395705817666081,-0.02014938462276455,-2.082428175480233,-0.027576544316283085,-0.034977830173306926,-0.05728396821694192,0.03296403902009366,1.9208516997016716,-0.11908235083140155,1.7890625
0.3079865892166112,-0.12280974537768818,0.23235395499405984,-0.6320596066189598,0.0322848448434153,-0.06025671494959394,0.01093267833486777,1.286317365925031,0.017825145791902915,0.024034001773319696,0.03540023438564238,-0.021124965920898443,-1.1860951717118755,0.07476329803187863,1.796875
0.5626499251459021,-0.2248126621170497,0.4239373693559985,-1.1542140604788462,0.06018953866358087,-0.10887261091241698,0.020740164408829562,2.3487965111706877,0.03214863565240533,0.04265941254266582,0.06464470967886105,-0.0381913052885368,-2.165325474276843,0.13590429800634904,1.8046875
-0.23683731815376968,0.09550154698140137,-0.1771555980257879,0.48458852366004185,-0.027405236689522404,0.043843967168342664,-0.010053100987708346,-0.9868232362808557,-0.012821772026655649,-0.015778392006265976,-0.027114221234528828,0.015376538088056934,0.9107490577869091,-0.056013454399349794,1.8125
-0.7673752367786861,0.30807318276248075,-0.5761555357492579,1.5722293451783302,-0.0855549898012553,0.14516518204215673,-0.030479925764480675,-3.2009332299389546,-0.04266517063424313,-0.05456266075875672,-0.08802727521265087,0.05092382162852555,2.9518298931063933,-0.18337256319875284,1.8203125
-0.24036664719871143,0.0969589474107459,-0.1797162235368981,0.4914186487878152,-0.027806369461137077,0.044458342940060035,-0.010150160861561284,-1.0019968122019853,-0.012996643371216726,-0.016003574094159895,-0.027533693245356382,0.015581976274751046,0.9241570647217067,-0.05681772903427409,1.828125
0.23130084533666448,-0.09206376144149078,0.17527272376372846,-0.4761758282153147,0.02390813970514144,-0.045656561431041784,0.008035239926478926,0.967369237509796,0.013564404171762967,0.018529177614481144,0.026663057429008492,-0.016056404858296694,-0.8906227529249942,0.05648823199261938,1.8359375
-0.12689250174512803,0.051299310309832306,-0.09413681774772702,0.25837873428625757,-0.015348006693070395,0.022798248199283583,-0.005792534477488065,-0.5264161986539637,-0.006601427307213475,-0.00765525556613125,-0.014390179530236165,0.007958630122065014,0.48751007218935305,-0.029459922226572535,1.84375
-0.30259271102648333,0.12163475582800261,-0.22669729763318144,0.6196023075411398,-0.03466200731507955,0.056393291677991134,-0.01259549178607427,-1.261072752083886,-0.016534714119719223,-0.020556614204845045,-0.034573768544866476,0.019775509505479627,1.163932389952977,-0.07167389709083063,1.8515625
0.3730073964045363,-0.14889558998388838,0.28124776366024706,-0.7652865629188956,0.03935396072478737,-0.07270738538999968,0.013454535632956788,1.5561605246143995,0.021463050996330096,0.028800301459682015,0.042898144240080864,-0.02549632482809046,-1.4349820356720913,0.0904639748099535,1.859375
0.7924547245530559,-0.3167854906171056,0.597286148548884,-1.6266639015669857,0.08541700518193665,-0.15294289179577306,0.0296773776640026,3.307770227676903,0.045117153677640305,0.05950291256838353,0.0910151911107314,-0.053664297239726835,-3.0493746149071543,0.19117064454154714,1.8671875
0.15296633305935553,-0.060640318563850645,0.11707026058690179,-0.3171649273136934,0.015458586127818148,-0.030845300035635053,0.005064340556339358,0.642964036575985,0.009193196132013455,0.012803343558249832,0.0176719320445036,-0.0108572737204388,-0.5903656563686887,0.03769700593030656,1.875
-0.513794043073858,0.2063087783290558,-0.38451730773476556,1.0500893808164118,-0.05762514703661249,0.09660332534685155,-0.0206756040621157,-2.1383913266462926,-0.02834304392111329,-0.035957037191439015,-0.0588022961619975,0.033861034037119216,1.9745607406504233,-0.12239382324300292,1.8828125
-0.2120815358942063,0.08540520249336198,-0.15866854034836322,0.4334419442262563,-0.024709014580029817,0.03913689656985566,-0.009128933457074148,-0.882960863087159,-0.01144491645118716,-0.013970894884047187,-0.02420200101082616,0.013735689031791546,0.8153085693971959,-0.05008367966230227,1.890625
0.38515936818106083,-0.15372007472363333,0.28959680959075185,-0.7895222796290782,0.0406349658686394,-0.0748514482388742,0.013851461011730811,1.605626364451969,0.02211879093347961,0.029646786968583343,0.04426296316622084,-0.02622872500571716,-1.4806477518851628,0.09318283290080204,1.8984375
0.3548726453057052,-0.14150043833675546,0.2670515585183761,-0.7277719970629714,0.03736352052273838,-0.06912453339169791,0.012722560591396887,1.4799346003777896,0.02045441354937866,0.027458271748690834,0.04074265801847677,-0.02422648325892264,-1.36434371765082,0.08592291703855691,1.90625
0.020029981995606592,-0.007451428055233934,0.016268119841850625,-0.04270224213335061,0.0007861113815385074,-0.0052933640485365255,-0.0001190136380784881,0.08613888437209129,0.0016782460179050084,0.003036657911297914,0.0023476436264727196,-0.0018608501462636544,-0.07829144902456274,0.005649325771966819,1.9140625
-0.0193359281137921,0.008182188114488747,-0.012746313270176063,0.03735862213411198,-0.0034920749353140857,0.0021848384302696217,-0.001619851529662983,-0.07650532030035898,-0.0005239108397602385,0.00018418557085269155,-0.002101766609706354,0.0007407784682643908,0.0716874713082453,-0.0037121669760183788,1.921875
-0.05734297068678245,0.023403542742909227,-0.041835096597973805,0.1161414186320086,-0.007732538997078913,0.009531705090150704,-0.003125435887665321,-0.23676773060200082,-0.00270788056973551,-0.002620125733609368,-0.006433048850204558,0.0033191893329846353,0.21896480198618937,-0.012834269713963146,1.9296875
-0.4909427073735126,0.19723909227485,-0.3687860377831298,1.0062451014097953,-0.055333857219482564,0.09243527354769047,-0.01987146784111236,-2.048437685089113,-0.02714869557443402,-0.03435784112352515,-0.056224669174618144,0.03241911569007104,1.889178794606218,-0.11695337586065355,1.9375
-0.8293435309158609,0.33294693811316334,-0.6233461702973122,1.6998529202982826,-0.09241000013844801,0.15701716635096785,-0.032886430949308175,-3.4607487239529924,-0.046176979531546314,-0.059097647386638016,-0.09510898812887741,0.055081741120901244,3.1914746739491027,-0.19817324744608772,1.9453125
-0.4512238757253228,0.1814972935884047,-0.3381549597948971,0.9232642641245794,-0.05087774897695335,0.08465518664866001,-0.018250781742095087,-1.8810360689855852,-0.02484461992867955,-0.03140914862832517,-0.05172931373943194,0.029683231727025743,1.7353781889961246,-0.10736074282359669,1.953125
0.2832964274279344,-0.11286566968296673,0.21490321010577743,-0.5835358100417612,0.029692808350614615,-0.055692535869722275,0.010077380482290139,1.1857138537529117,0.016520806237821546,0.02232865227226144,0.03259149728698015,-0.019563132040741574,-1.0915090378095533,0.068953545074684,1.9609375
0.557515006259968,-0.22284043000745665,0.4207670711883462,-1.1451883181303537,0.05970512849712783,-0.10797301260417046,0.020593907369408634,2.329427728127662,0.0319226662851464,0.04235428758502134,0.06408955333479381,-0.037889707413072335,-2.146038480683919,0.13470291059513767,1.96875
0.3334902879544594,-0.13306422536757692,0.251357741246509,-0.684842797087985,0.03503735851644131,-0.06507201658266445,0.011900215569541685,1.3921485183717004,0.019258741135511535,0.0259129639880996,0.03837945059849205,-0.022815475038203584,-1.2832291685100061,0.08086710838307719,1.9765625
0.20011730011363302,-0.07948153211694607,0.15080595988890366,-0.41125765806969117,0.02037625914907348,-0.039621266610276845,0.006768270170000422,0.8341789346743548,0.011734561524668936,0.016137840788875323,0.02305334367934531,-0.01388814028599134,-0.7699234943549349,0.04889258476851531,1.984375
0.2842372041717263,-0.11313425946896337,0.2149107503922791,-0.5844752501073507,0.029695072643874377,-0.05582101888998247,0.010074367708586818,1.186927456925402,0.016504067430370646,0.022336092159622397,0.032700791961052855,-0.019600216317364198,-1.094175943171517,0.06919168969478963,1.9921875
0.2579723430718851,-0.10277640247886273,0.1960036977360433,-0.5310425723240155,0.02693303650083541,-0.05086983149754945,0.009094023009444115,1.080147212486035,0.015059651244718086,0.020469710217733066,0.029704470699889955,-0.01788187638459905,-0.9937427852206322,0.06293007440198109,2.0
0.18922025946379648,-0.07541010867049201,0.14401380300243943,-0.38949153859222546,0.019369094437134603,-0.03763793347727046,0.006395920064836484,0.7932724111191751,0.011169726431128917,0.015426284081460797,0.021832078139967036,-0.013223844512431474,-0.7290103194536103,0.04634152109609687,2.0078125
0.31504242817707373,-0.1257927353731632,0.2376861455040015,-0.6466985930495941,0.03303221455580972,-0.061524131830004956,0.011177043682981383,1.3157030488086556,0.018204058755286932,0.02456459418032791,0.03627127513254753,-0.021579339640675405,-1.2121820844819324,0.07643224115727001,2.015625
0.19939223742270054,-0.07932403528241934,0.15044462878326856,-0.40985546176393733,0.020324301756187692,-0.03942248785105672,0.006721759091557048,0.8321997236092303,0.011698670968930493,0.016096011804041657,0.022995471028405042,-0.013830418999675503,-0.7669821475912141,0.048676642026581354,2.0234375
-0.6357759022938518,0.2552928384011124,-0.47702610150743047,1.3013966461491207,-0.07110763443755606,0.11998719531773379,-0.025399346099190395,-2.6503874677734007,-0.0352379865860243,-0.04491073326516793,-0.0728437735857864,0.04206848877577944,2.445090488677327,-0.15169414120780106,2.03125
-1.457842945692306,0.5845515603593272,-1.0948544238473155,2.9864700636037416,-0.16112970607521385,0.2769457525871624,-0.05704124151907597,-6.07860211002426,-0.08145285631410523,-0.10496881362639073,-0.16718615832702965,0.09712587085744828,5.606769124151626,-0.34897371297004903,2.0390625
-1.1065833325406882,0.44378863986672634,-0.8310450231896128,2.2671799761614286,-0.12267910566691066,0.20991472690230514,-0.04353472675257227,-4.613931107017618,-0.06170814146842041,-0.07930464953493423,-0.12689099593402817,0.07363083335971007,4.255776927053417,-0.26471594221902806,2.046875
0.12632248462665044,-0.05011642000456132,0.09568417793680145,-0.2595773841654639,0.012362785619778069,-0.025503186275368767,0.003930384381728189,0.528471406629095,0.007621894092529832,0.010794300046690014,0.014589130242610987,-0.008937780414172121,-0.4864188070869437,0.031165907266354903,2.0546875
0.8244512465149542,-0.32977908895035735,0.6206251503498769,-1.6908193196034047,0.08884394195479678,-0.1588488804258354,0.030825591390098453,3.4406883049223755,0.04689076997154664,0.061820804918023865,0.09470731597930174,-0.05571485995257446,-3.1718960081101306,0.19874096907450728,2.0625
0.544137272452956,-0.21742731064045,0.4098526775458691,-1.1165739339414198,0.05811465490095494,-0.10534002701888891,0.02004582613539248,2.270663702240241,0.031127605277571257,0.04132814081678255,0.06251969815392146,-0.03694641424199664,-2.09357585983382,0.1314601296974452,2.0703125
0.2133138838001662,-0.0847683956622921,0.161105162150906,-0.43874466158104636,0.021862618971348415,-0.04218790073020165,0.007320257815576333,0.8896610657830174,0.012515496882285697,0.017136563993128462,0.024522877419788976,-0.014793684092110236,-0.8207002166788263,0.05203747934442916,2.078125
0.4165685736099762,-0.16611537214370709,0.31436601002493264,-0.8560164505307052,0.04420213172310408,-0.08107920317001965,0.015170249501424257,1.7386124256090696,0.023953410252659124,0.032001719675245406,0.04785766587688464,-0.02844683558479176,-1.6028316526902895,0.10085459000455935,2.0859375
0.5767038668724543,-0.23035354180016457,0.4353604073887993,-1.1848034453194747,0.06183754712746479,-0.11172002191263597,0.02134576398908677,2.4091928143020587,0.03297375336487886,0.04373167431420929,0.06629064478320286,-0.039212062861631286,-2.219738742610006,0.1393656729823266,2.09375
0.15332856058549804,-0.06088652631086308,0.11687047916000695,-0.3162596200617181,0.015423953522946612,-0.030793083652111204,0.005003863797061668,0.6433372679040754,0.009145184954459745,0.012780938522215655,0.01773374348100175,-0.010825198454229589,-0.5911357406841089,0.03776490661320302,2.1015625
-0.37569306837497973,0.1510384145016829,-0.2817572017807099,0.7696817995802271,-0.04266603097082189,0.07038073765853589,-0.015422168480404915,-1.566352624236832,-0.020652201372914923,-0.025929356540248975,-0.04301435865278707,0.024682399488094673,1.4452482599554075,-0.08927418505334962,2.109375
-0.31513270296111595,0.12688465083189798,-0.2365310221817735,0.6457522823347608,-0.03607462539171007,0.05882748437548176,-0.013082063561702906,-1.3153624232490337,-0.01724885967990006,-0.021516200494394056,-0.03610977782726006,0.020636650856116854,1.2128976741699207,-0.07477934768690364,2.1171875
0.0901090644084786,-0.03542145912192259,0.06901655379349349,-0.18675883639386653,0.00844532382895592,-0.018716646592631097,0.002599460759994752,0.37758942525066946,0.005607786345796219,0.008160676262577068,0.010411015877726826,-0.0065866057503292655,-0.3475560146808222,0.02253416408367531,2.125
0.04690930824407199,-0.018208627647582118,0.03741248181554867,-0.09969245848151954,0.003835198541041939,-0.010569566822838002,0.0009819827852423637,0.200586161562513,0.0032291500757886276,0.00506378732300141,0.005507310594817031,-0.0037534918088943325,-0.18303091310940073,0.012229503209812427,2.1328125
-0.47740464593711307,0.19172711105835513,-0.3572033470673513,0.9761518948134275,-0.05365805120878929,0.08966467800127384,-0.019264183940363548,-1.987260322166479,-0.026300392909895647,-0.03328244977743516,-0.05464013512553123,0.031417673943095185,1.834633690593794,-0.11363301399495747,2.140625
-0.7053944500810622,0.2830335812034209,-0.5298412310770098,1.4458272325603445,-0.07879825167314665,0.13338814448214406,-0.02813839243993548,-2.9418307507241286,-0.03920594189329265,-0.05003155273916628,-0.08083187307184321,0.04679375844303783,2.713505343273479,-0.16844008665944166,2.1484375
-0.31736278159562753,0.12761877681804368,-0.23859267048802646,0.6510082013847825,-0.03635994107918465,0.05932194180897424,-0.013214861269535506,-1.3247634154827412,-0.01739759838687261,-0.021709811283713652,-0.0363362949616698,0.020832910378393375,1.2209210002321205,-0.07535644930419304,2.15625
0.14781698039129185,-0.05869946980882221,0.11186443737203951,-0.30417091692597126,0.014690759969572953,-0.029648727861287527,0.004770116553303296,0.617662589303851,0.008830830370560839,0.012344170774788261,0.0170484811069901,-0.01039485189412232,-0.569922974125351,0.036337163623945117,2.1640625
0.297474539607503,-0.11865427988403336,0.22525162341576416,-0.6124951361423949,0.031209813591305004,-0.058355898848251785,0.01060187563481783,1.2445166553139948,0.017307263043656547,0.023363900865066317,0.034256964176999576,-0.020491177031489564,-1.1459798870694977,0.07233481107272627,2.171875
0.37161324506758603,-0.1483949060206403,0.2810030574499252,-0.7642507003845678,0.03935014131624757,-0.07249317892141274,0.013447541454990044,1.5540560170763087,0.021467786429429248,0.02880187485078906,0.04279253830767919,-0.025450206226174173,-1.4299435593297325,0.09013866334949991,2.1796875
0.5258771409539259,-0.21020447558543587,0.39631289243479273,-1.0791902180634638,0.05616643569784063,-0.10183743886317087,0.019326856802991597,2.1957108607845273,0.0300909794386699,0.04002279225095064,0.06048208531596129,-0.03572211892017054,-2.0222037811310485,0.1270919438203286,2.1875
0.4777711645358592,-0.19082936526775826,0.35962661697722903,-0.9798473050562105,0.050820655973804786,-0.09259460766420934,0.01744026974037239,1.993076720070733,0.027348202195530254,0.03644363445457147,0.054912084734033396,-0.03246444862136226,-1.8369823364545816,0.11548312941842624,2.1953125
0.08681737868515163,-0.03405195662569358,0.06581616725519772,-0.1788958373494975,0.00800074939116396,-0.01799702567596563,0.0024128505425082022,0.3618571651483208,0.005370051538598892,0.007858601747807649,0.010003794152664013,-0.006302145433238744,-0.3335893106614857,0.021665399513816214,2.203125
-0.34977066763162756,0.14087599297726722,-0.26183500867679416,0.7150586605349849,-0.03975614308637395,0.06529029258218925,-0.014350602503731253,-1.4578277428167465,-0.019142359342371497,-0.02401146315248297,-0.04009815798248581,0.02289319351985236,1.3448458803659897,-0.08306344365694131,2.2109375
-0.5090542808386367,0.20454240896117987,-0.38114649989986715,1.0412190712624059,-0.05715646106193773,0.09571123312675403,-0.020474821251047187,-2.120499067844801,-0.028074794193581318,-0.03562103646515878,-0.05834372708848447,0.0335461554375198,1.9565533260944816,-0.12127041349282139,2.21875
-0.3813768091883982,0.1532900748339596,-0.285431124516342,0.7803955150632724,-0.04320657135625331,0.0714158487106446,-0.015599140377790154,-1.588325260084904,-0.020921699307265302,-0.026312889075271198,-0.04367170731502825,0.0250270371030238,1.4655706469619219,-0.09064988556592782,2.2265625
-0.20495016786800418,0.08270303595678434,-0.1535847614123732,0.4200126629686983,-0.0239731314634631,0.03778282963639597,-0.00884735384324308,-0.8549211285317395,-0.011054343765771633,-0.013475802682363376,-0.023443349632181587,0.013252650792151361,0.788140581729554,-0.048323272105449025,2.234375
-0.15993633356259446,0.06479706959390763,-0.11998935008810294,0.3276893187090106,-0.01907105512212337,0.02913047276149402,-0.0071007718359449735,-0.6682264986311869,-0.008532200700936972,-0.010198816311351633,-0.01829725181714662,0.010229296223106185,0.6152815682431416,-0.037487307421996706,2.2421875
-0.07420498713258644,0.030388526768205654,-0.054604522425112,0.1502333575112777,-0.009567202071514635,0.012626312832568133,-0.0037328215581349743,-0.30776702425184393,-0.0036478086564593016,-0.003861218496100541,-0.008430106792338013,0.004416224567601528,0.283960903160655,-0.016847782611786138,2.25
0.31696090136110533,-0.12650192774088095,0.2405825962366033,-0.6531615130314853,0.03342657297405023,-0.06214304150142882,0.011380271144864033,1.3276242626520298,0.018418318807454728,0.024815544216798505,0.03651919688728893,-0.02184267400049273,-1.22208513178341,0.07705607647727307,2.2578125
0.7545952979048292,-0.30188209356619244,0.5693957318353643,-1.54986966450709,0.08135285224675036,-0.1456359854200109,0.02820393518950268,3.152833757670866,0.04302049822144745,0.05679922629218092,0.08676140425750833,-0.051122901371197016,-2.904734829887942,0.18202705617349085,2.265625
0.6858727149360684,-0.27424391169388235,0.5165064146008151,-1.4074157788351918,0.07366574053806087,-0.1323754163163825,0.02548322925620328,2.8624475428656817,0.03908486249050412,0.051690623295990494,0.07883539364643391,-0.04643352439317697,-2.6385580696523787,0.16544994251035058,2.2734375
0.16186475641581094,-0.06424045885135966,0.12206010838498925,-0.33267665797352347,0.01618210910138606,-0.032288947106924,0.005280279574443137,0.6748314103915098,0.009576571421059053,0.013341000811720799,0.018664085333771775,-0.011310967844278501,-0.6223341372304466,0.039689249680796714,2.28125
-0.24514769615103307,0.098760935908793,-0.18317830610214678,0.500828940719754,-0.02831277517394626,0.045330584935512744,-0.010345040809121755,-1.0209064989397103,-0.013281655535193584,-0.016361516496327007,-0.028034435674556112,0.015892502032502896,0.9424545643054422,-0.05791549286226714,2.2890625
-0.34476324163518834,0.13859076638513396,-0.25747598746241207,0.7045499966522119,-0.03913326284852729,0.06430063294003077,-0.014144959992368448,-1.4344119658640178,-0.01884364019429024,-0.023583302282524147,-0.03944741116200443,0.022529976231660316,1.325116098092893,-0.08178794427865381,2.296875
-0.35007075667211185,0.1407240265755937,-0.26199816986027413,0.7162993787199622,-0.03976746579594699,0.06540779213587514,-0.014385045651353717,-1.457538907196219,-0.01915180486533142,-0.023988537146625705,-0.04006945879111112,0.02293547002575317,1.3460837793691003,-0.08311751084485122,2.3046875
-0.30453165328891335,0.1225363799330571,-0.22860713774119198,0.6240369900369386,-0.0348849101979592,0.056839515075049266,-0.012690353220800987,-1.2696762923363931,-0.016625965639176826,-0.020718776390825266,-0.03486284974160054,0.019949845794551942,1.1717983701055268,-0.07225196515369992,2.3125
-0.24903614378545497,0.10034150477685509,-0.18709937637830698,0.5103692778574739,-0.02883737592976709,0.046280586382993254,-0.010567834909748212,-1.0389613002430242,-0.013517645907792667,-0.01668187283932997,-0.028491518031105882,0.016240176615495778,0.9589236602860186,-0.05894243348194679,2.3203125
-0.39427734679586174,0.158556702215069,-0.2960713780513213,0.8075243236133822,-0.04472785895635714,0.07397101116678774,-0.01613437574734652,-1.6447797243134916,-0.021677299283694672,-0.02727810669070306,-0.04516068951582711,0.025940000666696494,1.5177976480580657,-0.09378576913908279,2.328125
-0.5378967809278387,0.2161242289986027,-0.4037410907911242,1.101390759683807,-0.060429382935195446,0.10130585030913504,-0.02162962890884685,-2.243595767994829,-0.029744763008069924,-0.037762732346733816,-0.06166182194167063,0.03552955976157944,2.0696318868339065,-0.12823605655447498,2.3359375
-0.1704671845882127,0.06889967733087339,-0.126965784373738,0.3476757795870478,-0.02010104508378116,0.03102506783184642,-0.007446983505154783,-0.7093516735246906,-0.009066166847922042,-0.010901418368837948,-0.01948835171632478,0.010880610279821908,0.6546994039661224,-0.04000738469943108,2.34375
0.5202155115681422,-0.20788352824684828,0.39286196250893424,-1.068562138975898,0.05565260029740081,-0.1009351187307412,0.019167711286054354,2.17394783150713,0.029795183031689248,0.039594437557157955,0.05981911762207946,-0.03541497625301835,-2.0035446235690673,0.12580511902884714,2.3515625
0.8418033120776423,-0.33670964265901343,0.6345885447732265,-1.7275198245978085,0.09086917475191966,-0.16229967778031087,0.03153702574640584,3.5152986837703617,0.047876076366966225,0.06309336821638818,0.09672883872402283,-0.05694767015882076,-3.24062390478143,0.20297490908065055,2.359375
0.7580036826392245,-0.3029578102043508,0.5710439368754429,-1.55504043270068,0.0815811059120188,-0.14621556828104929,0.02828894159336033,3.162970084616743,0.04313691167291447,0.0569311460163166,0.08703760986072141,-0.05130527152895162,-2.91726219856347,0.18280437041082195,2.3671875
0.6432979575963865,-0.2568591989379765,0.4846597242080874,-1.3200056610433142,0.06897306572969407,-0.12431460305715825,0.023884962083368277,2.6830003092760557,0.036685283314647536,0.048538162273467425,0.07381996703749297,-0.043624950889962405,-2.4754403336461914,0.15525003195848242,2.375
0.29947124853292584,-0.11925730633466415,0.22666866361314356,-0.6164244586469049,0.03139099762076159,-0.0587194092845687,0.010677125898087498,1.2510598057254618,0.017393331775315157,0.02347069928848304,0.03442532877920631,-0.020624598091528945,-1.153303340484359,0.0727672300782655,2.3828125
-0.45694199227875626,0.18346312172470963,-0.3416726049557085,0.9332930781098779,-0.051403433825064015,0.08572575212796081,-0.018453961370950216,-1.9012125294370967,-0.025111290568553477,-0.03174537300946807,-0.052268402028548745,0.030042195177519597,1.7558468660626714,-0.10873107644295602,2.390625
-0.9240203817317754,0.370453368769773,-0.6933466401039389,1.8917192301811343,-0.10263593846121936,0.17501288318230585,-0.03649373686579903,-3.8501499767146994,-0.051412424541425604,-0.06590193985384937,-0.10584286148779048,0.06138056507033111,3.5531883104383875,-0.22083993417726286,2.3984375
-0.5436559177154608,0.2182053765757505,-0.408391812737145,1.1140088473919574,-0.0610934736088915,0.10248243857362363,-0.021907721151462306,-2.267038157800421,-0.03009759273130511,-0.03819234171109008,-0.06225381439940929,0.035966962670008096,2.0916775315352516,-0.1296127563554981,2.40625
0.05318201123357408,-0.020750465785031154,0.0398583242102496,-0.10866772913115764,0.004255483824733697,-0.0114711913916195,0.0010619399430791747,0.22066723553579792,0.003434538591932059,0.005376503608232268,0.006192705487809228,-0.003993256654464277,-0.20324452760008346,0.013578288614314461,2.4140625
0.11991962305252842,-0.04746753933930074,0.09065169853198649,-0.24673167350133154,0.01165879978058294,-0.024307126671405086,0.0036831480966149814,0.5008603878434574,0.007235047623485521,0.010296680077866133,0.01386319116841006,-0.008517627224857405,-0.46083732921584536,0.029627428519061978,2.421875
-0.0902914829098436,0.036732708950908875,-0.06639167597863271,0.1827115947474108,-0.011267258031575212,0.01572468525222774,-0.00434644098170219,-0.37330829234467233,-0.004522130424751429,-0.00499343838151867,-0.010241372443916149,0.005486558213204207,0.3463861746943923,-0.02072569953547957,2.4296875
-0.09136989053604912,0.03718154533186924,-0.06703157536579431,0.18533921557511931,-0.011393895541073017,0.0159424827027654,-0.004387768428058816,-0.37778218735574204,-0.004583360329240383,-0.0050642511429178265,-0.010379268385157249,0.00555097129483736,0.35058124695661147,-0.02094332145327984,2.4375
0.01436929552516648,-0.005172676698211191,0.011695890760751504,-0.029688284591695615,8.962688357521397e-05,-0.00412073314321125,-0.0003828739716467514,0.06098037513936071,0.001304372913024463,0.002597793079529266,0.0017207231495640558,-0.001460530735563739,-0.055073991668448535,0.004354890168191251,2.4453125
0.03900763741025943,-0.015021975552677097,0.029689446454740396,-0.07963803679797717,0.002728608062724206,-0.008763317329639248,0.0005277727340512044,0.16228727921217928,0.0026576785172667196,0.0043425952649281535,0.004519877749219335,-0.0030649165640025057,-0.1497719739213862,0.010176315132128837,2.453125
0.06805574082545246,-0.026586224136396712,0.0520221805571059,-0.1406895178206993,0.0059659831113964435,-0.014418294656097619,0.0016981440438594718,0.28452060695512976,0.0043307793053728415,0.0064886570243481495,0.007850662642306206,-0.005061195460533402,-0.26275998463732847,0.017171578712766984,2.4609375
0.06852803103582521,-0.026757449530034044,0.05322402521952533,-0.14338908946356868,0.0061195604854253766,-0.014651716889793227,0.0017918175425950835,0.2887090652155544,0.004418239654338658,0.0065965287282424645,0.007937247353916906,-0.005169989570878167,-0.2654245146849017,0.017383346019780446,2.46875
-0.04799661644624394,0.01980226488262223,-0.03424879166044413,0.09543431842749409,-0.0066128580755753065,0.007591948044125433,-0.002691153515768655,-0.1963419068597639,-0.002125151905691903,-0.0018817953850831053,-0.005387890219582837,0.0026330258395960418,0.18322549562458995,-0.010544624114158905,2.4765625
-0.05783883928225834,0.023631794777080273,-0.042321398735573675,0.11691715019023968,-0.007756840707479786,0.00957664256993597,-0.0031307616996035592,-0.2385833292090512,-0.0027256218622727607,-0.0026372995594339736,-0.006499215838025939,0.003356281781764862,0.22188693853367833,-0.012963784089125885,2.484375
0.18025432885388357,-0.07168709093096096,0.13598456359799635,-0.3702006277254709,0.018236861529174156,-0.035813366833704535,0.005993231901361167,0.7523704162208253,0.010617913582133074,0.014701495206330446,0.02079732982822777,-0.01254521707044936,-0.6936329356495206,0.04410835816989029,2.4921875
0.311934046221411,-0.12430633085588849,0.23497172345015302,-0.6404175488465226,0.032648831578393905,-0.06098345819047124,0.011079851320456434,1.3008688845234615,0.018027121975726746,0.024310269495475163,0.03587198145447679,-0.021378388440741223,-1.200351278656184,0.07569819781701542,2.5
0.08693432489119343,-0.03419114305497039,0.0664779642092757,-0.18013327881985625,0.008084206528383446,-0.01809628861689209,0.0024627223217946327,0.3641130041193113,0.00541845680522094,0.007913292353995913,0.010048979555105664,-0.006353043411907503,-0.33548311005706694,0.021733350179847122,2.5078125
-0.12431668692281504,0.050281761729211935,-0.09176190118833166,0.2523977300009681,-0.01497464219326006,0.022209767577373325,-0.005651169443569966,-0.5148383501411559,-0.006430321630502391,-0.007476355762445369,-0.01416094127287805,0.00777150442939394,0.4765242744063962,-0.028942379016260792,2.515625
0.006151550032884121,-0.0020488218062442365,0.00605596395296853,-0.014601369618632338,-0.0007153679041380054,-0.0026395840446036705,-0.000659105860578458,0.028987677231530503,0.000887389394672242,0.002045939602444531,0.0008339763007242725,-0.000940658596145201,-0.02510108812230575,0.0023421708912241034,2.5234375
0.155924820075146,-0.061941841700589126,0.11781028691067141,-0.32065359613856703,0.015571762278453014,-0.031141495527735482,0.0050579440408584555,0.6510766304267447,0.009263693889501044,0.012930001367296334,0.0179985948645501,-0.010920027478096722,-0.6002417392313829,0.03824232035418464,2.53125
-0.02977204110050763,0.01255501477601735,-0.022059433044102645,0.0604806705344952,-0.004816251403310464,0.004326784347410241,-0.002099799034808075,-0.1247084771712524,-0.0011962459272065154,-0.0006688223104095811,-0.0033504725984254326,0.0015288062978782058,0.11459266118631192,-0.006310212046610961,2.5390625
-0.26329090953677164,0.10606286363041918,-0.19682890436496514,0.5386047465689774,-0.030298675535080775,0.048823597549885196,-0.01104460083036949,-1.096700296678469,-0.014296304510534995,-0.017682892793879995,-0.0301422136618408,0.0171160419190528,1.0123602300266354,-0.06227190003481515,2.546875
-0.14854768258253856,0.060010347598276836,-0.10973466697929946,0.3024648042351003,-0.017620985491203542,0.026840491617468765,-0.0065831238172369706,-0.6155476000797069,-0.0078020764707188075,-0.009228568668891537,-0.016924362123347296,0.009373630128600813,0.5703420516335777,-0.03466051062759836,2.5546875
0.08790430401714788,-0.03467436645289605,0.06779134442648149,-0.18230323066244525,0.00825211644377634,-0.01827403947494792,0.0025084252201880543,0.37043592334246805,0.0054971376805019335,0.008047505525289255,0.010238125184186575,-0.006458927342443228,-0.3390400320382996,0.022102216657185522,2.5625
0.03422660983651067,-0.013055240546781687,0.026497325073349186,-0.0713437173647139,0.0022609120862186914,-0.007943470178671893,0.00039237434750858443,0.14424394104042296,0.002442163698498155,0.004058659522852337,0.004055836064932624,-0.0028132021902447847,-0.13172512797386593,0.009197286534318757,2.5703125
-0.15863211022853985,0.06421891128031464,-0.11891167215815958,0.3246481415564826,-0.018898949010104464,0.028899686229767452,-0.007057917719050154,-0.661272268389306,-0.008432431845174093,-0.010074061194385673,-0.018108401140401433,0.010137760302995989,0.6108069313890294,-0.037133871754999055,2.578125
-0.11042129446497811,0.04482382819095718,-0.08224794701779709,0.22532956152219788,-0.013550269373110059,0.01963629573007182,-0.00517762603422445,-0.45934543217139523,-0.005711947320115249,-0.006529948704306768,-0.012594058591756642,0.006901031922720169,0.4252058782127409,-0.025635529167127153,2.5859375
0.06960265196100324,-0.02731411949106065,0.053566358585836735,-0.1445605291991774,0.006220570607476808,-0.014792598196612,0.0017902711292471132,0.2922845816922638,0.004439332665977677,0.006650589284935717,0.008045921412587155,-0.005178425395817606,-0.2682118681862415,0.01751500993285605,2.59375
0.033414929049384035,-0.01278714264118865,0.026354999447669947,-0.07047027025649599,0.0022314383021104843,-0.007865216710157724,0.00039912371940550986,0.1411352369087136,0.002412376152365081,0.003998353451624373,0.003888136269972346,-0.002759121968113739,-0.12994370177535444,0.008840961137279122,2.6015625
-0.14343088318421854,0.05799054507734002,-0.10682117028645033,0.2925857252600737,-0.01718367778712857,0.02597858847212133,-0.006443370474315202,-0.5966270918987869,-0.00754879375953433,-0.008936225402626494,-0.016368640117364004,0.009103374612476055,0.5501392138833386,-0.03356636762704896,2.609375
-0.14194171843348147,0.05730052318442931,-0.10587920160063877,0.28984420638095487,-0.017039924410011693,0.025745059494825664,-0.006411895425699492,-0.5904783687902071,-0.007481717580064016,-0.008825031408540197,-0.01616075707648863,0.009024686631731818,0.544897881863904,-0.03321715063107081,2.6171875
0.037477469351364194,-0.014478327741554407,0.028843156315338996,-0.07813886240622976,0.0026030366152883263,-0.008557009983375967,0.0005139619507148983,0.15696942885011358,0.002608132971378254,0.004281842000890816,0.004401067806036974,-0.002995037428729562,-0.14481692325121853,0.009821042652029013,2.625
0.17507802815079,-0.0693997593321384,0.132369594603868,-0.36068058803638187,0.017692110215113837,-0.034938853278264716,0.005861590004481676,0.7303164981581649,0.01036633143439271,0.014337316619546337,0.020138420044875916,-0.012248787813583056,-0.6741745263064264,0.04288145085988019,2.6328125
0.1971706648327494,-0.07826857126266318,0.14960493360485752,-0.4064808591593789,0.020190191661359654,-0.03922786601880801,0.006747991575971641,0.8242586504961936,0.011641063251104075,0.015992363337642566,0.02268563196006144,-0.013776374317209687,-0.7595736313466386,0.04826005036991345,2.640625
0.11327732241709049,-0.04490495161692506,0.08718083112400812,-0.23451165126922902,0.011074482754235206,-0.023175309954794256,0.003505088132748491,0.4769686596029784,0.006937462731243716,0.009910454890598407,0.01312139268650213,-0.00816851160029059,-0.43705671586412614,0.028160360897966134,2.6484375
-0.03890880887530634,0.015943388340240252,-0.027530154321799588,0.07845065550918331,-0.005639661904308877,0.005991971644769317,-0.002408928804295774,-0.15821426719853893,-0.0016558406043561454,-0.0012310719379029938,-0.004321715335275564,0.0020707508003754873,0.14892937131070588,-0.008396889070166037,2.65625
-0.041363747173347544,0.017062550058192388,-0.030465907047242967,0.08471338126422355,-0.006039430534907978,0.0065525793204021495,-0.00255450046909722,-0.17175616016470874,-0.0018520815771691174,-0.001487009402310513,-0.004637382750127096,0.0022993788979415466,0.15941057325769836,-0.009044603691635006,2.6640625
0.24173140382914826,-0.09621655751009095,0.18181761470150914,-0.4957075831090237,0.024918818473494732,-0.047505904092948234,0.008345768484478107,1.0074509775932008,0.014058557284124234,0.019171486949901076,0.027831853037993317,-0.01664649855837142,-0.9293000883309825,0.05886158197338809,2.671875
0.45344890096435353,-0.18107227877546894,0.34166008730235425,-0.9312709284431111,0.04820594346514768,-0.08802835568023937,0.01655128431154338,1.8927912556629534,0.026022382922381144,0.034700209057537415,0.0521520996660596,-0.03087994020810136,-1.7448393701213036,0.10969017970280687,2.6796875
0.16334734319181304,-0.06492790009228172,0.12453367763563698,-0.33779441238746727,0.016545862863037063,-0.03272415471654256,0.0054315266218996515,0.6855723928376806,0.009760361440476345,0.013562043892222203,0.018884741344965185,-0.011511246374303055,-0.6302193421903235,0.04012741329060634,2.6875
-0.3959292542417295,0.1591395002328754,-0.2958707916173367,0.8092092357978619,-0.04472144004146981,0.07409071400743915,-0.016115783898606385,-1.6474298036493267,-0.021711254908129782,-0.027321986824094206,-0.04530062677612231,0.025951932326142357,1.521305825747223,-0.09406182284937399,2.6953125
-0.6106601986501792,0.24521900515587483,-0.4581291637020142,1.2508238060619525,-0.06835403736966081,0.11520244734482499,-0.024447108263091964,-2.545667117131831,-0.033849777796792276,-0.04308349905545448,-0.0699694070460544,0.04039939143385218,2.3486908057922506,-0.14564297329319484,2.703125
-0.3606873903407775,0.14514751238816026,-0.2708438841952025,0.7388952960742926,-0.04105608899355198,0.0675174506448967,-0.014855678037756894,-1.5048383431436476,-0.019817264075774117,-0.02486610182662527,-0.041325742208926666,0.023698079034271784,1.3878863049825991,-0.08572220996913996,2.7109375
-0.044455226073797094,0.018554676839962647,-0.03281907764770943,0.08968658987640236,-0.006383677187983874,0.0070385008365722234,-0.002635002316798335,-0.18521251379721743,-0.001992442212444173,-0.0017403614155916964,-0.0050720107152567254,0.002476957771599224,0.17076407511945527,-0.009816354944445854,2.71875
0.06165640914457405,-0.02394999241031669,0.047755329794286414,-0.12893311091263723,0.005338788109897906,-0.013342750405153578,0.0015188782898306519,0.25942811265871063,0.004030590347904855,0.006075684833100201,0.007114789726326799,-0.004700279746017526,-0.2383449121613733,0.01573593150577237,2.7265625
0.008663219112636086,-0.0028907689271769005,0.008175380296694732,-0.020017708256439077,-0.00042996214396297575,-0.0031998379485787907,-0.0005218750914815661,0.03943288297857063,0.001053309071215889,0.002237915584911214,0.0010814263830385249,-0.0011511775367502195,-0.03436114501226365,0.0030467180245131544,2.734375
-0.042921240038817775,0.017602582583681567,-0.031268715252994544,0.08726874142945587,-0.006157821643116359,0.006799812243989297,-0.002580849338084612,-0.1770996518507387,-0.001903289684270953,-0.0015706336659859629,-0.004818493249115769,0.0023824305088552726,0.1649705662540113,-0.009421238535718326,2.7421875
0.03899368814912299,-0.01517075723591987,0.029590805542909212,-0.07964415183983982,0.002727454495292889,-0.008756021535199504,0.0005235616355762682,0.16242614152348644,0.00265573645920607,0.004354921955489839,0.00455040074931211,-0.0030470725312861974,-0.1497243031830566,0.010144422075940204,2.75
0.21604798658866162,-0.08595480778972156,0.16291948852558544,-0.44343661342987006,0.02214867747245562,-0.042645879657708184,0.0073792930466173665,0.9010468211822807,0.012632544716072766,0.0173066064295608,0.02485428632012295,-0.014943467307858645,-0.831408577276282,0.05266030084308027,2.7578125
0.25073499765481233,-0.09986903095612008,0.18991585774516268,-0.5162634515659714,0.02606075443800286,-0.04939849350536814,0.008787315665668259,1.0482647086379064,0.014642191399404359,0.019925769665730883,0.028886488119720798,-0.017345614014567586,-0.9658254345328002,0.06108347679099605,2.765625
0.10880158699851915,-0.04315471936847453,0.08366005681333122,-0.22583021951076335,0.010566981925575281,-0.022308964246063087,0.003336955037472969,0.45786980636953145,0.006678874983772038,0.009600755765730898,0.01265572020574106,-0.007860339175035477,-0.4203068243455416,0.02705785936787813,2.7734375
0.11516449821221682,-0.04570196695655951,0.08790669058564562,-0.23777223368487363,0.01119625083699613,-0.02343028850011294,0.0035335000369815434,0.4829583256185759,0.006995743001212618,0.010016865098924854,0.013370645227571564,-0.008239055915240781,-0.44434973732482275,0.028533202565200554,2.78125
0.3125485927383729,-0.1245995111367509,0.2355134562900666,-0.6413321936843195,0.0327231143840298,-0.06105608649571509,0.011092356521839757,1.3038729557818787,0.018058343551567768,0.02436957134370155,0.03596373527366296,-0.021415974470101063,-1.2026863439814173,0.0758616748593732,2.7890625
0.20185946971224428,-0.08017612012154966,0.15223295206928597,-0.41476932965611024,0.020595690784506755,-0.039947222925315724,0.006839181048760402,0.842162198539108,0.011849704051844016,0.016278564744176185,0.023245825049651777,-0.014011005113077133,-0.7763191831700554,0.04932379964770346,2.796875
-0.3455996493338946,0.13902096468691158,-0.25864082471996525,0.7062610995287263,-0.03928279672682911,0.06452394282151072,-0.014202931529292123,-1.439007924918585,-0.01889057718911565,-0.023673020717835055,-0.039545630466465496,0.022616404580235696,1.329224983799829,-0.08201970742962572,2.8046875
-0.6345744632456396,0.25469215243158183,-0.47527872906808044,1.297948826756221,-0.07086153247223205,0.1196632993640576,-0.025304560204495456,-2.6426926087013496,-0.03511642778991199,-0.044758100882123786,-0.07269350165905848,0.04194366823685057,2.439985715328058,-0.1513724643019291,2.8125
-0.2548366314065582,0.10265608891881241,-0.19000817231327216,0.5200344586079293,-0.029291510010887287,0.04716124836034864,-0.01069298738454356,-1.0596965110882126,-0.013780054360774122,-0.01703743322976735,-0.02914641464418598,0.016518002475211443,0.9790036172185249,-0.060261794025485954,2.8203125
0.19065925945768727,-0.07568961661151767,0.14416412927712455,-0.39194045615277473,0.019414428695700366,-0.037858269051084394,0.0064222551172554,0.7963923537525778,0.011229411473293592,0.015460694104298948,0.02194474539595071,-0.013284813207570132,-0.7341383303461083,0.04665301356296777,2.828125
0.15936128202184766,-0.06316619546102163,0.12031326040623502,-0.32690362235887716,0.01593954434788494,-0.031848711099275936,0.005189998485301041,0.6650678573892594,0.00944090318973934,0.01314371087052142,0.018342639134814362,-0.011162506637596603,-0.6133543420613273,0.03915667571026176,2.8359375
0.04005187725824497,-0.015453198629351744,0.031069760517349682,-0.08264480024980778,0.002917317264719277,-0.009105528955437078,0.0006162310039859552,0.16843174862551022,0.002745340247833891,0.004444557767553296,0.004645560443557856,-0.003185568748905487,-0.15478621225827346,0.010522724318075286,2.84375
0.22649863776699167,-0.09017362607879888,0.1717626490857784,-0.46592700851318647,0.023403416576837126,-0.04478012639085775,0.007840776262078783,0.9472438338612383,0.013268399648489769,0.018115249427958186,0.026047096355166142,-0.015710276748924983,-0.8724921993328467,0.05526159479928346,2.8515625
0.3028602888526646,-0.12077901645730227,0.22908323107902562,-0.6229596569824681,0.03176288661457569,-0.059353106762617666,0.010790658843510492,1.265770924967992,0.01757833180996781,0.02372814476808953,0.03485529429394209,-0.020836006933873608,-1.1660002406018357,0.07360472829077203,2.859375
-0.07979894014974626,0.03246126674210535,-0.05911368591788459,0.1621519094260132,-0.010211675101078,0.013828714741322698,-0.003986087832643052,-0.3311062196066997,-0.0039638471188889225,-0.004238104118561448,-0.009001989257123633,0.0048260595443928665,0.30678240017572467,-0.01821271251906698,2.8671875
-0.435295891726725,0.17486652781872994,-0.32680899799195184,0.891854541405247,-0.049202671545331464,0.08180814340068336,-0.017719236303701626,-1.8149316913063906,-0.02398786975973525,-0.030250993170436107,-0.04980726875542584,0.02868281042686584,1.6748368551714938,-0.10357325162593135,2.875
-0.28069199036120995,0.11302397495708849,-0.21072054105605487,0.5749684254082065,-0.032280605499426435,0.052265214025282,-0.011766752908443512,-1.1709941628107594,-0.015303380403450641,-0.018990656986526435,-0.03213843731593816,0.018348845522631996,1.0799821285136155,-0.0665665463372323,2.8828125
0.055623103593734666,-0.021632242243784714,0.042399750683725305,-0.11544893696236504,0.004592908087123768,-0.012051611747614975,0.001221957263779217,0.2319681294601785,0.0036299487840618246,0.005588364200388795,0.006416707998694354,-0.004200255569740402,-0.21439868249765087,0.014101551820169717,2.890625
0.06168206578244357,-0.024101316897309304,0.04768395469957028,-0.12905351198012388,0.00533340140265471,-0.0132722249852372,0.0014981258890128472,0.25913688594557555,0.0040097176794683205,0.006085826013283049,0.007154837672192669,-0.004661395256512021,-0.23840907595696414,0.015621756361996598,2.8984375
-0.18384703295794783,0.07419554565245802,-0.1363051416767657,0.3738775308639534,-0.021504151829477482,0.033626533369790663,-0.00794357433035224,-0.7630842843810091,-0.009772653742337349,-0.01180614899814215,-0.020965756523127484,0.011744222116291447,0.7058860647852948,-0.043208140507978256,2.90625
-0.2806544246389002,0.11298438980608366,-0.2093387104124246,0.5731452319051468,-0.032140232176754595,0.05216191526403978,-0.011700542803963597,-1.1673495115889463,-0.015241133767383092,-0.018900921900445455,-0.03207202438027403,0.01824582175108381,1.0787357519670016,-0.06641632356335152,2.9140625
-0.06094490415394032,0.02496837304160453,-0.044955178280148285,0.12408117207621772,-0.008151406675039607,0.010219761788131118,-0.0032794433053041157,-0.25295939715213556,-0.0029416297820857125,-0.0029112481290526266,-0.006876333795671943,0.003577867723960619,0.23406820364099837,-0.01370811204518723,2.921875
0.32816753829237044,-0.13098081821072005,0.24734050404067165,-0.67313929241474,0.034467211236966604,-0.06414574925921289,0.011708440348843205,1.369641187346682,0.01892522744306895,0.02550388490691368,0.0377824693410265,-0.022477096138473707,-1.2629748430289032,0.0796889509647738,2.9296875
0.585565415416413,-0.2341269740413806,0.4414722190567078,-1.2017388226729184,0.06274998272549323,-0.11339377923791363,0.021673139262538596,2.4451952342116043,0.033454756322806915,0.04436407938895988,0.06732388388220448,-0.03976714398784413,-2.2539600393954125,0.1415040305089362,2.9375
0.5142752885819706,-0.20548027372824645,0.3884813723032822,-1.0567239211332906,0.055005284193204385,-0.09981468947807494,0.018967612179095573,2.149382825613977,0.02950248720489241,0.03920131877852045,0.059119068655852355,-0.03503590359246369,-1.980164465331402,0.12440371700561047,2.9453125
0.27826352224846046,-0.11083774678791074,0.2108559426084089,-0.5727913560769894,0.02910657926773393,-0.054662038469203394,0.00985174633320613,1.1640429256086728,0.01621672343702522,0.021937810051502853,0.032016473610480975,-0.019206890747896836,-1.0716315939876584,0.06771728629498425,2.953125
0.16540224712943774,-0.06563420895061331,0.12520533157301947,-0.34027157103376376,0.01663047063078993,-0.03296353293098871,0.005433206789481912,0.6909812729235987,0.00980811354791944,0.01363284317704379,0.01906887630828354,-0.011575850385343586,-0.6363166199055144,0.04055228276108839,2.9609375
0.08316508303780146,-0.03272434510330946,0.06271713249681395,-0.17094709047552872,0.007545410158777313,-0.017179906282592566,0.0022208748096909175,0.34651083411214767,0.00514981577884946,0.007579037798267196,0.009620650584239786,-0.006011156866474621,-0.31952147734237346,0.020743201690338362,2.96875
-0.26699993829894886,0.10759773313710783,-0.20049842821780942,0.5464623843333912,-0.03079480592498425,0.049632828538891484,-0.011241252081005737,-1.1136977892894893,-0.014519148812194457,-0.01801106724716467,-0.030599944846782953,0.01743333014399706,1.0268746347626219,-0.06329568853319736,2.9765625
-0.7444938823223514,0.29893515431503076,-0.5588337614896505,1.5245601624920364,-0.083019952765666,0.14071028771454294,-0.029572627474551832,-3.103913130413286,-0.04133194559814103,-0.052865645883891026,-0.0854068224595531,0.04935669367862317,2.8630177575983096,-0.17780233397086764,2.984375
-0.8660861424061608,0.34758613056960685,-0.6497547818867039,1.773928682338913,-0.09628856629472944,0.1639201049152146,-0.03423571129606896,-3.6101824392254245,-0.04816331586818521,-0.06170949889557738,-0.09932186080416244,0.05746671364393459,3.3310398572786726,-0.20690489010213306,2.9921875
-0.5398774891074062,0.21678830258521525,-0.4047748428230655,1.1061110226835484,-0.06059073841551562,0.10172409364456032,-0.021713838820061462,-2.2502489649559623,-0.029852970889125426,-0.03787469930675106,-0.06184528806879148,0.035650968862955,2.0770636218560203,-0.12864899579504435,3.0
-0.14325971933956652,0.05786543955914189,-0.10713922663773107,0.29339031843613056,-0.017204459277195005,0.026031698107735667,-0.006477356474086983,-0.5971546599383277,-0.007583039597503509,-0.008929532324487437,-0.016320181901998625,0.009128551955968215,0.5515235031005804,-0.03353847725750333,3.0078125
0.1040512044872325,-0.04116210872364747,0.07898496124946425,-0.214731583161978,0.009913385123723866,-0.02130821695256654,0.0030796629252587237,0.4349036980549765,0.006338047437453161,0.009140364829178418,0.012064446242444756,-0.007467268719676312,-0.40092397462374624,0.025832687169584655,3.015625
0.3164966873788002,-0.12625451755078027,0.23962283000158666,-0.651894548182967,0.03329360125235209,-0.06203760265593351,0.011335070420436168,1.3233548080432678,0.01833844984595089,0.024722529054223796,0.03646252075120541,-0.021777126482889004,-1.2195182184680764,0.07690567395429371,3.0234375
0.5114271055377292,-0.20438078287573622,0.3866165136999262,-1.0517974613118501,0.05470005672493537,-0.09928248832439364,0.01886455505002666,2.137691025293405,0.02932875765677695,0.039010746732688326,0.05883935825481419,-0.03485672546267053,-1.969599295453606,0.12370620476231324,3.03125
0.5013359865960012,-0.20031885927499632,0.3783136854066751,-1.0296514953394877,0.05351117191496969,-0.0972287922886592,0.01842036581217087,2.0938118777314596,0.0287251859326335,0.03823492937587429,0.05765458117831287,-0.03411609936621825,-1.9296714499576273,0.1212185486946061,3.0390625
0.29002330664147774,-0.11556151109341231,0.21845512148097898,-0.5949478007694337,0.0302423328669995,-0.05676870414688315,0.010223485716139423,1.2096257379384359,0.016789705242637613,0.022718556975983538,0.03336580411689501,-0.01989768639108503,-1.115586896338941,0.07046607342773156,3.046875
0.17274122699494335,-0.06851376485467373,0.13027228595903442,-0.3546754670729366,0.01739156140578792,-0.03439569250854037,0.005716643354054292,0.7202493416357195,0.010201765683854355,0.014137026007090709,0.019888706740414937,-0.012055045611594904,-0.6643718280468581,0.042342856103672166,3.0546875
0.2820822861504938,-0.11238159204086227,0.2133981721821001,-0.5803056645634742,0.029487317301868418,-0.055371381936324036,0.009986925316456131,1.178986633184983,0.016415814201239394,0.022193997297770086,0.0324454196143558,-0.01944086440266557,-1.0859491080647021,0.0686034995369247,3.0625
0.3287274888920029,-0.1311681678834307,0.24908597501453758,-0.6768339094001881,0.034681703919691734,-0.06432081366721429,0.011814991623032404,1.3755964563026142,0.019080634581420806,0.025656985531359363,0.037818757630889065,-0.022596506995464373,-1.2660972591902917,0.07979129614011994,3.0703125
0.018709670851663626,-0.006980223263064583,0.015511327352927828,-0.04041079124359954,0.0006593595929515552,-0.005047031570199917,-0.0001639021323204577,0.08129296777649232,0.001609097601964067,0.0029698316519974704,0.0022544223764760134,-0.001794594884078847,-0.07305672574389703,0.005388012989292526,3.078125
-0.4528606199095872,0.18198799818939684,-0.34008117353441614,0.9281857110855294,-0.05113474034359908,0.08514192365151482,-0.018400744072317548,-1.8886224759733403,-0.024986046084437837,-0.031571723265957134,-0.05187117857965354,0.02986482274304292,1.7422351547670112,-0.10779858896551141,3.0859375
-0.6368039408282689,0.25567713611232135,-0.4787983929747056,1.3061716012527576,-0.07133552018980893,0.12034488271221949,-0.025520021686939044,-2.65709576778524,-0.03536022851536888,-0.045046262092558756,-0.07300566454894251,0.04222796208817583,2.4505985551046656,-0.1519978186576275,3.09375
-0.4552678553839693,0.18289896939430533,-0.34169123771034543,0.9329465343457833,-0.05136794183049553,0.08560617621162045,-0.018487319684021106,-1.8982579892681481,-0.02511107933066838,-0.03173597232707507,-0.05218428426833869,0.030036113175977666,1.7516565266150814,-0.10846419872883066,3.1015625
-0.20651982311817407,0.08324090008150443,-0.15376844978667223,0.42111938321876824,-0.024015280384740687,0.037947247813667255,-0.008836816526971185,-0.8584459597984011,-0.011070056598301736,-0.013504225378059592,-0.023612626672701403,0.013296641806005588,0.793270657170654,-0.04870372769668349,3.109375
-0.05307938207214909,0.021829185554042466,-0.03818708402778255,0.10590499252153868,-0.00719448069912569,0.008567807667337453,-0.002903576237182583,-0.2180001374359129,-0.0024351721957510007,-0.0022887936097814475,-0.00596336853226626,0.0029750180123592363,0.20212963868296385,-0.011772388004380992,3.1171875
0.035648227631080394,-0.013672880984775976,0.027979345862366393,-0.0749341686150046,0.0024581407274484037,-0.008313490147480987,0.00047593414917112225,0.15082671704427086,0.0025222100978143933,0.004159951433214811,0.004226551938943429,-0.002938200940760498,-0.1386270072488301,0.009550539044152047,3.125
-0.021405220378240775,0.009184252026878456,-0.015474031378211444,0.04325294355940824,-0.003845192032414893,0.0026676342601813763,-0.0017650883057104333,-0.08833148859330923,-0.0007135580132541453,-4.120368176649613e-05,-0.0023589962274512084,0.0009413196873575161,0.08197209199585034,-0.004207835343083303,3.1328125
-0.2163983958957325,0.08731984110527602,-0.16204956599227188,0.44293791730186577,-0.025193983929556067,0.03989317461714928,-0.009273030995871442,-0.9018390015642881,-0.011681244373514584,-0.014301685529125151,-0.02477861101145074,0.014017191766266644,0.8323912596584505,-0.05106907438105756,3.140625
-0.1395225534908089,0.0565668364737234,-0.10373014769534014,0.2842085792815986,-0.016720713069643203,0.025136433515568376,-0.006268174719763131,-0.5805931507758302,-0.007335561311290473,-0.008659007241882953,-0.015956443818700344,0.008824183508546898,0.5360417330560124,-0.03261746061547525,3.1484375
