AF3,AF4,F3,F4,F7,F8,FC5,FC6,O1,O2,P7,P8,T7,T8,time
-0.8782263321846077,1.9243777164011926,-1.8041633927758662,-0.17295034995664954,-0.2822824479377297,-0.7624626208340832,3.610968513356826,0.44049565355128,-2.894584324076421,3.088777356986628,-0.8146086504629642,-1.5973320396897397,-0.2778437430498113,0.41785581219198153,0.0
-0.15644841820324346,-0.2776570049489724,-0.006583527234682782,-1.37791464196548,-0.25571306983369246,-1.1764317102725397,2.910323844296607,2.1249199609228486,-3.1559468834662434,-1.016594876894038,-1.9356037572383387,1.468488659145301,3.1218055096973947,-0.2682323350416005,0.0078125
-0.35271399113731355,-0.4350009313483924,-0.045468980222079354,-1.2317775867447238,-0.29954289907407944,-1.284076825811881,3.8484416132916928,1.0951967211247657,-3.0045496507118385,-4.614924033397761,-2.9566348689948296,4.1820508779278995,5.720181784822353,-0.6205355524737864,0.015625
-1.151830673432642,1.0649806199699798,-1.3285870950901564,0.8503428890004738,-0.3902883192843032,-0.2661512986768984,4.333651479108526,-2.4280368544802124,-1.5423468235024183,-4.223757062997007,-0.16941383978070895,3.391873476863535,2.1426420573692604,-0.27971668798715443,0.0234375
-0.539929034325375,0.9604374405001951,-0.7382505896675422,1.9074394409783308,-0.03897747470671865,0.9339952008603826,-0.6663597755708958,-2.641900762630245,1.5174610410590523,-1.5160389379593253,3.4348083822464828,0.4485392112278591,-3.0187492479949163,-0.038886626408494,0.03125
1.0479144249997363,-1.5677599525874326,0.8910493960707693,1.1988692198673976,0.34981051960277293,1.0352881589581953,-5.081567721297912,0.38403225786444817,3.778569530341151,0.05198635735522762,2.939761098136184,-1.1000189332832997,-3.7653843745112994,-0.16180275622258436,0.0390625
1.119080285021705,-2.716205297629055,0.519091261740793,0.7537850104009096,0.11618307265555491,0.3619736441909795,-1.6706422290179814,1.066298768242396,3.1579968176635744,0.34310652631743654,0.09301035408514442,-0.8158692084564302,-2.2800051855068175,-0.049492417350291994,0.046875
-0.06406685479397332,-0.6069707952974044,-0.6589198246741845,0.8441870564664498,-0.16783552016204373,0.1933333473001425,1.8949241692785592,-0.8127246237060893,1.250052332197147,1.232174746012708,-0.09869956360085469,-1.018235065539389,-2.3024984138449454,0.3137454522269791,0.0546875
-0.1252582971863791,0.8546264844354245,1.082516544304665,-0.25618907001635244,0.1471925458526507,0.8444713377385576,-2.0888522056030383,-1.4476503489707804,0.5073076795997391,1.9877097081842008,1.9201665471069156,-1.7364585803934562,-2.0496490750825207,0.35966971700415684,0.0625
0.38990391136496266,-0.38506180299920034,4.453412131839444,-2.574609723491928,0.2908289554172798,1.1283296579689832,-4.102535267255618,-1.261199098328291,-0.1164444823373179,0.7749242941861997,1.603876509313353,-0.7546501118209439,0.34255223445696,0.2113181297306815,0.0703125
-0.6517010298080778,-0.11437090660549949,3.7889040195356247,-3.6637992313396404,-0.2999313262368522,0.0005457434755659746,3.2956862080633744,-1.739997362908193,-2.94843487200419,-0.5665064401165141,-1.6382800451483677,1.2223629424443945,2.998609932646623,0.318902588507883,0.078125
-1.7285412612972884,2.9059002331050476,-1.6570544959725932,-1.7168569952620938,-0.5558561754146198,-1.620423241800715,7.6003601248541095,-0.20723493234625812,-6.286321492089262,0.7340755024625004,-3.560200609014356,1.0542420938846593,4.755760189847376,0.2842869677461062,0.0859375
-0.1614211288210858,2.894410775575472,-5.193218440091468,1.5040594215976395,0.1605897136039604,-1.870103639142058,-0.42209853690998467,4.066296296235088,-5.417520364089981,2.2100588802730874,-1.8366577653248475,-0.725610984005482,5.170533834569812,-0.37944963813844496,0.09375
1.933933274194806,-1.2209287101587625,-2.4925191000631326,2.121315762499824,0.675844336952785,-0.7524546711510325,-7.760555462343222,6.063871438918066,0.7140874758742402,-0.16784059660864645,0.8002432510705764,-0.46350236576873305,1.541785384259918,-0.9951183285384014,0.1015625
1.1312810641718052,-2.391221459634864,1.6281395527333375,-0.20969622398083573,0.2793759704009285,0.002886679513347149,-3.6685892590315565,3.395460304039356,6.97051884295368,-3.6469021912880284,1.0126933945782997,1.4566158155789002,-5.246387491920894,-0.7147604598420554,0.109375
-0.44503588412242345,0.22765129185598487,0.9910552640458292,-0.7471709072494056,-0.01926680741801249,0.05165146623488188,1.3067919288231453,0.14769792786906727,7.711749476775689,-1.9536123287446236,-0.6270275543599984,0.6182874190680494,-7.337542689451473,0.07497916977628653,0.1171875
0.7943286449334347,-0.9706756797527962,-2.202182201943501,2.730719173730425,0.29017291387520877,0.78699457646216,-1.6233822435793066,-1.5062790021852848,3.636329530217351,4.052549394696063,-1.3650429743671428,-3.380520349464665,-1.8689859813678174,0.6232901961582559,0.125
2.343584504241953,-5.125308005609039,-1.8628069264261855,4.858283636523759,0.29952534282141835,2.111633838970283,-3.2182211938090353,-4.0361575587832865,0.47316356692890416,6.794209527022129,-0.6721148804865326,-5.29852968506258,2.3634187538766565,0.9636266161681578,0.1328125
0.19771849853824472,-2.524037444920252,1.3810229576595383,1.217224008689766,-0.22882589090539435,1.9510780813736361,2.3676742074982005,-6.450199371344377,0.6370611917073088,2.9626517604802203,-0.19081965142424315,-2.2007203554368058,-0.20605612532400425,1.082002784549454,0.140625
-2.9005244472309437,5.043018850426472,1.991069312702783,-3.1821876341919957,-0.42690350214864115,-0.0029179892050446325,5.746138112894409,-4.309897567501799,0.09895743691806168,-2.718514224873644,-0.029304989931974744,2.4372216984214043,-2.1805853323372797,0.43433697018903816,0.1484375
-2.247116965105675,5.061070251872772,-0.2525334931850331,-2.0748753722949345,-0.2897030253284204,-1.2316708009503818,2.873460116299444,0.36115938318104196,-4.09192910377325,-5.072528307398922,1.4186279412693867,4.306368230302461,1.9033793377835642,-0.6612051375463711,0.15625
0.05179107864656922,-1.904253856948626,-0.46753374587751956,1.0072892817832055,-0.5789869215967808,-0.5134638241588448,2.442336928373803,0.882475563511122,-8.173699365554638,-4.248578299077314,3.592024860939073,3.597754781931348,5.244686397820392,-0.9282558243461327,0.1640625
-0.4286997414740104,-2.5283710040812255,1.797780729317355,-0.5399383496274166,-0.9068673392636023,-0.012958074841947224,5.708545822516938,-1.2528865152460893,-7.873700867458464,-3.0407390885733077,3.4623719791228313,2.86898803051878,3.0909753352137175,-0.33940723105599374,0.171875
-1.8145871403090006,3.8284696747649356,1.9691199979438676,-4.25484643970319,-0.33436021262080634,-1.395169159588627,3.187168935121633,1.826038295394363,-4.787805166345166,-2.565523964690848,0.4001545199892342,2.764377112755776,1.534973963401232,-0.35177499705085635,0.1796875
-0.22388578178842058,4.306640359713915,-0.6516665508431441,-3.497973097751737,0.5708430496380162,-2.7336453870091586,-4.465354583521173,8.618846397804965,-1.5345760914022886,-2.21376745450799,-2.2289856609999403,2.127734415389123,3.09837251499916,-1.1673763712881189,0.1875
2.16629205363151,-2.4786537237386934,-1.8376174163918415,0.7458164615729382,0.5718990325135118,-1.6299956896500196,-5.619411574575665,8.411064812312183,3.030550075409157,-1.3737107542723126,-2.051702985466556,0.527096966860248,0.684430698863513,-1.143904998243732,0.1953125
1.4850572761106124,-4.652322821216627,-0.6148740295798343,2.813608313995599,0.029791544873578282,0.8820545088226387,0.029886145475678375,-0.3385127043541674,8.398700930080107,0.5235624303426706,-0.8772392582332834,-1.5525606819316886,-6.377163090698623,0.24811921012461197,0.203125
-0.23885998656158405,0.11484436773232876,-0.37847606116413757,2.2183054349353197,0.20710872413762238,2.1038879999511515,0.23734725325277697,-6.140799441827891,9.723889577038786,4.050585037717765,-0.9600598182579512,-4.027265034141539,-8.2974380035762,1.3809447065747071,0.2109375
0.6554702101455538,2.197976032977734,-1.4905530289145972,1.9145604004308505,0.9756382980094078,1.6584763454320457,-7.3104398837712745,-2.849935620709386,5.943294383066444,7.989889595229992,-1.3303173028971536,-6.534269008422186,-3.034835745693895,1.2067708405677078,0.21875
2.3901551127357137,-0.9460616927785692,-0.5042646732530696,1.5337866838931666,1.1313787246638511,1.2400402863582818,-11.010654491431842,1.5613421847664988,2.6115685138624296,9.021354930546597,-0.34559436615757305,-7.208746536062811,-0.1659061952796681,0.684197285613562,0.2265625
1.5041920100975763,-2.388905237145291,2.619224369810179,-0.3713549487570961,0.42838375110451116,1.4789374531808224,-5.1651541225582625,-0.5466165691529112,2.1708384905759783,5.581272232779142,0.9157271352639302,-4.600104740552507,-2.351074870531504,0.7198145989026353,0.234375
-0.9136365692964127,0.04918024349763037,3.4678457137368564,-1.8512568265664238,-0.31731408471561734,1.285901487858878,2.9722228844894705,-5.019342685880481,0.03557090306012579,0.49789658870899567,0.7867665356328365,-0.2530593422100211,-1.5112090627621715,0.7681918919511871,0.2421875
-2.030212218986223,2.0485608737825385,0.5089287595151896,-1.0466028869583168,-0.6989597113431714,-0.026154158749642175,7.109120242747948,-4.739870047387026,-5.724741844596228,-2.9566240456732786,0.18338732525593598,3.1580186862669617,4.038449272015215,0.17830308528836925,0.25
-1.8920054704166047,1.6890799468332716,-2.262115375669246,0.06758070085085478,-0.952333320678437,-1.6210545330222692,8.753050880039261,-0.6001701968798114,-9.756337908401845,-5.5436985707750335,0.4943675979932722,5.441578753626565,6.912817927808432,-0.7231817995751201,0.2578125
-1.4703650397049512,0.05218176998195091,-1.6417765206325412,-0.4957497379423524,-1.0615076933051935,-2.3501648159878865,9.180553074935961,2.41506517303231,-8.27477975599224,-8.994907549235974,0.5219670421773137,7.708498064455054,5.81434366453205,-1.3913844409566563,0.265625
-0.4685609928442452,-2.0423810789546963,0.24711428525404142,-1.2346493265582894,-0.7515525797179279,-2.1077262293905306,6.442047339939645,3.256026831631396,-4.426706966360867,-11.049600635791775,-0.982335506348636,8.770419493867877,6.029797745882887,-1.6711671123543153,0.2734375
0.6078659863046609,-2.6110450552868327,-0.0693336888054812,-0.2693236292532114,-0.1905960759481085,-1.4475427720571294,1.5293093924623995,3.3094908763030655,-1.6398283956583097,-8.218507030987528,-1.89048217978672,6.290175701030909,6.025712878667487,-1.4207828901305515,0.28125
0.4467395622180202,-0.2531841181669024,-1.89453421046968,1.5333520089979529,0.1591231471743813,-0.42364059519191133,-1.5607304009534322,1.8620423680765845,1.2533687506325795,-1.433620334751287,0.011117668258522756,0.7445439017060048,0.03045191079510655,-0.47631035845664893,0.2890625
-0.14254130641384108,1.74055441548529,-1.8972728910492058,2.3431325066580024,0.28814780488723046,1.1361497470648236,-2.5474790709798674,-1.5353339357735147,5.40027429320479,5.397579930609302,2.2772241798002235,-4.92115198689334,-8.385250266550313,0.8385802946568406,0.296875
0.599748842951592,0.321980582105388,0.27041590861465015,1.6837062609168398,0.5491834711408035,2.389484228574874,-4.6079441917845365,-3.6180145663666403,8.116809146355232,10.038155314580406,1.2937876890936868,-8.539849584351561,-10.245704767820317,1.7362066603796351,0.3046875
1.75142666470735,-1.1089454838251327,1.6895705446367382,0.127551962574483,0.8973188954165887,2.0717172492789193,-7.6338274820394245,-1.4651115986797005,6.634337739810634,11.483563506729347,-1.2491280082353777,-9.18614945132221,-5.682830416867322,1.6587339205571805,0.3125
1.257923058921738,1.0123796812514851,1.1463029954168042,-1.4495849003886354,0.8847564568437308,0.4880936935803862,-7.9349360903058095,2.485299090891429,2.304364456245858,8.596085400623087,-1.0726439939868293,-6.506940954299201,-2.0177955338619786,0.8005340762811979,0.3203125
-0.20864178585147763,3.4243969680915622,0.32419001904614186,-2.121563464704442,0.4375221000301469,-0.7450010626267207,-4.511028462066511,3.97003879393988,-1.1137288166666937,2.959016612511666,1.078052878272233,-2.0911358511131746,-1.3203685571315567,-0.08195527406060114,0.328125
-0.6463973124604447,2.3749399520781935,0.15082986633692197,-1.5956969823862464,0.013490199592430842,-0.9227850801119549,-0.6030349308079466,2.7175419672275907,-1.843383083778391,-1.111536151685774,1.1388377012248667,0.9933027340100199,-0.23898096276425243,-0.4246588824111187,0.3359375
-0.2029428928663792,-0.0524634548986794,0.15637626820438816,-0.5441731351983501,-0.13414871802021408,-0.5292623995298545,1.2347814007385762,0.6910238693577534,-1.3489696816959729,-2.664395476117756,-0.3825434085836206,2.1810558470520074,2.000880328387118,-0.4014112031890036,0.34375
-0.17734774440862977,-1.2944557831466292,0.7364645316484087,0.14721432440230428,-0.27329475849027707,0.056361006369337205,2.102974829574214,-1.6425481817275567,-1.5865618547260802,-5.127097979870584,0.17746818314666857,3.890581291798917,3.5191995751847407,-0.5225943165436451,0.3515625
-0.5559645726163286,-2.166403018491753,1.7543315878401813,0.1724724338677825,-0.5960294666952038,0.3405475072199095,4.270864721587594,-3.358899915667768,-2.4432397651250186,-8.861846616053853,1.615013158323228,6.562375462099983,4.096059457195779,-0.8199487329736157,0.359375
-0.7909493093823724,-2.5418625316645045,1.0628786258833123,-0.10578797608750187,-0.8597029502879823,-0.4231613179496636,7.628337521354338,-2.4261763869610165,-2.9193773967419476,-9.492598467582528,-0.147161854837878,7.379808987741913,4.5159024393893,-0.8694675321001676,0.3671875
-0.9867945046384278,-0.9506679095149787,-1.3907979477654606,-0.12347739546645785,-0.7992443258057053,-1.5120645515534137,8.97826510242219,-0.169837442970852,-3.3082612028435183,-5.812074347305705,-3.0897189808339256,5.203103426969053,4.513527242517616,-0.5431131637832524,0.375
-0.9584645702161038,1.164989354352133,-1.9609425930540008,0.1812620082877478,-0.40522604550064156,-1.0272111375627488,4.957388037160621,-0.21610377028184247,-3.5855218221118306,-1.6321957714570536,-1.6615510015788002,1.989040321911074,3.3072034028348765,-0.14976193529235993,0.3828125
-0.07192326302764061,1.201470257112744,0.2937386892119311,0.4786067552256888,0.2157409321922452,0.8854832714131385,-3.0547637325854833,-1.7640243469378944,-1.3208112771389158,1.7111348366496606,2.405532469834278,-1.4211717098668926,0.22376954907613356,0.21183250145979507,0.390625
1.3278075001820706,-0.44006315182234057,1.196501020749248,1.0490491522034808,0.7721549030151452,1.9581311174223535,-8.29198751845223,-1.3846199933941454,4.35850477209677,6.182839613129014,2.1578013900955764,-5.53854992307951,-4.120244103811699,0.761019546759756,0.3984375
1.9683779420949785,-1.8964746905626202,-1.0243056262440078,2.22523256154831,0.8067067904974817,1.4725168322566595,-6.162468375916076,-0.1764831650803149,8.417169429095166,9.948141358588067,-2.184625220075293,-8.264189385761643,-6.470428548282385,1.3275009110165823,0.40625
1.3235641432137664,-1.921729149107191,-2.5548248070636945,2.579760072129317,0.34561946025482126,0.6716176071821127,-0.9568974251720725,-0.42568026741649184,5.787098845192433,8.789035386414424,-3.6611520081791227,-6.78887116212508,-4.477612893493134,1.2786634847620284,0.4140625
0.138006435645584,0.5134069895808375,-1.3539360101175144,0.50531851139507,0.08167067915135279,-0.1088233565090525,-0.026269354412875368,0.5762305546071946,0.012071667572530252,4.433305980491037,-0.9463221982999668,-3.0887902694046976,-1.26408152400441,0.5207710514389542,0.421875
-0.5984263284638334,3.9083379444791393,-0.3521811390500803,-2.0170373828537476,0.2987554402083285,-1.0795311939523176,-2.7602778814122555,3.8777587550177035,-1.5809330493309608,2.0668488851822886,0.6024105378974162,-1.2700850212112966,-0.9457284696418724,-0.15215063353956929,0.4296875
-0.5778815646376761,3.8068110560003845,-1.017990662260672,-1.4491486691469437,0.34185819028958764,-1.1750393456552115,-2.522378366238755,3.831443477062418,0.37149605290645793,0.8862244277977912,-0.27262342626922903,-0.5726891619447773,-1.3877543251026863,-0.25927038885295756,0.4375
-0.21918730504111503,-0.38637458502301797,-0.8281349066412503,0.950232247484471,-0.18689213484893202,-0.19951079627972523,1.568024281390726,-0.5339756448846033,-0.681673538001568,-3.5182222474574547,0.32948512410238945,2.5787777558063665,1.5821100426832548,-0.44682642067049827,0.4453125
-0.07910051032575009,-3.236609503377588,1.3499530071364436,0.3075683267442453,-0.6960460382962456,-0.29209689300477015,4.011614077188116,-0.6923345071165088,-5.127949681202422,-9.541122715003311,2.5347085977030552,7.206983911287008,5.5535083580913875,-1.2870199095778256,0.453125
-0.38969334367246594,-1.8368250378172053,3.354140896720525,-3.453759243034808,-0.7235471436835265,-1.8774191045471404,3.5643260345210916,4.872129138641037,-6.963896903250838,-11.150337105785821,2.8441588930931414,8.700197349168537,5.003996841132554,-1.929690640430347,0.4609375
-1.0802723013468933,0.6170043285967233,3.701812625452405,-4.90029496137653,-0.5920688982424768,-1.8544918164961093,3.836604497233814,4.723986759085948,-4.219658599763225,-6.926289078134986,1.727855151568114,5.603196747042162,0.5271063453229791,-1.154125965500801,0.46875
-1.5794581090149538,1.7232085233269219,2.819614308981278,-2.0174071137869034,-0.4046233543130957,0.8415729722730116,3.614429744526102,-4.220588802784715,-0.46250009222524097,-0.6891191080598681,1.8952781532878975,0.6030666049144149,-2.6570450689582157,0.5368031053921218,0.4765625
-0.8115795544287905,1.9429372000592815,0.9992480729426316,1.1224985458739138,0.19263866748559003,2.5536128568018173,-1.3367546621573871,-8.124608884750115,2.2397508814708087,4.124165651304901,1.7743153523655613,-3.42675628844989,-2.5713962757282056,1.3185424389906364,0.484375
1.195899496895453,0.5183768477863074,-1.257340290091517,1.859187850934366,0.8594920622781009,1.1759700353695208,-7.261997883022029,-0.8133781455860902,4.094069032542784,6.078318163648724,-0.8713676740367979,-5.051309544713304,-1.2209551831654186,0.6869302365106474,0.4921875
2.290828987056902,-2.2313939755212773,-2.4533363880641716,2.212323449310737,0.771712255510219,-0.10941878253364504,-6.297759908838075,3.796360326187058,4.2474448005231045,5.2769481425072895,-3.023530976837409,-4.338744516858978,-0.3096093650177644,0.15662795491093875,0.5
1.0528330123877172,-2.4584907015267596,-2.2772906526718786,3.502471721939335,0.1619700364391942,1.1383635043358795,-0.33821026039012964,-3.1287685254671764,2.8486932751496976,3.964332473143206,-1.9849154177178618,-3.177521902353586,-0.06710052077206052,0.7516381721642214,0.5078125
-0.46775945939511515,0.1631851236992156,-2.314352842241773,3.949725170626619,-0.008886694819039396,2.2213252156611256,2.140022363008346,-9.09082792206564,2.441509389400879,3.902108411348829,-1.2103668352771155,-2.9954159132991447,-0.11336707444596218,1.3751445140399716,0.515625
0.024040710375202383,0.389267751810209,-2.784341298379789,2.4392708161041226,0.18575745418141176,0.5108837441187739,0.751021923909662,-3.0159781804859835,3.0417282320085857,2.798120404743031,-3.1329485825345804,-2.0580997331092474,0.1610046783444858,0.6881894453329014,0.5234375
0.9554388505412026,-2.2426081756698255,-1.6688064111900143,-0.07397581649495602,-0.0693569218555077,-1.9411881936914548,1.5080508950620708,6.1317624708583995,1.1988788287962955,-1.976036701801571,-3.340527373837624,1.613342505694887,0.6653648301433291,-0.757409725944687,0.53125
-0.06153916865233737,-1.7186519425528306,1.1408243672059792,-2.4901493151555814,-0.5878331140669053,-2.3545220518207466,3.9083025560947373,6.875522236180764,-3.081308570505751,-7.190363234656536,0.6368089953276982,5.601917314543169,0.8154540458706433,-1.4865971208310416,0.5390625
-1.5291130052947817,2.228784061119374,2.68113921547241,-3.771539566923622,-0.48689299813346043,-1.3841239862092083,2.754303730152049,2.738776715299704,-4.809734435270458,-7.137263554172157,2.9627137256093463,5.665635070375072,1.2156898729120584,-1.1164827849562422,0.546875
-0.9612447250843424,3.0615657202091167,1.8619701405947886,-3.1255902674927323,0.11747847323107095,-0.6585165309956447,-0.816858830475839,0.9430060137320869,-2.029979585257068,-2.196928726009737,-0.23916350235348746,2.0506996802155353,2.325948525979075,-0.32188073855933946,0.5546875
0.3669368364718901,0.24342819076018218,1.1037361301203357,-1.6276937750653253,0.31980227935575395,-0.11369935765984708,-1.6696298032128944,0.49115310146351693,0.6691938798419799,2.0590076298199342,-2.9487906552774454,-1.193666354604412,2.0067135180231466,0.29675477140683376,0.5625
0.171820172402287,-0.38607871291557555,1.1785826508182042,-0.8100236287895848,-0.01854780361554626,0.3850086786828676,-0.1805478717328248,-0.29033492891979346,-0.7323132705278121,3.4309007948737826,0.39555053545653357,-2.4079469195571717,-1.2464909726382614,0.5066982146010756,0.5703125
-0.569822933881408,1.6470218006773734,-0.06372321820038739,0.08110499574231503,-0.22660568430028863,0.33828053804800456,-0.3414274618979958,0.4981196222101283,-3.81418060489197,4.3548706373321275,5.288701022418933,-3.259329322109542,-4.309858448407155,0.37033340288728617,0.578125
-0.26074369097236855,2.041037879280427,-2.028455951288571,1.7694386282814785,-0.020680748025634306,0.3326383907144718,-2.2693273957301145,0.9423583176410876,-3.674839820231706,5.057930022114006,5.528824335586744,-3.9312213423076066,-3.757715485073504,0.26340519121395733,0.5859375
0.1128322510045846,0.762755479933826,-1.2280409183313217,2.2541122161570035,0.21927343517042255,1.1666058861300084,-2.947398885661329,-2.428563141936281,0.06220848475949772,2.6672161083068864,2.6425721568726206,-2.385608442862867,-1.2663964093613211,0.3611223040298132,0.59375
-0.17649351067064237,-0.26769292445703924,1.4504547029856698,0.715050546437094,0.15079354174962895,1.5882562943455827,-1.0903075255415962,-5.281861654083025,3.117781971988683,-2.233308420296416,0.30549971491351585,1.1514984054221058,0.32379793170231974,0.24253034931764159,0.6015625
0.2763260476815143,-2.535169115093251,1.246534691509032,0.058436965184328914,-0.13977609765103843,0.20652882883647483,1.9488589229544944,-1.6629897511310616,2.7626127668039184,-5.37069813588985,-1.9018007689605863,3.7418416257011633,1.7663515439645476,-0.3953011898532011,0.609375
1.4940962650679745,-5.4896835536702735,-1.493687673936558,1.4199408322341345,-0.3281253732172211,-1.4824531894711375,3.5178949044354244,4.054048263974415,1.0751302609577797,-5.6804501894912045,-3.6730657665162934,4.244293781468861,3.412686641984281,-1.0652505877717728,0.6171875
1.249411799836074,-4.213771847672929,-1.5858556734307032,1.5642938030033802,-0.2141147687256326,-1.2338353924831096,1.91328842489808,3.7643072233890504,0.8577299970519129,-5.289969105449108,-2.094132830609474,3.788718702910292,2.564390488285361,-1.064846336169221,0.625
-0.5991935339241852,1.276192385520052,1.4334925929365832,-0.8764006722286276,0.07215760119876899,0.33332090257941355,-0.9161802001131689,-1.2414244747774275,1.634330899613243,-3.335218862536556,1.193673165493578,2.115224420795376,-0.8174256882527525,-0.26752808269584516,0.6328125
-1.504947704677335,4.349997441529164,2.899716534043887,-2.7799656745211,0.270033770442253,1.1181742320835926,-1.4576425269921178,-4.183201109968458,1.9739115149660944,1.9730054884725716,0.48706593866971337,-1.4844277197566973,-2.498917161882567,0.8411111121894327,0.640625
-0.7080902724644998,2.813564586218842,1.3064968445813006,-2.1416978317747075,0.3208825658438958,0.7314941182418349,-0.08932244134399388,-3.3365742726161343,2.1267198124277646,6.745688073070887,-3.5901917474429634,-4.492160055045859,-1.132625018976597,1.446544986477793,0.6484375
0.09634259317546713,1.0619275149996303,-1.0457334412587584,-0.2707388201413956,0.29047389498737897,0.0032756678311763594,0.056805149352890154,-0.748381131453617,1.8376413356406938,5.964674635923011,-4.311305114137764,-3.955120540688549,0.03400370740838647,0.9830575106419451,0.65625
0.3337158830510207,0.5916269301038617,-2.9617445122553705,1.458315695997781,0.14214080358407136,-0.7812211824930153,-0.793978898900763,2.6161762632062118,-0.28546539277532945,2.150901904902608,-0.8632592004851372,-1.4947641532490494,-0.03620645667626778,-0.08067587949427447,0.6640625
0.6996418765063617,-0.7757789728458655,-3.5427198648109046,2.011167213851503,-0.09302209594113674,-1.3498353548639292,-0.1308073202076034,4.907387896695462,-3.2383093535139946,0.8347427862174808,0.7738621642682646,-0.4399610598177726,0.9394537932369942,-0.5993181718294022,0.671875
0.7469912852736844,-1.7455970990377032,-1.3840272890925034,0.5618224126490741,-0.1759525042368196,-0.9015213096375475,0.9773602381584453,3.067699656699896,-4.15306470272211,1.5864452492232304,-0.46495365523980453,-0.646047981848766,2.7498260770807925,-0.22163804344484322,0.6796875
-0.09055839801464496,0.0021505410470170254,1.4233212891214162,-0.7760122111184846,-0.029100450858064928,0.5675862611184167,-0.21063766363450856,-2.0088493096543054,-2.9907410431744297,1.0920386860707187,0.4906180374058941,-0.43970402745835546,2.6922276386348014,0.27516607554257183,0.6875
-0.6967723420613006,1.6102086561664246,1.2681277123724812,0.5986983018562511,0.05745211682535604,1.6138418164987012,-2.180001366794803,-4.823035509473997,-1.8028818516401264,-0.691571930825609,4.164271651966923,0.21466022006408883,0.47932075670361574,0.18612384246263594,0.6953125
-0.3160248070570005,0.13448067342876702,0.12166093520965,1.7066378015190442,-0.13116984810695564,0.9537114521688872,-1.4083075325019705,-1.8658390268380938,-0.6103463845002286,-3.0200912279757275,5.474791140073271,1.50323473479694,-2.124017892865608,-0.41776544796029924,0.703125
-0.12476250380178233,-1.4325768527850185,2.070771478286972,-1.4701978031143108,-0.39862073242383833,-0.7622266403031831,1.4856204485079028,3.6035366668522717,1.0478103776241812,-5.938497198712647,3.218853544136592,3.8040675690452757,-4.093984988500315,-1.0059650804587283,0.7109375
-0.6849965447500596,-0.3183881307451683,4.271070254127641,-4.711494965360362,-0.43039390056905735,-1.449459784555952,2.8882569438978805,4.8505311862851155,1.6337337603832705,-6.6565436045564095,1.1395700746246427,4.697905065000723,-4.255080299991073,-0.9698729098133686,0.71875
-0.6736895708890578,0.63238588227588,1.613103392515951,-1.5995015655829206,-0.17322722696071816,-0.16322720973679866,1.6505334542085361,-0.13823710097946812,1.0495018403177323,-2.5520920493366055,0.3641627819654243,1.8021976660402577,-1.6556841041991774,-0.1530070461395462,0.7265625
0.2945969274420507,-0.5305719977900855,-2.944402468087475,3.949393397360311,0.1660319923707476,1.3505747820191831,-0.2107444298016002,-5.155055598918103,1.5283594903875426,2.6763339967607327,-1.2421195946310395,-2.1182715459335517,1.5306360288938414,0.7058902500765972,0.734375
0.7404429462869307,-0.7371061696472859,-3.382881185292627,3.474781708571875,0.34227857591818994,0.815204677438625,-0.8059432028750425,-3.3165865280128424,2.284682964488191,4.353040365560381,-3.6642674927934125,-3.14776001040575,2.2484401195239774,0.7944076361121861,0.7421875
0.28018465815010934,1.0684484039730406,-1.2205237659494732,-1.3626524968451978,0.27298290318257956,-1.2518275727196146,-0.04987408603432851,3.250876549275917,0.2896206973113026,4.1478448937696735,-4.8670834095104905,-2.3782751044930563,1.4706441185054353,0.3469382363683355,0.75
0.22615798951331517,1.0809940410816739,-1.0319205850000863,-2.556472053307088,0.07882876458914215,-2.199518625360492,1.0698724283027117,6.229113392254332,-2.6482113703180263,4.106272666597155,-4.440509266274255,-1.9750928803499748,2.0064781464665153,0.05088839778978877,0.7578125
0.7216600629570032,-1.6090715292447624,-1.2026681136816446,0.04634756933670189,-0.05846697800168587,-0.9579935385611811,1.4238843243820125,2.4369828766144255,-2.0805791780881133,1.582990381317715,-3.0640894796812024,-0.5462744175394563,3.3390355779850887,-0.03266062147549526,0.765625
0.6057342293572192,-2.7136647588499203,1.4855095451394569,0.7087402502004639,-0.00815806939017793,1.0540516098601236,-0.08858900320780416,-3.380979695274148,0.8197239558136429,-2.5599641955005517,-0.6213564986048042,1.7218257491259714,3.003753146374855,-0.024363352753719057,0.7734375
0.08808961215077077,-0.8226650243671939,4.09393167223557,-0.36177530673759634,0.2427607984601156,2.4185034914883166,-3.6725974404954553,-6.153888726865279,2.0482452493142485,-2.253507383524046,2.7536524747985522,0.9636531296000471,0.4125441640169642,0.24486189235156233,0.78125
0.2188737513096002,0.33683354794405024,2.6551679179645205,1.0591891777744291,0.4245578585078956,2.7741084693135023,-6.510657616816723,-5.308647459777281,2.248987547469413,1.3196152058925978,5.651272776164036,-2.0884822922790796,-3.243014330833634,0.4602876033681722,0.7890625
0.3053159067725188,-0.42239968147493984,-0.5297068067400019,3.2244387903609923,0.1377845014273324,1.7207407827114471,-4.091389047208528,-2.2544229351970944,2.8751609476829016,-0.22837427933024473,6.26027962622661,-1.1814992437129337,-5.7558869727726645,-0.06270781726841142,0.796875
-0.7833773851074792,0.2598309253896792,-1.4871498483104009,1.2016814932906104,-0.478490199226456,-0.8329317288769069,3.0441286409715067,2.141540300499227,1.1301485204595412,-5.824797270260761,3.466618029292022,3.681716765488669,-4.580600007123663,-0.9369004795028877,0.8046875
-1.862657576313323,3.176434255283635,-1.1920513672354125,-3.191990968664696,-0.6649886948257352,-3.2089795213180836,7.354853248381928,6.149905592258777,-3.40800283246786,-4.786468129463386,-1.6066475038394346,4.4648162022366815,-0.28964515799055973,-0.9305260129122843,0.8125
-1.3110850201938022,4.718701203489753,-1.999132371065365,-3.8288784670595266,-0.1229697413498523,-3.127993214837307,4.105480866217929,6.292152237621102,-5.259173480386006,3.6043984642024385,-5.063401603835582,-0.9642691061126549,2.892164470312862,0.06501014789863227,0.8203125
-0.16289223852726936,3.278237521048191,-2.435456310320448,-0.5529544178188467,0.4198344919787157,-0.733199309351865,-1.2974694705376486,1.1428026184631184,-2.2943447731862383,7.617445714669753,-4.0437087956364275,-4.6466375048423645,2.862434524965468,0.8427305705471979,0.828125
-0.1390170193767121,1.2247781466550334,-0.7690292705585409,1.5163019504836124,0.31435285664749374,1.3243465514551656,-1.9113926061705129,-4.717283646579156,0.6379943383290381,2.675578905817434,-0.6043667815195989,-1.9869832095803375,1.7321189871382123,0.6994847550113286,0.8359375
-0.4308094918934733,-0.23754627667866085,0.7628849556935724,1.1269628942043288,-0.08209607501851401,1.3163967222062098,0.5169502973979255,-5.055304070509895,0.7314736787891921,-2.730148874422587,1.2890963356415406,1.714628846551632,0.9746847680174863,0.10220650366520632,0.84375
0.5649758021781336,-2.7473801828532127,0.3047042528633775,1.1033609413023648,-0.21754669893078749,0.28637667841821646,0.982512467769076,-0.39949289188867726,0.1535331661996854,-2.4312295878479873,0.9441153016958957,1.5216300836857743,0.2481663935559833,-0.31354960700244494,0.8515625
2.1750338060467227,-6.478948093297671,0.521680178423357,1.1450936061502393,-0.22374807031791805,-0.2170792437649992,0.27339123872771076,3.4956438106463037,-0.1810044572431244,0.08561365318883704,-0.076360746624824,-0.2878746801957718,0.15453755257473709,-0.3857632596426987,0.859375
2.605794434969013,-8.22819351887454,3.2217249561858843,-1.038316091402049,-0.3053209107970625,-0.26001305168734096,0.8958232725380018,4.322609362346435,-0.29857857877883875,0.6153605112814865,-1.1695120560048817,-0.4741807781877928,0.36542612215268777,-0.25026542860294065,0.8671875
1.4666237008529353,-4.993415208852963,4.464369328726448,-2.9561888766653346,-0.14171100883705592,-0.19360166459614225,0.48369148503436793,3.096946392710345,1.8603680276299992,-0.4021037655323276,-1.5451575258331103,0.21122881292099566,-1.2418411461159808,-0.10477802173583058,0.875
-0.39252465897043404,1.9557114990757547,1.0187898771155768,-0.6401352290838561,0.38012343142560945,0.5075585106319908,-3.0359900091597805,-0.8639485042537619,4.974751631780519,-1.6453287101390952,0.4469461451056076,0.522088133467378,-3.179739365159448,-0.04628976104424193,0.8828125
-1.8944687866648462,7.2063693821342305,-2.9979325612473895,2.9991095075150134,0.6414747307267447,1.474794493726131,-5.473989464294663,-5.878449105345048,3.245525081575795,-2.538682308481327,3.833069698324703,0.9409112358309238,-1.5193425972142511,-0.04149375075800127,0.890625
-2.079633420083652,6.5020769772186675,-2.749139080007178,2.4000009554976023,0.21267657957719155,1.0404563506529547,-2.499558052993833,-5.449927690241697,-2.744947956397123,-1.825901091249519,4.69092668418339,1.1500205278546207,1.4048849425571321,-0.056131784908993364,0.8984375
-1.0566086657231244,2.1139383866432757,-0.9031536923201202,-0.6253954105565627,-0.3618989591125044,-0.7459362433438248,2.9669716589613406,0.7189365297378956,-4.781903170031262,0.8259746992317005,1.3875046727514881,0.0033139379514063524,0.44885519005351365,0.009389026275349857,0.90625
-0.19930939683616788,-0.0947405700945254,-1.7576922275016247,-0.777386883840462,-0.35587611309896483,-1.5959188992147946,5.003872523412738,3.416119862875808,-1.165400227779702,3.1248448167494614,-3.2532966973883273,-1.5580610918300863,-1.0700224560093947,0.28600363108566107,0.9140625
-0.11172102706430488,0.7163070928383496,-2.621809930013569,0.5014796532722622,0.06894420470563534,-0.7902586501628254,2.731825717054482,-0.11557643080474214,0.881264351072283,2.715995717837202,-5.588356219114722,-1.3148887190722194,2.4225407771824177,0.5057460729629001,0.921875
0.11045702449534502,0.21701677283690984,0.6058066970674685,-1.1775687128756607,0.22008265689659903,-0.08733278480604756,-0.07837345776734918,-1.3597854004186283,-0.8330627751714668,0.3960323508606179,-4.133135148692707,0.3659427498585026,5.514952641864291,0.23756875676752445,0.9296875
0.6138179608919938,-2.078693129570534,4.600924563766354,-3.6005997662194815,-0.03583202390155528,-0.049974619081172254,-0.8775985819113327,1.8075443667215965,-1.2091956815508398,-0.674482211874667,-0.005513414858268763,0.6815871393758627,0.9707425527713417,-0.1450212962781968,0.9375
0.38685502692012674,-1.950202290156255,3.935678004989713,-2.1356205901644145,-0.19042559075130916,0.5833304912232066,-0.6415665399154931,1.1612652728419757,0.5855820319332969,1.053051620180329,3.384213214916871,-1.223826435784214,-5.0801043921887885,0.12915713432527176,0.9453125
-0.09723191277969072,0.25846133646806485,0.19423207509019735,1.4730373080640808,0.03968681730117507,1.514554863261665,-1.5019856932747317,-3.3090733171587425,0.9911829991159485,3.10637339775236,3.243820251718639,-2.8147476568044105,-3.733909297934156,0.6327651767980881,0.953125
0.7123300023524745,-0.3453633292013488,-1.9883577451354755,3.0155574187155176,0.3569998475912803,1.0177001581070309,-3.6514388027430376,-1.9476384111433418,0.8997379995573541,2.078796857836274,0.9434549834689826,-1.9525107412572422,0.6553529747492037,0.20456293124021296,0.9609375
1.8794574808106226,-2.833861264617115,-2.722649375812022,2.927353035752909,0.38577526005113516,-0.5811537589035504,-4.402390489554251,4.553359529779153,2.6172581401506165,-1.3782540404467276,-0.1999110700280169,0.3215301152704569,0.29722570099817336,-0.8614509969870957,0.96875
0.9286499949133773,-1.5265817430411477,-3.7591600177459683,2.91417310868234,0.07678594317098025,-1.301297978293097,-1.1257977321319426,5.238715427231388,3.188676666355227,-3.803338243721615,0.18748974861188078,2.0874264390251556,-1.9796774569679867,-1.1233760220094913,0.9765625
-1.4037788335614207,2.178397506863143,-3.029444563196652,1.6622444317219904,-0.3682471279744388,-0.7735034836752429,4.304390299989161,-0.6495920696717065,0.5008229601932856,-4.513109980883785,0.4352342661107955,3.266368462323372,-1.1350840212862796,-0.473352766861774,0.984375
-1.930439444275125,1.6400205439046094,1.1014614211249265,-1.3455588988598433,-0.6380577464956427,-0.16306613865324304,6.597076496760967,-3.4633197457379183,-1.5551638734383484,-5.286096209338693,0.28465899571843817,4.288192449986219,0.5966599165717191,-0.12383845799801162,0.9921875
-0.4883223685466967,-1.9466355691040425,4.953284848457546,-3.7140601214554896,-0.5147970731282541,-0.05771080293579459,4.1761411272925475,-1.002750587740423,-1.2528198805657056,-5.293961628976764,-0.20860410240040134,4.21518834023886,1.4490337125291897,-0.3086253052886678,1.0
0.14711633025332257,-1.5367987993913874,4.580792022012172,-4.232154765474612,-0.15828922154610087,-0.3831958578081927,1.2645971768436766,0.9111470774458921,-2.6145480255023807,-1.9042393024056492,-1.7485262193384978,2.058675245249985,3.7733129991498195,-0.15312134707819625,1.0078125
-0.5244816941636213,2.4507066759642218,1.45242012280187,-3.6530147092616874,0.09439842077106791,-0.818828831766783,0.4478544278576518,0.9357863678032465,-5.771327178227021,4.214355573280586,-3.0288753118915324,-1.7330068520977622,5.425300395665409,0.5085978564711097,1.015625
-0.4354340873810082,3.5456315151700255,-0.9591587623255238,-1.6639964524129793,0.23461627193346143,-0.48735051582163236,-0.9615256209372565,1.123652685435627,-4.865566109774951,9.422824015272141,-1.6330025345615051,-5.848240443232669,1.4590872169739222,1.0631750993365383,1.0234375
0.7006808067734694,0.9886909231985579,-1.8988550364101635,1.7272565517898775,0.4291625623399263,0.9360467344029696,-4.029007572058968,-0.04315533734593311,0.8375820467712858,10.94952559775349,1.0096633421381542,-8.260066148612841,-4.632498694995058,1.2771344577688526,1.03125
1.2344348795700646,-1.0937889279199344,-1.8047728903011446,3.8619744652807237,0.5333436985215074,2.090655497097465,-5.1586449959427165,-3.137840322925212,4.864557289515258,7.620581585537974,1.3958286264899404,-6.570910801481439,-4.953131333756041,1.1103074731590294,1.0390625
0.9091077022983116,-1.8825875676794268,-0.5756597091358787,3.051487429677376,0.34865103428935484,1.7505597286496999,-3.200110688549307,-4.053430950339195,4.479845688681832,0.39409091775254346,0.29917429970545506,-1.1230944559926708,-0.7266395534231401,0.32429293043334906,1.046875
0.5672442885270201,-2.301161406939499,0.5073165503682902,1.5397626886990439,0.055556731179216876,0.6137380718452781,-1.3058476344273653,-1.3768773565702166,3.154074823917413,-6.259704697164945,0.8771077193470863,3.846168922175372,0.8238863146057558,-0.7412218949942404,1.0546875
-0.04321683669895076,-1.0440582302564614,-0.431697662942317,1.4556869396957548,-0.14416941340902045,-0.20318470751037054,0.004774608176558447,0.6386971678940496,2.145201178707731,-8.295163859846479,2.3615475996734663,5.327563640084641,-0.5616215718122906,-1.206860989852785,1.0625
-1.1137723372745891,1.5582039934650438,-2.0101354161683935,1.4280940821241226,-0.3090392992248834,-0.6895118118027369,2.423903857668799,0.03667596029125121,-0.20424125452520497,-7.204257231035487,2.0668485451482845,5.023864280205423,-0.008890187125394735,-0.9924381693257849,1.0703125
-1.366997100422147,2.139779478756829,-1.1692007440239398,-0.152816247598127,-0.3512503483472539,-1.019703828215066,3.4932505865611856,0.14172130615599485,-2.1070364184455803,-6.157462357770663,0.5473673205642418,4.798743307789051,2.004447744456595,-0.7950688964181825,1.078125
-0.18538854788749942,0.023226479330337165,1.211349847514301,-1.9638418626898442,-0.10817376599997455,-1.0532446732559124,0.8431021179670999,2.7521517869450896,-0.7094695905525489,-4.132024800570945,-0.5592866565158725,3.21581164528115,1.3887922019123684,-0.718380366097365,1.0859375
0.9506033590213003,-1.7450259941000599,1.4615058261986649,-2.0492550559965044,0.10430291501552774,-1.0305246449380006,-1.1577022937717767,5.093114621864708,1.3227413350429802,0.20306913886475667,-1.4921470803208003,-0.16521797083433376,-1.142431449284159,-0.3507859856423287,1.09375
0.7549813768618674,-1.398653367566605,-0.30805584413569737,-0.9788174304004245,-0.057009113606949546,-1.0711373688814971,0.8699547693566518,4.505585932617594,-0.08459221913774276,3.8312554356016246,-1.8430210044200661,-2.5288251176354386,-1.8595633158354632,0.16830359250166246,1.1015625
-0.1431680820983479,0.38290829096192125,-0.42831843845069384,-0.8983713817341727,-0.2034618933549177,-0.5938213736127185,2.1758854458364465,1.6046293084226513,-2.8381097314051384,4.749117714129448,-0.6628990573329984,-2.8833533044335367,-0.7816995812698939,0.5201045429560475,1.109375
-0.6008753581885977,2.220429009243681,1.573602243953246,-2.1652042348959655,0.07070688275462556,0.4088748687393066,-0.2701085382472355,-1.4202591719541826,-2.70514575906413,5.7031131458767605,-0.0925989667190201,-3.60105811838906,-0.05305497736630251,0.929266260470711,1.1171875
-0.4434671188236483,2.3004422347019373,2.210715837200593,-2.5699808115391987,0.30101782606305855,0.9073308623107545,-1.1304829304683757,-3.133166215132603,-0.8607808683830979,7.445610535223501,-2.230851149455917,-4.823849055723177,0.6236548252029377,1.3988670475437905,1.125
-0.2514807169521845,0.5941264736468846,0.2481443957313933,-0.6516440290887563,0.04238567589230814,0.6344632004734898,1.9480351239626343,-3.5605251399388798,-0.4390735395033631,5.974093722482717,-3.5911349903755476,-3.6918053366031853,1.4695637240848367,1.2686950700044002,1.1328125
-0.43585550096955405,-0.017121884654270725,-1.602301572097672,1.9096295085133714,-0.2157764413281555,0.5619474242326502,2.77551822951349,-3.4685445088835407,-0.2557612669814335,0.6697928187457571,-0.3297046793872284,-0.3853046342028307,0.36871474773336166,0.4200004923791704,1.140625
-0.41112366868287353,0.6607133983349913,-1.5016210321360417,2.955949535434706,-0.009098061747602687,0.9957974665513089,-1.1919641640109233,-2.978962072741205,1.425026268707925,-3.300006170303202,3.8083315521966195,1.6282703281821627,-1.7534502984751665,-0.3295088911031185,1.1484375
0.7039002009600034,-1.400378784272662,-0.4754296028679756,2.7004905947500575,0.2388084896107936,1.0349658543549594,-3.9616583733208657,-1.5116501294243054,2.0567770122059716,-3.9965238184396212,2.990150312143543,2.001703926018464,0.24807717906224497,-0.6269165250939424,1.15625
1.9325409443942194,-5.34429922171913,0.4034281160252225,1.8734839595548598,0.0944605574560648,0.23601258620747992,-2.220186836786283,0.6461049043908752,-0.039577683470518994,-5.458053649602451,-0.6344904953547,3.689901007037639,5.809247271113737,-0.9824390784466622,1.1640625
1.080815735955525,-4.0846036778605,0.8793370157984495,0.30894403946272064,-0.16651975141468273,-0.6980657831578544,0.2203828865019906,2.120166395347597,-1.3877024559403635,-8.738371676251019,-0.4506004902004311,6.3623012633597,6.010660894833198,-1.4490383065259942,1.171875
-1.2672975451968282,2.4892549478086483,0.23199381011886375,-0.8442210587439736,-0.20144682398436747,-0.9728023930426827,0.31872062310461935,2.347348044889119,0.247120024163197,-8.587721262904967,3.7883020449366778,5.807264131922945,-1.9973024745693964,-1.3533948061598813,1.1796875
-1.7054660405417104,4.985529714592122,-1.252403368063462,0.006334332626700686,-0.054903627803075235,-0.48732531913194627,-1.0319641798446708,2.081933842024759,1.5822401493963676,-2.084098945643334,5.728458099228552,0.7404746096502273,-8.004216108069603,-0.5027001497000743,1.1875
0.5037159172410667,0.17530874571577112,-1.1143156284368358,0.9665618267427656,0.14737795939112439,0.24993798909492373,-2.18259544595329,1.6754665790120515,0.5535493389536493,6.089256671275752,1.8066110071794643,-4.770397346998188,-4.644729414456084,0.5420362901188123,1.1953125
1.9809301943414772,-3.8871801159038504,1.3841206192722468,-0.8627420691210411,0.2582401878150132,0.48150019288898077,-1.3371730836694797,0.8742076731438918,0.09969328203484526,9.679495585903494,-4.304602373591197,-6.594862587459092,0.9668396988080227,1.2554352147888348,1.203125
0.7852046995461088,-1.817306777587073,2.630500214555124,-3.4750690604429724,0.11948490463315452,-0.19226184615963654,1.9520843381854223,0.47593648281724893,1.4574139840849294,7.659039418114849,-6.944517280758405,-4.721363713608732,0.7243649785923114,1.3377710257868956,1.2109375
-0.9800149020469221,2.4679678192452683,-0.004106590069145785,-2.8286019308687504,-0.06240757666166528,-1.176878549264851,3.9671445180099263,1.207175157133831,1.5562905662412416,3.3637443709143757,-5.035921416299291,-1.70884043845096,-1.4826005277518093,0.7093509776594865,1.21875
-1.3138972911650646,4.324101544090417,-3.049094057371277,0.06940110881681778,0.06473004827272885,-1.175032223201869,1.5477780878940222,0.9647019115084302,-0.07368235777280328,0.05010901670660403,-1.8267243342554784,0.35746351861352765,0.09292665252449475,-0.03576734710308131,1.2265625
-0.8587549182286435,3.3823563408980672,-2.053387166087495,1.2856952357643994,0.27249031597505424,0.1862668925774728,-1.7212430016314735,-2.1502509906447553,-0.19063022572398503,-1.3866210906603198,0.3061042735596468,0.994486074596881,2.0569713264641183,-0.12146973108020284,1.234375
-0.5818875552708024,0.8549703856527059,1.030059841068178,0.5410168531209216,0.04024360788435848,1.2620710861091726,-0.7808701981467238,-4.452288764908462,0.678079813782804,-2.0905652052525747,1.8322920395140982,1.2140371625042377,0.3478310449209816,0.11014176546400378,1.2421875
-0.4161073277696866,-1.3881261819878206,1.2831631374939427,0.14357142674358558,-0.5119117105940997,0.3676205592143521,2.96488186366195,-1.3959752833185244,-1.4696625007299682,-3.357167445597125,3.148976894151231,2.2760347492905737,-1.3542062001033128,-0.2834764735908315,1.25
-0.2525555638408886,-1.799358932628455,-0.7370997477095794,0.44665117402937154,-0.7727833591678578,-1.2282692955392567,4.7311159245301235,3.113289556860829,-5.347285331984737,-4.568822593545494,3.252642628274571,3.6080995019353983,0.5428183885000128,-0.978811000782037,1.2578125
0.07209240804725789,-1.7020969797027117,-0.4549984734144749,0.4640888964116558,-0.4852503477899602,-0.7997460224631312,2.6215324361959045,1.9071277354717127,-5.095397087269456,-3.708711480945276,2.020143589947211,3.049022677184438,2.9267118938177386,-0.8063853302727746,1.265625
0.873982254315579,-2.4726597713636544,2.141667163928613,0.24986778459671424,0.12393522939715239,1.2573302811145015,-2.3124908022888957,-2.5777311779264998,-0.5478785466454011,-0.37571091116901184,0.8154461672689062,0.10137434152546644,2.640006578192708,0.08471391131677064,1.2734375
1.4595329487838407,-1.9184828420845697,2.4243466880648037,0.43502968801906955,0.6557401687397874,2.020651956557642,-6.80680196923997,-3.1550299445649497,2.306931814655555,2.9949416794047647,0.27041658795276113,-2.733366992489915,1.512711951785784,0.5277899638396384,1.28125
0.7497590021604138,1.0614788072509755,-0.4219849609479836,1.126741131917437,0.7450725331250729,1.1634013841584065,-6.58044212864043,-1.7828979419246085,1.718102201978557,3.8486086051711488,-0.30140810396873235,-3.1489890007806363,1.354455243036227,0.4583620326032899,1.2890625
-0.4431755279272651,2.709840588114892,-1.9585622371193987,1.4688185369927238,0.4187992936510441,0.6832653718474094,-2.0736540399598327,-3.1315169353213967,2.066424833396606,2.294911685645652,-1.3898682151782904,-1.7620292998479066,0.568558430845639,0.5388664676215724,1.296875
-0.2691966548259438,0.4808877883044186,-0.38894549158619385,0.18566142154031437,0.10136716740465015,0.19735530473116406,1.0733031647301583,-1.5636302814418437,4.5346814264515585,0.1814188875096642,-2.5085228694142674,-0.3378858623803359,-2.0651240346513604,0.37301670778124624,1.3046875
0.9805487640663388,-2.69362588617607,0.864301364985561,-1.8387076653042393,-0.07353252839526307,-1.6287479972344832,1.0885362294255643,6.844155762240194,4.592338779881383,-1.3122088944680423,-2.413990496368842,0.6520420984112316,-4.520678537384802,-0.5416650949606987,1.3125
1.2836109281642172,-3.644921151835557,-0.058890870914451894,-1.5335435003071975,-0.3452285584562385,-2.5769500046829767,1.8723916688366182,10.450795546953803,0.6309843874304526,-1.934542801810076,-0.44369003810691876,1.3085308994105334,-3.893760836337016,-1.1136672644421173,1.3203125
0.2508632151608084,-2.593347360244846,-0.6143419986642511,0.9277615824480032,-0.5565821022073489,-0.5193145077617642,3.745603811147458,1.5164601674418599,-2.679933242285943,-1.464765307377677,1.529618386835251,1.1862255639651769,-0.3658618811979906,-0.36083617164630555,1.328125
-0.7206271630275621,-0.15214607218486176,0.31945843516123335,1.0632723720584385,-0.3285640904167722,1.236731945416811,3.083286302852864,-5.890543640544123,-2.2618559427700964,-0.14698777068241548,0.8354588492114309,0.3673168410902873,2.0667565472524485,0.5312899088847499,1.3359375
-1.3029366800509088,3.725019497363109,0.02613897836588035,-1.9549135466975596,0.01759924010148429,-0.5996917750479634,1.2644816231701832,-0.19196173451292203,-1.2016531153600587,0.6820197404114344,-1.1822561649190781,0.03364103784069305,0.46610403444977083,0.22395757011377235,1.34375
-2.2384481168094505,7.326245133199825,-2.4043459622233625,-2.8599676937294487,-0.04851013450815802,-2.6752894838289683,1.9506809087183352,5.698810415885857,-2.506415367728708,0.029741920404659738,-0.3685364354834555,0.697553215138651,-2.1722741775600034,-0.4225976241071782,1.3515625
-2.6604666990642714,7.311879781606616,-3.5189682468087025,0.37814481282214885,-0.18274186617943547,-0.9607341933536125,2.1332684120291194,-0.4169209161185136,-3.76238679388917,-0.9913624290830326,2.864920594700348,1.1121653299895518,-1.1145333719842383,-0.18760963027641256,1.359375
-0.8331608880875795,2.1671029663669494,-1.0075541144673397,2.8323749859403233,0.1389378706372211,2.02124676338956,-1.9455952079168848,-7.365160953415954,-1.501941707225206,-0.361526970768733,3.2873535647557053,-0.008138962348245486,2.1961290764611503,0.38152095905307504,1.3671875
2.062040903841718,-4.551793514285296,2.5986837755360503,1.556826396176257,0.5255550701693852,2.503398091498727,-5.729375099782713,-4.67334892959022,2.716674398368191,1.940431372187081,-0.3100693970824564,-2.040566875038587,2.8699474294802068,0.5306566350550147,1.375
2.62712845450732,-6.250174132177215,3.859125879715053,-0.3585844606276924,0.4460569921425178,1.7200292945519855,-4.258706052744517,-1.5832421754144126,4.040425416516138,3.651580426278784,-2.858623700817062,-3.0788756210008583,1.3649997765407036,0.6757413622366822,1.3828125
0.5936979248466259,-1.9048131811331668,2.7228146907907678,-0.7938937887157999,0.14282661304080385,1.4592482658601467,-0.7596934609567978,-3.9689929672610322,1.057645999553618,3.0666367397733008,-1.6555932607811317,-2.1625281101659417,1.329054838920937,0.8688379059398459,1.390625
-0.5691637289314041,0.9387347740198861,1.2724458935014162,-1.206121276000049,-0.08010121680505597,0.36768060754802806,1.101122072762612,-2.2184797402247303,-1.8055967020959403,0.9808616121345987,-0.29101278641656764,-0.3248061456346727,1.433951429838487,0.39489483132454845,1.3984375
0.5273523011830792,-2.1433692928756938,0.6030003743005357,-1.595040619907062,-0.29334476895262346,-1.439902930208135,2.5598817324276406,5.0041100813388395,-0.1968474546935866,-0.7312840418868084,-1.360080727583322,0.7561836020987326,-1.2847615947050437,-0.4119586960835871,1.40625
1.2824731179561402,-4.473796744384133,0.20093823682764067,-0.3947070830747286,-0.3053948191121321,-1.373160106383223,2.597447386749831,5.880176909722488,3.195987670236737,-1.7191278050259624,-1.7318175958231017,0.9713489921389525,-3.5592642395228373,-0.5758878971364622,1.4140625
0.3045449592349286,-0.7719645484695696,-0.7174436146666733,1.3561243039538309,0.05197461671180524,0.013424688355463366,-1.2081666649574914,0.7111571468317408,2.074696568775593,-3.240939814889672,1.2696806018963667,1.8065549953218607,-1.086397546327811,-0.5626624761251703,1.421875
-0.3615437660951689,2.387152036149403,-1.9932712115125617,1.6683529467167215,0.20507784215322264,-0.3716609306088076,-3.9375709338667013,1.3748244502803093,-2.8552402890616904,-5.305670778840143,4.079546119326647,3.5580824653657337,2.7694856023969194,-1.2100769660714743,1.4296875
0.32584303826902394,-0.48847699271040534,-2.676628679263117,1.2308788358983627,-0.20460593779353684,-1.8735837757159362,-0.06988525388533359,6.000325969068535,-4.144157051495743,-5.286314001248341,2.1594089606822005,3.9472422035381793,2.621888518562199,-1.5325346062646894,1.4375
0.48413898016563983,-2.6244506675195334,-2.3210741272512694,1.217855403196346,-0.43810474699769286,-1.4105498501780058,4.5396277102900475,3.4527647449554784,-0.32867751279309326,-1.5435208225310493,-1.9238659986075484,1.3639979720664634,-0.00930953840648131,-0.45369843293101086,1.4453125
-0.8533936102523886,1.8733791488907683,-1.5908462228516775,0.9475688950638844,-0.03143325766673269,0.4565600004456886,2.371352722806875,-3.4428797297419487,1.582555512063801,2.8552841084621754,-1.7230465052433546,-1.9305452070199383,-1.334946141046477,0.8209552389832019,1.453125
-2.0829072007813543,6.781548334086059,-1.1991967018696306,0.2846914320760298,0.2735292518923644,1.118939178387587,-1.689236284363703,-5.129521318620164,-0.676402868207031,3.8217028780993596,2.457710618620735,-2.779274699771136,-2.089718243038409,0.9072025070181002,1.4609375
-1.9514040622257043,5.69527635667536,-0.8549741647010197,0.12357773039640216,0.06667481114702312,0.812204045429434,-0.5890231073552014,-3.7356712832315737,-1.0558632301352653,2.6688088653943742,3.4004346896027506,-2.0164387771631485,-3.2114632566281007,0.6455109845627415,1.46875
-0.9176352784019952,2.0319817427023534,0.3246093936125651,-0.5190528697093033,0.005681615054910731,0.7375707466089105,1.5933795685438723,-3.546328134091758,1.8451237528380908,3.48310287428071,-1.0684128701530577,-2.448349065261634,-2.5017946726340723,0.9748831089737292,1.4765625
0.25820785611064767,-0.030875063328211882,2.575300542052034,-3.038567783665339,0.24624276193141706,0.1613502802693799,-0.08420268815771326,-0.36618302957371657,2.0721450985230856,5.209403651841074,-4.377223264692077,-3.357467221395816,-0.2726141349358762,0.998354560822736,1.484375
1.0031699033468626,-1.8213327640040446,4.486038537946417,-4.96926829090799,0.14151447018944024,-0.7903881418404891,-1.267531418173016,4.646890962348716,-0.545636171140243,3.480949168419027,-2.7507767019613363,-2.0294145965481443,0.1755877725521427,0.23675922953369197,1.4921875
0.9441383118407303,-3.548514480459507,3.8533152715865393,-2.760298764668249,-0.1498735252999693,-0.20946243603811898,0.6461688785679742,2.1953266042077915,0.42026481316680464,-0.94629841766689,-1.0709994440892259,0.7686935307730133,0.005793444822079276,-0.14872550949952656,1.5
0.6373187207873193,-2.9624810584152343,0.8844985828344731,1.5237965174438124,0.09471859386548473,1.2931566587683927,0.23525545055156705,-4.874809180112096,3.83017605431178,-3.729425848276625,-2.439190052264961,2.3877784023824282,3.0782609489438344,0.04216035882438011,1.5078125
0.8384639911565119,-1.5468001178985757,-0.7871166453626112,2.351770422207416,0.42105285776427004,0.8378171390994392,-3.187992770836132,-3.238643232436539,1.7809812225251498,-4.782430958272414,-1.975098389097437,3.233301412873277,6.563897090211485,-0.5051619322587927,1.515625
1.1160658121399647,-2.689415361135671,0.8692803720334674,-0.28288767993294095,-0.09063707021669877,-1.0062267819136388,-2.500328941912982,5.103888995777716,-4.7105981783429405,-5.8172785726630085,2.9826427023647604,4.227391499021994,4.34787296514621,-1.542489008466014,1.5234375
0.9164428417403601,-4.962808609112397,2.067468353346523,-0.4510623885129142,-0.8361431362922701,-0.8188118631119256,2.379415864334027,5.35998943841374,-6.478991082546759,-3.9956944321834125,6.463842630988393,2.808183342490704,-1.2379553977870783,-1.2081007561229675,1.53125
0.719912986666154,-4.127599817711215,-1.4170430839725008,3.7879458741464687,-0.5937208723725746,1.0885469488655775,3.0090958282584364,-2.1269061787156907,-2.1681372187254393,2.105079398860004,4.0296719102631755,-1.9029631887115241,-2.7131031588467316,0.30857210165815563,1.5390625
0.41586883133494384,0.6581283373022656,-6.580764304635007,6.5187007383373,0.27784934064407607,1.0606994853740317,-1.4911667988359412,-3.5665805517929603,1.1264021189308948,5.850088909484461,0.07430463266434838,-4.629186397101928,-0.49304252324525616,0.7739594193943047,1.546875
-1.09132283405828,6.659872026656543,-6.913884475496464,3.052573321875864,0.5806568482158053,-1.1013734728111448,-3.1337190247645688,1.8328493056649613,1.3398431421236168,2.3671651798850872,-0.7157973559400493,-1.813813838386062,-0.9692325744599465,-0.09685674932936687,1.5546875
-3.0712723753004076,10.29482060314509,-2.2775191089904063,-2.7315687756216964,0.3452205646572587,-1.92539835521427,-0.5442816553994395,2.849654752306501,2.4270880430496304,-2.1622375875853854,-0.29017875830768014,1.687275039932222,-4.230996978555027,-0.3716082444814564,1.5625
-2.9069459274007623,8.472878697729378,1.5176401822203962,-4.337788566765753,0.3000435286107378,-0.5211087329503501,0.05134843859415376,-1.0883060491935088,4.346553836550924,-1.1132329892429302,-0.9523808100785965,0.8316697035203899,-4.94219756490905,0.33943554725128466,1.5703125
-0.24622233508313293,1.089581672884163,2.00952770342598,-1.7093391564044207,0.24310026171780275,0.5936433704685352,-1.2864275800619056,-1.3898511657323571,3.269328779775319,1.8108516989110213,-1.0067457445083494,-1.5087310284937216,-2.417864545253032,0.5461072482121537,1.578125
1.9930543031356645,-6.790071511268361,2.210219788426933,0.16309414026117963,-0.3111842845166695,0.4109169530321084,1.335960157290475,1.2321514759864813,-0.4421486930374234,1.5481781384555449,-0.46976296468390305,-1.185560606494143,0.1823652909525435,0.12260760753386298,1.5859375
1.7662228442848296,-8.618587933908247,3.6563917837600286,-1.0881339884947505,-0.7915812328250375,0.20505100764679635,6.341662995833166,-0.08237108828025722,-2.773095437407792,0.4101909631203951,-2.324398578552841,0.29533585457383826,2.729405118255088,0.2759689768906209,1.59375
0.2831906272621561,-3.898978826031449,3.8463350871683866,-2.894408116613792,-0.4866772917624763,0.19978321441286154,6.1712593621322265,-3.0361602733135524,-2.3653608399711272,0.21394423075771457,-5.108856498659576,0.948800681902281,5.474903436175494,0.6537009876353913,1.6015625
-0.26896979773626806,0.46492028119884227,1.4682019638304948,-1.9088773193828041,0.08202802335607207,-0.2172409670010082,0.7586336649197603,-1.2607687552362634,-0.9743119953724277,-1.896290428712843,-3.232995024615221,1.989977927134181,5.020588850832107,-0.022998452402836204,1.609375
0.5643749656535398,-0.747638167294232,-1.0653518054939624,1.682071389136059,0.12858175466845884,-0.21625335840686025,-3.0440143813018623,2.077396052730047,-0.056848278251356923,-4.423458444424714,2.6656853607861035,2.67510401390641,0.7872721566628088,-1.0227246100357537,1.6171875
1.2719134674596433,-3.0170991530464843,-1.7522673874925017,3.978640264817249,0.004980739811474642,0.7126021223821757,-3.286863814470686,0.8093092154072018,-0.09747198344633873,-1.9447143773183921,4.921630956082477,0.4670130224984976,-1.3602411393111788,-0.703818996319753,1.625
0.2844200387758786,0.8275549969042185,-1.7355763767151957,2.0546843635355376,0.2869985138908567,0.7265249033741913,-3.07734970059054,-1.4679004183105706,-1.0496110444633409,2.9999873976436358,1.2670456701836366,-2.3242662004863703,0.920944215815883,0.28585074141622163,1.6328125
-1.6570954271837322,7.401723925488074,-2.0631580873189312,-1.5769742519056904,0.5009017530487464,-0.9181585050264214,-2.4894766506618473,0.8139775294989512,-1.6274140847961103,3.0232889487901726,-1.3243687982786034,-1.61038844395921,1.254107806073083,0.2692793367192757,1.640625
-2.0424172860207928,6.983413313693394,-1.1641643210140737,-2.2743622438585716,0.14997696252282883,-1.364210342615803,-0.5440246167541147,2.9115694036858066,-0.1981022870529186,0.2271212773356229,1.2542310531322958,-0.014960505907520363,-3.7568369817347973,-0.17112623311012826,1.6484375
-0.33223076697785225,0.28767614060711416,1.6936179543374061,-0.44174089001193995,-0.11181271289444683,0.8846966782214383,-0.41090010831372775,-0.7711227075463752,2.4215925386214514,1.9849256684586203,3.6789653477845743,-2.136733882495783,-7.172193336840271,0.4215301587030213,1.65625
1.0872324605898271,-2.6947564930871053,3.4433768302909353,-0.05689906422321049,0.25002041073117764,2.3989616475969977,-3.3223171040915873,-4.141231586177124,3.0199230383692792,5.693804351307462,1.3620520130470892,-4.778580767132242,-3.430518785471376,1.1658943867505298,1.6640625
0.9059006728120914,-0.7513756279859808,1.5554473168209038,-0.9246372310479499,0.43325637282630997,0.6324033408046028,-3.6256819447328366,-0.5125351301330268,0.3232513967953275,3.516987648961406,-1.7432994607688677,-2.4556035619902237,2.177844068198785,0.4679001110925396,1.671875
0.6445970788100654,-1.9770562107798613,-1.328173416685131,0.3747293956118568,-0.20248009285888624,-1.3680622696637408,1.5711202038148724,3.915310734756407,-2.2934699171599533,-2.5994748825662475,-1.1776297094274286,2.2351244581429293,2.9831588350196108,-0.7752480334066705,1.6796875
1.01510492644235,-5.915991759172379,-1.798685386673972,2.940611150125164,-0.7573022907232396,-0.7290361111980307,5.707143559774569,1.7653511770592172,-0.9639667442943536,-5.482501331951416,0.31846856758390163,3.8839458833245035,0.9230758014629225,-0.9037819595315473,1.6875
0.4644336866420167,-3.7811882553532055,-1.5316439080367337,3.0811353873329743,-0.3826560948594072,0.20284368684399884,3.7503345594695876,-1.9067998849679735,2.7668697877031088,-5.906484568646454,-0.7683985867641842,3.885196042805778,0.6764313597033066,-0.5471410161502829,1.6953125
-1.155965234940078,2.95799245115059,-2.9270330497368624,1.527677323971017,0.14383046192465104,-0.735617798063665,0.8980121406762316,-1.063814109158361,3.757808079910434,-7.7976370929120735,-2.000770506603125,5.447473691540159,1.826622147603173,-0.8729397781193614,1.703125
-1.6394496749570415,3.756854067727006,-3.15027956288339,1.0411456950295823,-0.10176507532174418,-1.2089295770642179,2.4891244544228677,-0.1398487313869036,0.5682342103376319,-7.591810223612972,-0.6954407297117216,5.622046112980108,2.024292468636604,-0.9685453645595296,1.7109375
-0.44243465239644925,-1.2234361230967223,0.3127335889902899,0.19705175740490466,-0.5349320973185909,0.15263727053322917,4.610450793837958,-2.16393506746802,-3.2015928213679086,-0.7084518184842267,0.49035098413513223,0.952287199202481,1.3989470729149762,0.1601928582715976,1.71875
0.37354106540118376,-1.7966350328705956,3.144693482001413,-2.6025701456611223,-0.272251308418615,0.5940198827435827,2.214617233482682,-1.15165510554404,-4.618263223921368,8.070561867187788,-0.8218607954690551,-5.015476528857279,0.5953315376905741,1.2796783827080018,1.7265625
-0.0016942109819231856,2.9183554546205697,1.324082585730917,-3.9942746046722357,0.3301125636097981,-0.7728743039627256,-2.2189153589419024,3.767669876256445,-3.8651018412683227,10.987789957829856,-1.9098095047388468,-7.04300271017027,-0.6637493640138227,1.1343946413155215,1.734375
-0.18833948616158877,4.365778861802646,-0.9354144112430577,-1.9226980516036425,0.5478613326300928,-0.8073864628336934,-4.404767145515936,4.095297582969287,-1.3719659140638798,8.315567473997278,-0.43858299941023493,-5.709736886758527,-2.173639324168032,0.6240329650329905,1.7421875
0.21657857893020627,1.4007740771383668,1.18975519444528,-0.49619859773489305,0.47347986215461835,1.0962260278119407,-4.603220274514352,-1.047789176012737,2.4554601960703897,5.005952864257565,1.1818976603653113,-4.109758889827612,-3.4872134230484795,0.722633545701675,1.75
0.1837970868088556,0.11437022380745104,4.12144170475562,-2.1079275089422285,0.39924458477830477,1.5448477400450633,-3.8248860386071892,-2.470378630643578,4.986515931645879,1.847708992969875,0.6310289078163565,-2.020430347020853,-4.0455367014136545,0.6404039334871836,1.7578125
-0.1533815042978094,0.5254147348662408,2.8425004552269324,-2.512120109925806,0.19596693840959717,-0.028955740092839487,-1.605719663188766,0.8418866145325278,3.6423510824429175,-2.7033426364065543,-0.40867696373825485,1.6155777910752684,-2.0045576874159425,-0.2449274829779477,1.765625
0.28729901113121087,-1.4130283992847503,-0.20275912926800108,0.7701152817081487,-0.0597862417959798,-0.3707103326312314,-0.07809254096756256,0.6652914050926197,-0.0371378860096753,-6.421141922231655,0.21771074121020761,4.51535330855337,3.1159234366013595,-0.9856788024562854,1.7734375
1.1033979372211016,-3.6760726784012037,-0.8602415842627417,3.6366594896189235,-0.016599491630684447,0.9758543106567449,-1.8208586636282984,-2.9186495025620913,-2.2990986912681426,-6.439635149195812,1.9008977304203987,4.385813170212339,6.970156156436102,-0.9382448697418814,1.78125
0.941151140497117,-2.638616388496556,-0.7258247405399884,3.2993740896127073,0.07109876936671614,1.033098754928302,-2.969006435864574,-2.365215740152341,-1.9899313573535369,-5.076387118911366,2.966107394455419,3.249042043156593,5.033233204005891,-0.8253720279886412,1.7890625
-0.07011592121762944,-1.0611927223363555,-2.1812400837690786,2.3892202951388075,-0.3519306254148034,-0.5387114811936299,1.8170389439448378,1.3183147962218207,-0.6526197417911613,-5.134453186313424,2.613625497159255,3.3798247511311077,-0.5984714908045793,-0.9275626509973265,1.796875
-0.6291574740303433,-1.7033611089905827,-2.9007404450953165,2.2560157203265683,-0.8730664299311212,-1.0307399374841086,7.938022177614067,1.276911018085273,0.376262756327519,-3.154198131529589,1.0264711094939019,2.192372219962962,-4.392832594842605,-0.38275697150208365,1.8046875
-0.4011870882939292,-1.2319770279692686,-0.8362869186287595,0.6188195211683903,-0.5690654928857776,0.01042787569947408,6.141721277735927,-1.132586340962997,0.715430548609353,3.68268164590786,-0.7352019548808801,-2.5154678995321462,-4.580368541664811,0.8288709929564313,1.8125
-0.17555160337523143,1.9941405777175014,1.4042129962809984,-2.3535036456747935,0.2790103700303734,0.3573546521314297,-1.1930924243511594,-0.3313438981358717,0.4679995094130466,8.51332205037895,-1.8228327918835177,-5.839991103416913,-2.603018071191105,1.2985411984881674,1.8203125
-0.45455574822564,3.743017279892957,1.0149655409502332,-3.284127165315895,0.4935151118858399,-0.634366440838969,-2.7349225306834684,1.9227556393393241,0.08060378938792205,4.505756416175699,-2.785489655665589,-2.767393374402955,0.3838494855633982,0.5156025513785651,1.828125
-0.9540243429296029,2.6046750166706603,-1.1475367841227835,-1.4945653585667218,-0.006253764812283745,-1.3847942181395223,2.6117828485988497,1.234204517316773,-0.30749003050868784,-1.6146891078248644,-3.8883804504262844,1.870943758327045,2.641228450158727,-0.16186868278305386,1.8359375
-0.9836471352489188,2.083508410261917,-2.9875477135572286,0.621615791807099,-0.1750610169866464,-1.005495334911917,4.264421381184603,-0.495239094378396,-0.684861907525102,-0.15471004021595128,-3.4504907914192113,0.7735595509730527,2.0595645897165915,0.13670460148106914,1.84375
-0.02655264390721301,1.6471157121103635,-3.10658219586084,1.9260931793740408,0.2116739494675066,-0.08200551437020177,-1.0859599588822342,0.057092012526513115,-0.11538298880797347,3.85340104774134,-0.5376986119171926,-2.7571542732565386,-0.355656939818611,0.37057880397944426,1.8515625
1.3456588438093313,-2.175981662388062,-0.30776655367390776,2.0956294229183263,0.3064034169209074,0.7633676192738319,-4.8129932249512875,0.9268424604418656,1.6604208171539063,0.3018633346054447,2.6072030252558673,-1.034226268164369,-1.3859048333019985,-0.2912149812732224,1.859375
1.583455186195604,-5.636393387187732,4.279529305561477,0.026565825063402732,-0.055014885998439005,1.2567560970331006,-2.922833294435483,-0.3888994963884366,2.0657740232792356,-6.2204488531104065,3.5270128604066624,3.5457112964472786,-0.2037185920873639,-0.8546083380959274,1.8671875
0.2750863199555161,-2.259745375547858,5.784037096321645,-2.856670460352772,-0.08281018583912515,1.0250394068076794,-1.5503986575038189,-1.7221149318384794,-0.6931366032785593,-4.898835356402558,2.4838349571327654,3.3287052854775103,1.6005659231470701,-0.42997906064077085,1.875
-0.8647104454389063,3.898693614418516,1.5752761134395934,-2.5464669807116795,0.32287840763431946,0.02754816116524858,-2.9873052042174715,-0.5476052983895423,-3.2773736076337454,1.150642150597082,0.5869086315751345,-0.3600257789766943,2.8995650522390615,0.12186332608453808,1.8828125
-0.5185866169772545,3.658231739206335,-3.157777012852279,0.556418838359771,0.3283564731191084,-0.8964739068164015,-1.5639036870004603,1.3415467274308308,-2.041599722729031,2.0044897317621397,-1.6487767544817589,-0.966451303840948,2.915224486677865,-0.014008143277689412,1.890625
0.24610656889363855,-1.396130826969445,-1.9889891017775334,1.0670762279923545,-0.21066100271211302,-0.7955288035442155,3.2372989333025926,1.1278787942470767,0.3899693886619877,-0.35351117670902893,-2.682957787351112,0.5285204012632894,0.902790236429303,-0.0752034818000872,1.8984375
0.14522529960449995,-2.4863817099530165,2.603057875678458,-1.8409874428374546,-0.42070555500664636,0.13052076078954786,3.8681894507150827,-0.27930937815114143,0.0258149867506647,1.7102934025292629,-0.8196332315361713,-1.0143309979765367,-2.131279283144123,0.5068112703857435,1.90625
-0.1374685729846484,0.6647027684719313,3.233600688449594,-2.506369360094953,0.01732804297440399,0.7820243283386067,-1.43858059772815,-0.26728563637409286,-0.9047161234639213,5.375758437382636,2.3968156009750703,-3.9559771693322565,-4.063153287815729,0.8002743315787659,1.9140625
0.23006838480913802,1.3311112563966985,-0.24413731219215218,0.7417574801026008,0.33904753057443665,0.7051732611637188,-4.558978073868419,0.5560783302889929,1.1351212650860871,3.6470277989113633,3.322768442121587,-3.2873237268801567,-4.179071922264276,0.2590387091685119,1.921875
0.39710477151929313,-0.9933783377236477,-1.7934687207287399,2.651998511769207,0.053799467200071005,0.43164405815023216,-0.8442335524607048,-0.45504663862806977,3.263900611637444,-0.9498680179021621,1.1841577050870948,-0.01793968989284739,-2.7753318496621557,-0.15252859244346562,1.9296875
-0.2726867482338439,-1.4564670929231358,-0.5317056914185442,1.153180212661251,-0.34238777234792267,0.22888506719203608,4.128720718341129,-2.5721505783846137,1.616948118208475,-2.4318933995459946,-1.283694089723543,1.7556375947245269,-0.05833767318392293,0.070449176907604,1.9375
-0.630783926281459,-0.19659594218272322,-0.6850696865665172,0.3854403386024643,-0.33055718196292116,-0.19192867323509968,4.367090623718971,-2.2698551405329686,-0.7797075712105986,-2.472738245720875,-1.9294979813992374,2.2293507663871983,2.5063321501044116,0.005014680380284098,1.9453125
0.14333107513227056,-0.9412702742449279,-2.056255171542697,1.7545475180323284,-0.10323910546993625,-0.6166737224087773,1.3527299885159976,0.5627197583437333,0.16582688062091422,-4.544520598601838,-1.025498114910611,3.305987459452071,2.718702406952883,-0.7101693745985974,1.953125
0.8109821878249894,-2.395722513195967,-1.3314091029420776,1.9106942754013587,-0.022463705020138704,-0.5153546485567206,-0.5967559269455973,2.1666408359199214,1.621788425032322,-5.577860617586106,0.3587091184679334,3.586458050431485,1.0303191419004292,-1.042351615255575,1.9609375
0.05122466787553468,-0.12688381249624994,-0.4625961430274919,0.433916149286131,-0.031454205028524376,-0.33332322264857306,-0.4477014668692487,1.2498444837070637,-0.3778959039092603,-2.434580881786317,1.1014527632338262,1.622684046816017,0.2673283531390557,-0.5128510070499581,1.96875
-1.3160218261521113,4.696502271321528,-2.706412432938512,0.057812288240318574,0.07453030882926638,-0.8469308791680474,0.3612919280065123,0.44035880859929444,-3.0614800017790866,1.327618739822112,-0.07153491621825799,-0.42535596476605836,1.427867360914759,0.03641253920255328,1.9765625
-1.4548138314939054,5.780282782442084,-3.913551219214616,-0.029545526361965377,0.2199481730195296,-1.3624986583854062,0.6538864021277844,0.9637238463664278,-2.2821113208687196,2.139439205987848,-2.6626037194358907,-0.7567924709798184,2.549626623832396,0.14800769495843252,1.984375
-0.026429378584210236,0.9842307589489909,0.8408066457729484,-2.146311411735373,0.2045656843153567,-0.5158566132084171,-0.16662102679751126,0.9904578717969549,0.1363451017390675,2.3922902255485243,-3.399396454819572,-1.229560959543644,1.5728514454773108,0.35751188341381007,1.9921875
1.4261480990167712,-4.150391067582057,6.405052346169874,-3.721523682689553,0.08219910694468735,1.2218639790006414,-1.9753791078847982,-0.2981414538276024,0.8157446630896708,4.3072166318926985,-0.4452338437059229,-3.174719654536825,-1.275951747907289,0.781382617473243,2.0
1.4252965094703245,-3.88533255796116,4.818912782965927,-1.3904807544095465,0.06979591905536334,1.8506508207660413,-3.2148862377640453,-1.2918740294043978,0.5036621626356643,5.1295662524333245,2.798052723791687,-4.2297202711762285,-3.3761900917599768,0.7933911682044392,2.0078125
0.2817541123351819,0.022394614087923287,-1.0584068888452334,1.8760731591865318,0.11684040173560443,0.8073108799037567,-2.0572854174336754,-0.9902996765016987,0.45777783542440725,2.8435353663412313,2.361662330334947,-2.511268153137833,-2.4605267498150694,0.3120707409020526,2.015625
-0.5250411863619933,1.5858811986362777,-2.306681185926214,1.4014088017756134,-0.03224000384286908,-0.2557704755348015,0.7473980427818545,-0.28232949927064827,-0.3465515449897183,-0.042263433949856904,0.32965182963732337,0.050525976838111365,-0.2796938854629871,-0.04334174991305161,2.0234375
-0.38049614249967617,-0.12687744545872237,1.4930362819875083,-1.234200851430535,-0.24162468887625052,-0.07741494650366272,1.575306260016839,-0.04880677906624691,-1.2379702650117006,-1.4044399938955405,1.0332865975919894,1.136986749512627,-0.37646284504820715,-0.10967796520428072,2.03125
-0.02128086701855432,-0.5015041177368394,2.996264031987111,-1.551352386429931,-0.042340311593371364,0.5277768669520263,-1.3975416191405365,-0.1914522205953574,-0.07009435200906154,-1.9821184920031698,2.756786350024769,1.1180758868179725,-1.4076110703722058,-0.23120526315015075,2.0390625
-0.0018745113741725238,1.536980999972027,0.05849418593232313,0.20963592152352248,0.4218325014876844,0.3378338027740085,-4.096122047714438,-0.41717914457468425,1.375846439620049,-1.8527929780093313,0.7617182911907375,0.9905216110999576,1.0078781849818008,-0.32840971290586574,2.046875
0.052542002613375764,1.0967957217662048,-1.7150598347168349,0.5966898530975221,0.3185726816751156,-0.38042550494155086,-1.0431250965486292,-0.4645693592869314,0.036442588513503835,-0.7961735056093886,-3.368394155678698,0.9436561125757722,4.844160048665635,-0.1181941421599721,2.0546875
0.33081303877872004,-3.2011242525696635,0.4576746804647141,-0.7403303826453054,-0.4759067625194348,-0.7585485144361283,5.730252802244841,0.27330493845661386,-1.3800335660593979,-1.305926049345925,-3.957416442078649,1.679440608004095,3.331639137660017,0.015493262143870088,2.0625
0.24384780086566027,-4.959283891694378,1.746370486406471,-0.9819841955136035,-0.8976852726110319,-0.8804860954500382,7.954513123470754,1.8749424591016073,0.9949675534687222,-4.528293191800551,-0.9819506480129985,3.3720768182233636,-2.541299907184082,-0.41701224996508063,2.0703125
-0.4724805378077163,-0.27970297895154894,-1.5618586847544147,0.9689744297838456,-0.34329725035850966,-1.044241136859412,3.070870673756897,2.607998993427072,3.576821955182026,-5.791009442386324,0.9464772052705122,3.6461140468569906,-4.455575904544882,-0.8684520313794445,2.078125
-1.0183880439006392,4.8837868066036885,-5.331654808889954,3.0582014259733903,0.34443886934858325,-0.6457267187778574,-2.190056647494164,0.6977230865927928,1.531448940160296,-1.171025501587558,1.0136426171361823,0.485787555829688,-1.2274672123560593,-0.43183457071430437,2.0859375
-0.5611675901761146,3.9700525640027875,-4.52957605661283,3.382176586053939,0.37464252175416274,0.5706866555175183,-2.971668396163906,-2.1813002127199974,-1.3319101051936526,5.098124899189748,1.5412078134139835,-3.783819731260563,-0.14275282938910222,0.5586718814101637,2.09375
0.4773185864872781,-0.016849359739504136,-1.1301051838671117,2.237444269562029,0.21297577252115912,1.394308090691749,-2.6811784513590187,-2.4767021862032794,-0.0018462589795487851,6.5042232021308735,2.0219626534304567,-5.076656571889271,-2.372281053366111,0.8998408314189935,2.1015625
0.7959951981827558,-0.5010352665438755,0.8354847404423035,0.2949178416072009,0.3833385018595015,0.9391359451637821,-4.248683741645834,-0.5294127053495994,1.1605374534478878,3.416477305113166,0.9130666408622272,-2.859867000327966,-0.9837564561937756,0.38314339390162716,2.109375
-0.035401230950658065,1.7563368441115264,2.1899341104392294,-2.4281835170907,0.3931150739307328,0.10621053892389865,-3.7764326434965896,-0.06043429646669458,-2.779994693023863,0.45408328251104074,-0.4396183729588013,0.10584096493599401,4.552995400071756,-0.03204180496017619,2.1171875
-0.7441295870051233,1.0431267529821595,3.9900589801474498,-4.24021779915182,-0.17247164867946257,-0.17653600309202552,1.392664646213706,-1.1488535898428849,-6.178366330395547,-0.9475416641927904,-0.7212966809168131,1.7814107269723243,6.074413831844673,0.05506285517952473,2.125
-0.01610058270865596,-3.2945498450592763,2.9697573993072743,-2.131406536220764,-0.6807851315096779,-0.29514314626574156,5.823835564354328,-0.26916556381897255,-2.709863062827634,-2.2833769444537335,-0.806171480963249,2.238501918947821,1.503662693769791,-0.04435506616879896,2.1328125
1.3196746975520695,-5.744320508911494,-1.336715088722027,2.6090586829043345,-0.46875267509040014,-0.4215713084127399,3.781969377183512,1.9072462510795105,2.6007874198453664,-3.5045794709469034,-0.7203408634709509,2.1077780066031306,-1.555141807136127,-0.5725811279697407,2.140625
1.1468768755281582,-2.5753497462777055,-2.9024666553150653,3.634079443241992,0.12151762743718146,-0.029572308615787257,-1.378575768205984,1.0436566296540883,2.863753706202807,-2.4826623896248106,-0.1409831040353665,1.1717045230152516,0.11447266532881693,-0.5875789901050513,2.1484375
-0.7005054479667392,3.1489089226589444,0.7478380612338149,-1.3568649939065769,0.37618042991984607,0.39843568665785434,-2.1623677591346278,-1.8871280105234276,1.102165851419845,1.6160237034821312,-1.0864108450300525,-1.0711888147437307,0.4281601745971821,0.4408209890737867,2.15625
-1.7975288685725939,5.177504028423972,3.6509189202617627,-5.750818296488848,0.19316108743811483,-0.08582801056827022,1.3604409547715648,-1.4759226237164855,2.137294367069699,5.398998236143552,-3.5311395452653613,-3.2767801251227615,-3.3343564985327188,1.3267960171211612,2.1640625
-0.5929669447696138,1.6524197694468008,1.9611708301468307,-3.5530213215374835,0.004656815672652658,-0.6609780728931626,1.7261746443707768,2.0325215496549855,2.9355128372026282,3.833053777373853,-2.4987074915458387,-2.580535849825771,-4.950815013452902,0.6876962316457144,2.171875
1.1771168849839084,-2.3144055632937626,-0.43333269107932915,1.532639286956575,0.0889011744273365,-0.09182058843661284,-3.312995937776811,3.196794433896317,0.1547292665780751,-1.9898123262597256,3.069090244631954,0.7913590435427654,-1.0727463254693397,-0.7958484844263273,2.1796875
1.1080415535833321,-1.564746475370028,-0.8176426476424696,2.740168817585205,0.2203104015858712,0.4809962779381943,-5.919916698896972,1.5433941228170813,-2.5050488434964544,-4.089168828608572,5.627183549665471,2.22628827932299,2.133139908215738,-1.182538927936253,2.1875
-0.22475795277220637,1.4007276688312404,-1.5470847060049784,0.5908486773304702,0.034393961607706844,-0.46996117871279114,-0.7044995452868322,1.454575603668355,-1.559875739038701,0.402583428301037,1.092712523654544,-0.2403470138876118,-0.02137797957397505,-0.20673425932367898,2.1953125
-0.539355942838962,0.7648893398122173,-2.5580557164123876,-0.18233461323059189,-0.3388422179698092,-1.4876353910358688,5.405960093188917,2.5969361710909458,0.30024177482376124,3.170393643906344,-3.3393814259114474,-1.7391446242244493,-2.455033708211951,0.40498579896580683,2.203125
0.1728157710600222,-2.3403077943447035,-0.7982196531285702,0.9273597196197421,-0.4124517565382445,-0.38818517636902095,4.150055100155078,0.09712428228339517,-0.013273348306551093,-1.6371893571022662,-1.130785167772024,1.3314551806045392,0.17375805795903376,-0.1267012648318422,2.2109375
0.016349673171041548,-1.9423683501477937,1.8508410430322197,1.5809706298983832,-0.14373701690549692,1.7246334565199324,-0.7503555732186219,-5.624106638773247,-1.330453124242664,-6.28363459496417,3.421913324644775,4.1661970927428476,3.7932224501921095,-0.4745911049173406,2.21875
-0.8524619651673534,1.652833151788098,0.4277189925107309,1.941100498602616,0.08602556797237772,2.086634454028868,-1.8565252569773043,-7.480444597990443,-1.3681203644431725,-2.3782410228635844,3.6029824094362626,1.4142063516692776,2.5528473886884813,0.17428157441824918,2.2265625
-0.4033370783953564,2.518104688196067,-3.5907379303261444,2.67677232920817,0.2300364705182866,0.42193018797789655,-1.0063685991214548,-2.06454670544068,0.26094139455647597,4.1623030311952816,-0.06628485673131712,-3.0678316723051755,-0.6637165101715068,0.593204480707247,2.234375
0.9991770163104853,0.02369034972912552,-4.128246379321864,2.0218014122703214,0.3958908550756508,-1.1488515888784372,-2.098528761737417,4.274982803132053,1.9113693010787134,3.3478649026900937,-3.1476217786729075,-2.4453068507059155,0.06432280334548973,-0.07251624664306013,2.2421875
0.7484401242816874,-0.9786173378088842,-0.5428356684633651,-0.4452656376555006,0.22001163584546285,-1.064036265673704,-1.0843450716523069,3.303684710172136,1.0420576149359972,-2.1426695428260962,-3.0765174515538103,1.7082188212248126,2.8898972827340224,-0.5820478175816822,2.25
-1.092678920015609,0.22042801009250027,2.6399526378196345,-2.000519333073551,-0.4273333989663451,0.3263761878019372,4.212290134389385,-3.463660416711945,-1.917411602441492,-3.1844988734677906,-0.14471292557553891,2.780734928617497,1.943406099114301,0.10253797999341155,2.2578125
-1.5057815993323307,0.12004288386034252,3.7621776372263707,-2.0136473084524247,-0.6996617406285256,1.3402152570070793,5.848160331319595,-6.02867150461272,-2.3647706104954014,0.3929648239761052,2.328373461168049,0.036594126370886125,-2.096508769845144,0.875556295732945,2.265625
0.2967803381915918,-1.3485458257433427,4.2133808457522886,-2.8892018170561653,-0.04415688444384972,0.6519447805433566,-0.4622169209187633,0.0763053894606237,1.2667953736170228,2.6757169587098732,0.8116361857756765,-2.11053227816491,-3.6801844908952868,0.5385899621587266,2.2734375
1.7520110872923231,-1.5600521940576786,3.296853363730859,-3.917488284441103,0.6424909947041813,-0.9405337475450324,-5.929899631209867,7.191078060885767,3.5677757982032197,3.0825925848799267,-2.699040765172401,-2.4473513656855426,-1.887708931112761,-0.1526180487593746,2.28125
1.2496286247528592,-0.3812960920046736,-0.1267121483643483,-1.8963342834876933,0.45153213115952096,-1.5003744811911413,-3.4848491145414457,7.03614141043469,1.2187243110366974,3.8001569957276877,-3.02356348823892,-2.6094060260692187,-0.59117817904778,-0.1426298250600892,2.2890625
-0.2780603703938142,1.3923307829357245,-3.251455529327297,1.3310049304123457,-0.07068699776601614,-0.9243781609276773,1.3374683863493464,2.0973229512939047,-0.9570925577096484,2.1175046194254503,-0.4525446661107419,-1.3355274578631207,-1.0276246688975226,0.02404594578879808,2.296875
-1.498723300163054,3.519225045015853,-2.6593675677122146,1.1117830910774567,-0.11876297219615847,-0.6459215586049218,1.9921628884161209,-0.6164060533089006,0.6241673748546981,-4.035520105924271,0.6959541090087152,2.873693838151131,-0.7729807664172885,-0.4632953515571451,2.3046875
-1.3215203225054664,2.9940201368130674,-0.053990641824653615,-0.6304580285632227,0.03925000634045425,-0.5505681849116483,0.13593591679023262,-0.46654085590463074,1.727290299585155,-8.206118609506555,0.5208337516008194,5.757226843491754,1.0406881431462687,-0.9779127028219821,2.3125
0.7406170977543524,-2.4196166059372266,0.4232868727971313,1.2488268832723475,-0.025446734115509417,0.4598887842021775,-1.2322133009956626,-0.625988061809588,-0.8011291103994835,-3.3572161131034743,1.4151339630767028,2.1872656847013245,2.5319920840032872,-0.5398774712168121,2.3203125
2.543315420073007,-6.483135262307377,-1.320892503217644,4.171393751946842,-0.06345421117915168,1.3746415175346347,-1.7001146621978904,-1.0505737776902753,-3.2603053036819976,5.997684926998805,1.352473881476767,-4.491953919297578,2.413006524943135,0.5181268346008687,2.328125
1.0665321796710847,-1.9333729720381136,-2.1526063494909957,2.241355066523634,0.011234777799356898,0.5949778755855494,0.20430938055764516,-1.0601806441842236,-2.97477364589724,8.8702108289798,-1.254441232711656,-6.0086005949874695,1.2911909403602813,1.1011730616977262,2.3359375
-2.175566983507126,5.3175543462586985,-1.220784187344195,-1.4973105849687107,-0.17771311842343135,-0.5082526447442659,4.178034440759514,-2.4061026306538547,-2.277081179869215,2.7804327465931147,-1.7849238453049612,-1.1449450097237295,0.14148026015190293,0.7718814964447098,2.34375
-2.4197145923058225,3.74057372207005,-0.06743397479099497,-0.3834801626227275,-0.5268100468877857,0.1309272713375163,5.009573027251737,-4.127462321294507,-1.9608892767112125,-4.413826861016928,2.531165414704839,3.4224679857895155,-0.8627046654367008,-0.07548091505056956,2.3515625
0.49698986435304665,-4.084740316140368,1.1728249310063625,2.60062843059601,-0.47951878516077495,1.2776384596567891,0.6865771637768742,-2.2770654707869062,0.0840340534488042,-6.295336293057953,6.032228488314543,3.6057957130541203,-2.052387273919657,-0.7704788351377547,2.359375
1.7041413035063944,-5.357157986215353,2.995840502804886,0.729262334857317,-0.024351582533872075,1.0098859085441412,-3.1542820748206255,1.0836075061307815,3.0891390106329735,-4.110173869431542,3.817733331929089,1.8308034758528096,-2.8903529239507746,-0.7258699244572238,2.3671875
-0.3574732013071876,1.7070662574481694,3.4693531995846465,-2.9350408863978226,0.41006157531278326,0.5058112440046614,-3.165780112526498,-0.8103955992226087,4.262509401891943,-1.5645411026109501,-0.6039237234384885,0.760790271894245,-1.7393361633141737,0.05981909803385934,2.375
-1.8524355188033523,6.844571835042776,0.7761542769714765,-1.9059913602378253,0.7219287332298353,0.8865650588158627,-3.334765770755997,-5.358501768809751,3.934378155452361,0.16187933042741692,-2.6121635512394956,-0.06594472809874237,1.1307041691185253,0.6724411039397983,2.3828125
-0.585234542116096,5.173393355491507,-2.535765986375619,0.7530432800577485,0.897557929380074,0.17236083375094238,-5.403007455079565,-1.6996972792727163,3.507817639158026,1.390736744531485,-2.9639077907909184,-1.106025928676071,2.1504417336438535,0.2477686622073705,2.390625
1.2978970852956873,0.7205207818830676,-2.6027369104863363,-0.604569985377531,0.6313205434358158,-2.2427651706655016,-4.845670518761404,9.199930978573027,1.7810381712537098,2.4061057383666844,-3.2562411871376074,-1.72312565609329,-0.1144484668013966,-0.6464474087767089,2.3984375
1.9758686690239826,-3.6584432357694214,-0.20594509084969687,-2.492009103991057,-0.08776460334846421,-2.9644630798194345,0.17587063598745692,12.308330311243724,-1.8289855218574618,3.3971025447505,-2.805811549904659,-1.9687010586429607,-1.1893010350922857,-0.6547387913742769,2.40625
1.7058268816934687,-7.000450227538411,0.9253284420031962,-0.29235606199433317,-0.7417514906461924,-0.762218967915283,5.836066651706959,3.143566068477971,-4.777847985002229,3.256578755784496,-1.9143229824513224,-1.5748358740802018,1.9868135987827964,0.2108336330926418,2.4140625
0.4414456570138336,-5.909787342993256,0.05494682064181875,1.6289321989554386,-1.0174694467804497,0.44732140552581884,9.472386018573626,-4.160735099295809,-5.231858227877774,0.3573680480798579,-1.881178351341591,0.6725469587388537,4.584610843927596,0.5452986980931916,2.421875
-1.5581526052260182,-0.09611952941916321,-0.7818257490146512,-0.6194886725493529,-0.9742863464675204,-1.0713958367996423,10.46303465822549,-1.7191063622619782,-4.0368607669902525,-3.073502952831498,-1.974852518094145,3.2916117690230626,2.124200463834582,0.0327960241595842,2.4296875
-2.2292266530311013,3.8699843162860454,-0.8949309475422917,-1.7360791131163709,-0.5406554919702289,-1.295263782563161,6.5993807783959815,-0.07269342073752566,-1.880101386581118,-2.0911533411487997,-0.7091683319562909,2.211137783679944,-1.2187211091632284,-0.00948006347163984,2.4375
-0.7127229353880585,2.3460728946100367,-0.7870650338686713,1.8861044570114134,0.2207609946591413,1.6857069573393972,-1.8227049930537416,-5.622772730282848,1.1120213760332331,2.2956989455941925,1.8904412924626537,-2.037897616822158,-1.1812241741352625,0.7243677024064538,2.4453125
0.5443663138348815,0.5726220519147138,-0.06677469355785724,4.24526924856529,0.7151424007459632,3.6015274538761917,-8.473188076859385,-8.115954981015083,3.4290317656585905,2.7635817820662885,5.176157365209533,-3.386517637351516,-1.7419482443690715,0.7309293185049608,2.453125
-0.1436089514998333,2.665273738651035,1.2023610391302693,1.2778443188631068,0.6279583455598413,1.8600934806215175,-8.99161194594234,-1.8565634604077343,3.588987969059107,-1.8857717270468226,7.4553859347718925,-0.19786457125667653,-5.22445532781828,-0.3814191191301069,2.4609375
-0.7775461624154698,4.28712284952354,1.6412476831893363,-1.7704475334984269,0.4739337101088654,-0.07404319044090836,-6.669940258274629,2.8982155343695335,2.324535507506437,-3.578331759628227,5.454733087577884,1.6290793363718161,-4.973955457197995,-0.8657749245800233,2.46875
0.37761574707410417,1.079921681283942,1.2943680055025215,-1.270875348389567,0.5215984188582814,0.20932332364341277,-4.6972018224866146,0.6347304983477196,1.005053208811859,0.646006876638831,-0.616775982573056,-0.575848780797362,1.4306314623302827,-0.039575023339588546,2.4765625
1.5854651939725992,-3.432664707496553,1.722750461446542,-1.1252988708576612,0.24827489935868033,0.115029804179082,-1.3211697712324886,0.5932330987006907,-0.19550344506538253,2.906885096635561,-4.33174382879245,-1.6576690131342173,4.52671649425993,0.3657297742683027,2.484375
1.0899034198173256,-3.951900733572199,2.085889685759618,-2.7259242198741593,-0.3740075403184414,-1.678594966907367,2.756783943541201,6.50565016303204,-1.1327720040291127,-0.9044890734771437,-1.7922885676741416,1.0377562673511473,-0.3702778302724435,-0.5431091523648365,2.4921875
0.2080721057883455,-1.4122516299713201,-0.19197394930045064,-1.4954952215268396,-0.4655901337515246,-2.340944107460011,2.674477102133924,8.305968960860485,-1.0556232171499504,-3.841246172327103,1.4001630894867054,2.7767944307053485,-3.3548280744037737,-1.2040507460798524,2.5
0.37439615436077045,0.12902271724861045,-3.9197410802535053,2.7558513221472127,0.12196248099763606,-0.7964054540346682,-0.7051781593599155,1.9253534217300285,-0.3007085407692509,-1.3431969815336866,-0.7634913344752996,0.9481183278053635,2.1317405329383505,-0.556308970306432,2.5078125
0.3833826709289672,0.21029112292878419,-4.709198234663346,3.9770292555240867,0.32343879185230395,0.3099898185142619,-0.15257867214283796,-3.701298994263541,-0.44309850393647027,1.492311783268066,-4.572140237435891,-0.6223734679950808,7.154287227853815,0.3485246212301946,2.515625
-0.9073549201551855,0.839134407893094,-1.8902271975451534,0.9058317064384043,-0.27710327486716063,0.07513510251322883,5.444511152499029,-4.488293199371256,-1.6067913630543942,1.2446390129439038,-3.9972904755767003,-0.04556536080113861,3.980644221993085,0.719209364384876,2.5234375
-1.986401097845978,1.4857311994868025,0.8209835708966468,-1.209651951390167,-0.7241135683371648,0.4477846476929902,8.836394624321107,-5.901159583112119,-1.4673395876630433,1.3502752937596856,-1.6715143778904495,-0.1899720824601702,-0.899998557525655,1.1050745562231123,2.53125
-1.2707375512830097,0.2559174660379441,1.6996482308762144,-0.7992913924837958,-0.42013440445831185,1.350806464855919,6.374243489928769,-7.576759695795756,1.287442943668936,2.3971893383354153,-2.6441624556509904,-1.2831539125200548,-0.7737077585948255,1.4018907186525018,2.5390625
0.08416221742049478,-1.3546474457553008,1.9462023009491332,-1.0411858291819902,0.007356809858725611,0.6611027544246553,1.7766559175755132,-2.8530427085073335,3.79662240330384,0.29326765599455384,-3.2789317032372014,-0.21179518625092644,-0.40946230753806273,0.5884826445748882,2.546875
0.32684408287821337,-0.3839912079765014,1.1720536341477157,-1.3889912909756277,0.03452711802065933,-1.0218743324025177,-2.092940904076007,5.604476163312845,2.290937300943139,-3.8635476416005576,2.3952295002560646,2.1639164969041422,-4.220306418236348,-1.0089778521453179,2.5546875
0.07903084114300718,1.5192423064404468,-1.1571550678560791,0.9809895778044879,-0.0018834705421794167,-1.0328907545622503,-5.464712399044054,7.76510363111119,-1.9156558514677566,-4.032215126495453,9.782799372540676,1.7693863153588587,-6.612248847488297,-1.6760171533653538,2.5625
0.7920702333006377,0.08430579500001707,-1.5496122144261977,2.9877812309973395,0.18327958943005554,0.5265835752893889,-6.939641615511559,3.0180477706102913,-3.5748856288563036,0.13863269723170968,9.037103961925478,-1.082781845952295,-2.7657609833933767,-0.8567474543755493,2.5703125
1.7982898177954842,-3.4593940131869547,2.3993500829319534,0.0992992934848635,0.35174291459161144,1.273022691102111,-5.062095134513358,-0.5646388270552692,-1.0251262598571251,2.9273297183928464,0.8829274979117097,-2.345449292236779,2.4924310623677024,0.2288295343818145,2.578125
1.3575535497511915,-3.1930259289236345,5.360819550486386,-3.789823107773241,0.3570602900392877,0.7005329075822092,-2.334161242235583,-0.6813500866677433,1.6720530347685263,2.0121268817604476,-4.3987933376590425,-1.1387506541466421,3.5297805614433915,0.5433601831655992,2.5859375
-0.33436289102094635,1.695678705491309,1.7358398539891724,-2.4295042774735376,0.30876933841093385,-0.038989591968112844,-1.0953383368615675,-0.8123517058118158,1.0252302339574302,0.4478130551770114,-3.018342998937024,0.033130909642256734,2.199095258350723,0.2806893298565552,2.59375
-1.43428616888369,5.198055939196872,-3.9221750340787165,0.9876753545044581,0.17274513239889347,-0.8141502421982229,0.5138012408497551,-0.5363994233148253,-1.5310171008877538,0.7865328628477718,-1.3754015935987,-0.08135232051857336,1.960299482909647,0.07193953939597351,2.6015625
-1.17549337835228,3.8393565605418356,-4.025097112519857,0.18967087485444845,-0.09247241199835969,-1.649555744092744,3.4150645137815085,1.8036575447833993,-2.5990493945068556,2.531295153677791,-3.058354039307563,-0.9416100467520754,1.559578423332067,0.19929759764884528,2.609375
-0.4152156934364652,0.7153779229956692,-0.6330380120039296,-1.7253125290463467,-0.2427569123969252,-1.2733886766067932,4.13531057718061,2.4031505865922873,-1.0341272999089748,3.5596612745370204,-3.3397300269252828,-1.8351411911025648,-0.7860193031997349,0.46943317499587106,2.6171875
0.09925251812084884,-0.9233069224802781,-0.06614383206145874,0.847642783220437,-0.12087330107256795,0.5802651645217005,1.0018887938787346,-1.31070626062476,1.437650739892405,1.8720113191832985,0.632150120193288,-1.6201223381308425,-2.849371841246324,0.42109383752760476,2.625
0.3530514363654462,-1.517222591681363,-0.986156914456357,3.8195703061125914,0.023099873993441353,1.7163634745889975,-1.9327128712922217,-4.040461273670976,2.4433607412432803,-2.0991241496252533,3.9304106019826417,0.5099850999621764,-2.1169162575347604,-0.09846397454548735,2.6328125
0.33040210813323595,-1.8654129018339867,0.5952808177398624,1.6139723893986688,-0.035525896154347585,0.8263825662233786,-1.1032944252410772,-1.8541335347963375,1.9650184561088935,-5.306733374623287,2.355569108014908,3.1541961944143853,-0.06028932895833901,-0.6093308586333759,2.640625
0.08989735325914122,-1.7452404914589468,1.8293028228336357,-0.9671672452666171,-0.13915287528596917,-0.2170165349488774,1.2859172181182053,0.21996134963736214,2.321835500244137,-6.032290001683542,-0.7752250960168453,4.1733667513611765,0.6193280175463766,-0.659337924334245,2.6484375
0.152834557477277,-1.776936478886367,-0.3434629595758683,1.406516338117657,-0.09511628074538457,0.17971204227183188,1.3548355046551401,-1.4197698219351786,3.489420402766304,-5.454675986700505,-0.847239327886827,3.536084093775228,0.32519900992759704,-0.5061201727956304,2.65625
0.6445928923075915,-2.0833179852615262,-1.872375489414653,3.1546930542829736,-0.0014446804418859602,0.36329422037311815,-0.6401573693296918,-0.9091553214537226,1.524808823725753,-3.8740157763738687,0.884661452066417,2.286873820799095,1.105746101465447,-0.5835652003948004,2.6640625
0.7611315508088065,-1.1126237954724472,-0.026341334249211715,-0.8050683424186409,-0.035004993973382116,-1.1254828607001097,-1.1955028682375832,4.82510812510714,-4.162227804003117,0.14676142095344716,0.7247585635268089,0.24859273399357643,2.357568437112894,-0.6001086734333012,2.671875
0.07802257380333823,0.749929944153799,1.3783994411010827,-4.23911910952052,-0.18726448804342521,-1.9597206726563885,1.3118956581065102,6.655895473876852,-6.741817812493591,5.417461191667763,-1.1462301918895839,-2.740555185558823,1.2902399983712258,0.1330468901647691,2.6796875
-0.7222275946227508,1.012929358320501,1.1723831182749225,-2.144286713772127,-0.28539704467433,0.19397031851267807,4.160615385879671,-1.8123881588740431,-2.0168606841672716,7.858369703889705,-1.9671939111773007,-4.91290041078857,-1.9947766005619854,1.4532488980500422,2.6875
-1.198690562764854,0.9601189161778136,2.6165145410558783,-0.49123084713477927,-0.13906558971483293,2.6993859026865317,3.4750197145319723,-10.286729454648784,3.062930271473344,6.0171143305304025,-1.2447822276466887,-4.332067009318515,-3.2403696019221613,2.0934322807138366,2.6953125
-1.5912885868232725,4.066554866168041,3.4741609195552723,-2.9241128455133256,0.23446683100219137,1.612600393562144,-0.5350471820739524,-6.661331552846657,0.9439990807081445,2.793303797572656,-0.6219902241810941,-1.7801981726162814,-0.22567046701614218,1.2070491340648508,2.703125
-1.3960644956217454,6.859833020457654,-1.0024534221207917,-2.771691766716438,0.4687843730941835,-1.520366290739808,-3.3377560247710316,3.3748083365683166,-3.670252738606074,0.9216911162184995,-0.485987518810642,0.041098330812974995,2.822936125016781,-0.3076987210050863,2.7109375
0.2006862342916883,2.4868753462634596,-6.035908603227365,2.626178392206734,0.2552908841577554,-2.116857206266893,-2.3966505808460776,6.610874929050996,-2.357733792366257,-0.1003754622098435,0.24301378535966384,0.18129617565075204,1.384349828331711,-0.9803865993228673,2.71875
2.1007788400627407,-5.436485805340268,-4.029962870863828,5.4195310785559805,-0.0924188536091402,-0.23875993130449674,-1.0656025339761441,3.469988242181481,2.293959825855621,-2.1120299183062827,1.7118374696306433,0.591812922745029,-1.721521523848733,-0.8879975596872361,2.7265625
2.262777616780645,-6.628773627607488,0.951262977030528,2.3648391189012368,-0.049617546414859416,0.4629317147619522,-2.7791029897160757,2.628108914426269,2.8105111233949183,-5.043246932045266,2.907941710166096,2.540105747668546,-1.3367564437520636,-1.084927566963882,2.734375
1.0006814252908436,-1.9214077450427147,1.0103677083972127,0.5256258099190919,0.20616887350264046,-0.07536341835650079,-4.590696979286027,2.918320079945595,0.9057627281534779,-6.193887794036742,3.2112984046350146,3.726719890144933,0.5906097901974439,-1.3063575173549171,2.7421875
0.31964597336153233,-0.8426217511889158,-0.6492142433380892,2.313684397421214,0.12834302635182682,0.8161475225293792,-2.260601829723911,-1.6367504043626184,2.343431677567435,-3.4978654174392236,2.2507627545132833,1.7843824780236928,-0.6121760959610779,-0.45198418412473523,2.75
0.3069009210744073,-2.8711385225512203,2.245662469748652,0.8128891527005829,-0.11405258708222606,2.0028732713480304,1.525347844895878,-6.017814539072226,4.3503881476999835,0.647819627384637,-0.4812626007812678,-0.9753911956211093,-2.277461370847144,0.8454795040005622,2.7578125
-0.5485013569015392,0.31244824545520966,5.3236136150256845,-5.2036903876359,-0.01792445259330012,0.29716868466561347,2.05131575783162,-1.928191486624321,1.3103771741625845,1.7057301731224146,-3.7182404481952065,-0.6466379335190253,0.21979458476627944,0.8414678386796364,2.765625
-2.0273520978888264,6.477487651607033,2.0569465181818187,-7.029233233416952,0.08987957758365003,-2.6199598006599647,1.9312469737204374,4.82384693706169,-3.3153957399340737,-0.3240193270809409,-4.3162192993733965,1.6650025898710885,2.7547495197883527,-0.1665866589654351,2.7734375
-2.3439513925192585,6.138350783465704,-3.376954978013979,-1.5070974010704299,-0.30109581815320047,-2.4049693986985243,5.143666116211865,3.0078151970150526,-3.156164162587143,-0.727154280133444,-1.7929775974246727,1.5084846331363817,0.04557913762179988,-0.23410483990663494,2.78125
-1.0304796850137772,0.425574974965251,-3.6235975184798055,3.132648350376704,-0.5834177422589512,0.29377166389388615,6.634398086481412,-3.8271225146733965,-0.6819105835166942,2.512419438981077,-0.015545375465268527,-1.61084561288432,-2.3933579935004534,0.7623310290358797,2.7890625
0.6908511820959174,-2.2141614771128433,-0.13466393935236184,1.509375321029649,-0.05610526007020519,1.3175580805676996,0.8821096334603078,-3.9946630443237896,-1.6647864276618964,5.883812255349093,-1.0762877361740373,-3.980479448545867,1.7378733209849238,1.0917481380564817,2.796875
1.6027317680805364,-1.5520302922072764,1.3490458957887392,-0.9616343972268274,0.5015244964178204,0.38390622255772316,-5.202113736231983,1.1071521632964285,-4.062307158691486,5.848971645785241,-1.509274893590687,-3.7091106837601493,5.77864080821837,0.4188074918254167,2.8046875
1.2966625840671806,-2.5116494204043853,0.17276840685157252,1.1221445504112775,0.12653756069567346,0.5560673117813862,-2.8472606279564485,0.5909401490045828,-2.1626215358817307,2.54363795123552,1.364336321125211,-1.941060862978692,1.6436666948766068,0.044777513498424494,2.8125
0.3667744055563165,-3.937403061191444,-0.9276737265663537,4.7188117094002155,-0.46833851161256085,1.9988107101189159,2.422017493252024,-5.369275032974839,3.171144272267506,-2.2126788667837456,4.267069983849546,0.49638739496292383,-4.672301551158954,0.15033751333265793,2.8203125
0.03701000362810396,-2.5725266604736743,-1.442017016345102,5.113607888362142,-0.22144822859791718,1.9550700998758794,0.861050061282878,-5.918112265372834,6.064071268158778,-6.3010281228851035,3.7552152634864684,3.1253512554291607,-4.1201003386038275,-0.3293424860779595,2.828125
0.48492362113448084,-0.0465109988142317,-2.1271729222337483,2.6749710448469926,0.36284644827185086,-0.21172444092595175,-4.242121526512364,1.7339160309454134,4.0045730554563725,-7.202927402450818,1.7428568544488794,4.232776744744524,-0.07984250820816752,-1.3208279141769466,2.8359375
0.3615516912639402,1.949169038030727,-1.762921737857771,-0.7993728327989734,0.39187075733273546,-2.24621296421967,-4.548163289626517,8.504546290964004,-0.2735013943536131,-4.174414298117048,0.7028394992327371,2.8495796977181955,0.5869799449887051,-1.5409238835312031,2.84375
-0.8936621413646475,4.474510817071016,1.233526768118087,-5.1053714320776065,0.17354261539894117,-2.4431471615945646,-1.391641190095806,7.602591753391019,-3.0618682035704734,0.2701336462774844,-0.6830728957307203,0.5160396835195145,-0.10392525515886081,-0.5900645976637338,2.8515625
-1.880254001274646,5.902599507231033,4.863502848561353,-8.055507121697431,0.15630165850180866,-1.2071941353259974,0.5640042615993754,1.8396736857462697,-3.1925506465081046,3.1230721395813483,-2.9761911673706507,-0.9842273694551937,1.2425064017789873,0.6018892001470117,2.859375
-1.4120246095520295,2.98981819799665,4.721741383684525,-5.801825685188234,-0.04104305677517447,0.12717059290673255,2.6216419101414896,-2.754820786587715,-2.060732651444904,3.691876519640871,-3.4569236511216634,-1.5641668574257783,1.8108017396150244,1.1267391962359934,2.8671875
-0.0018674697289270611,-2.3730583231114823,0.44094740974475316,0.5124916277761083,-0.4667191620094914,0.7287610140268042,5.0866751108219255,-3.605677862315857,-1.0147524689265242,3.1347033733851,-1.4586190429913033,-1.8729645945964946,-0.022170945341279127,0.9107525142748305,2.875
1.3162542821153809,-5.35651439463793,-2.6231067029427835,4.563195240498704,-0.4486144669548794,0.8770201992885688,3.5956193951916107,-2.1238107369704355,0.21635152820064543,3.0096947826057754,0.16866976567110764,-2.4404026106630545,-1.2644658086130516,0.5103775171608197,2.8828125
1.8129970503851804,-4.699653656353949,-1.1051177237827428,3.3842887217533972,0.03578254237134812,1.1487949078188109,-1.3226556201016202,-0.977081414571997,1.6871746167873876,3.60389121847093,0.4836291597404206,-3.172589135236767,-1.2912480916121456,0.41359929162765885,2.890625
1.0100898800516158,-1.668917099445494,1.0310382106264275,0.5714084030885594,0.294150771788345,1.006747379119388,-3.478811511529846,-0.6135798851920282,2.1258110830994736,2.5719980840594454,0.7397235123316593,-2.3728073606559947,-1.5408913809709868,0.3242212352247688,2.8984375
-0.4680503926677815,2.2635419472435276,-0.6759114057928421,-0.22193760045441702,0.23861759922060735,-0.41975777345795556,-1.787944421318816,0.9549863945662668,1.3742858481720002,-2.2491975402589994,0.07386694764721415,1.458419426092292,-0.13326012724388078,-0.4087297510161062,2.90625
-0.9920508095385652,3.760671586949483,-3.44791534565429,0.4246204484444768,0.2032828517301921,-2.041247273922096,-0.30384903509482125,3.552264134424618,0.9580859571391451,-8.028236285243269,-1.7761413035340137,5.930733377849821,3.2026894124812046,-1.440272076015472,2.9140625
-0.2635660485822018,0.7567937865179829,-2.360356096020977,0.9118641849428114,0.011666748255667938,-1.6341893514394932,0.21020234706681076,3.390662539059102,0.8052438714074561,-9.084592671784288,-0.7368291871899235,6.492931553800089,3.0898726398830934,-1.5829741875447665,2.921875
0.17467736008613163,-2.367185654833654,0.8973266744760603,1.2654394407026335,-0.3736884149832397,0.5734652701738934,0.7937830259246004,-0.7505002142514904,-0.6263228829495058,-4.444303598268171,4.284627880222948,2.6736925811148007,-1.4867813504305436,-0.6102934750182105,2.9296875
-0.24631930502499022,-0.7789204732019636,1.2088918977759975,1.5422942852973867,-0.30225416808658,1.8284776992742597,-0.16443261780491208,-4.231728585911605,-2.2465389738354853,1.3498461553329415,6.042960232164077,-1.4748201454044834,-2.936851430718696,0.40611784532688955,2.9375
-0.2004349379859349,1.9710446330767861,-1.0208745793322798,1.1100603367627364,0.29922155165788117,1.0278778927888554,-2.3154594831741053,-3.2874619082316814,-1.3856877623429507,4.869478806275641,0.311195771243217,-3.4075633286658547,1.2311645020562054,0.7902133398829668,2.9453125
0.7244573687467774,0.27275496728364146,-1.0357687434140121,-0.06793495929836586,0.48388616732904927,0.08465614004166244,-1.7957936120254163,-0.50666222557726,0.818325871288561,6.490277085360253,-5.1387854224115035,-4.203845779364085,2.9459414714409187,0.9217114845471113,2.953125
0.967775151411916,-2.662544531488448,1.8079209013423243,-1.4903955728809368,-0.027991712276716808,0.3101693085903712,1.2741102974332175,0.19770312273366736,0.6497764035622637,7.011318321072001,-3.12626244534238,-4.734044283725134,-1.2831706306397939,1.1002429001193037,2.9609375
-0.18085662799824703,-0.7550339186233495,3.263059643922244,-2.669155881492067,-0.3176399159866637,0.5539847365791067,2.408655080627286,-0.7549109936125791,-1.4123031303187346,5.851062025678002,0.7332447526303648,-3.95395068995441,-3.8215135033438874,1.0519825325971799,2.96875
-1.1720200660834486,3.0853013026024865,1.4624208961443375,-2.526611060857562,-0.005533059925568808,0.011072366073118685,1.0764687332506981,-1.3378091160179983,-1.114840042356578,2.496177246049125,-0.6051070402745342,-1.346001338927175,-0.6330523832397701,0.6094940456539665,2.9765625
-0.7726123572471153,2.204009920927248,-0.8009686671321412,-0.2981671611937832,0.15146476124663877,-0.3211496670922189,0.6578290884247889,-1.2600365623039624,1.821222607616701,-2.3457559332770908,-2.5434532815734303,1.8728312909988751,1.72111070713696,-0.08372709064906611,2.984375
0.009240554428628442,-1.45849706606216,-1.3453043838513428,2.1278114799901657,-0.21210746570857147,-0.1772698248239713,1.4953373424824572,-0.054927492059168394,2.539971326245548,-6.6017528102954,1.02052131510853,4.230695199939477,-0.6979753534320193,-0.8717247560038331,2.9921875
-0.19313693051451172,-1.2558860410115957,-1.1064862706293965,1.6729148206480982,-0.4858319744911116,-0.7855105719780423,1.6400324992970934,2.8855677340054937,-0.8281035148031083,-7.916381294266181,4.88566022585812,5.142684376262358,-2.2053366695101553,-1.4433886344110447,3.0
-0.895438336906477,2.0671406101389467,-0.8196350555906834,-1.255587846684988,-0.2784217796182904,-1.9661323729898057,1.319698523705997,4.974695283799717,-3.7205180969515443,-6.281674933538917,2.0722570769939566,4.853073404774907,1.3091743003763938,-1.3683011394288718,3.0078125
-0.7273352277272381,2.376905609552972,0.2958479528036908,-2.8760727880581665,0.049575660259478814,-1.8061972570809628,0.9306859805233666,3.211756348720927,-2.432888304884605,-4.15131223216512,-3.0026933893707164,3.838911419564025,5.066092001737938,-0.7636350971707562,3.015625
0.46424748862271203,-1.1136037833915582,1.9079433818985225,-1.6316624103107182,0.16756650321973246,-0.17511122838356546,-0.9109317705442332,0.3472936216042033,0.5155915521243627,-2.4157594604667776,-2.477328466499445,1.97103925067318,3.63111279508716,-0.27732370673311396,3.0234375
1.6102754830572845,-3.761508792842431,2.333293300868381,0.056506157611955134,0.1862970788507918,0.8666093697697175,-3.6574751376753807,0.9164377915401071,1.5964383976407803,0.8281960333908356,1.4812242869895196,-1.2014580117629188,-1.1985801497295168,-0.061097057280952674,3.03125
1.8069816630716231,-3.167728186547598,1.0308650209005121,0.5543381858928246,0.2654717637787011,0.7307858948970927,-4.329656877461381,2.3925530971508597,1.5244247368595936,5.792777053293625,1.7325783824852796,-4.825720644438009,-3.9305295874993598,0.4134348455901327,3.0390625
0.9208648663008432,-0.5060672703053598,-1.116898396674757,1.2390763148045467,0.3570837434218158,0.8520052006020293,-2.391916300627637,-0.7558033949654515,1.7774693547956648,9.020678540798173,-1.432852622058574,-6.671649153250623,-2.516846453955254,1.2150933862505466,3.046875
-0.43802040892129956,2.427230581118253,-2.956782960493118,2.634121191622049,0.33117721695020363,1.4447320502983696,-0.3090645434202082,-6.034886748265134,1.462273274006349,8.001214103295046,-2.4362585890456225,-5.6519647690144,-0.06631759976222934,1.5855610948251349,3.0546875
-1.023994831072022,3.2385335305556846,-3.2110355268423225,2.8574352419038833,0.15961523037387446,1.2123018357460376,0.5005206887197825,-5.950979780084393,0.7305389208402643,4.429322256154312,-0.5380810515747584,-3.1776423363491113,-0.3037100715384386,1.073935409636169,3.0625
-0.10802774967623303,0.3265900822159641,-1.579382273414712,1.5353209240027577,-0.01700485436379469,0.2078807016278558,0.373750558346603,-0.6998006372478575,1.1871527109821307,1.1488004608652695,0.49300148395964966,-1.0669466718230916,-1.9949442998767277,0.1924155340237459,3.0703125
1.092329174623044,-3.1758058295958462,0.04704726618098841,0.8353843152895004,-0.06116942960054248,-0.16113738265202768,-0.2711456107740428,2.024316811406435,1.2904844958097403,-1.22099589138033,0.03278842912584323,0.5635269311166134,-0.6222114460985407,-0.374363719947142,3.078125
0.6633382536960059,-2.382933307282675,0.182587158965384,1.166741607840576,-0.0714165157603287,0.27421564724453595,-0.4341243830953749,-0.6228339443296537,-1.2945218639416756,-3.4211100833902934,0.7010154500907847,2.404467418313299,3.3651599167022437,-0.530094826257907,3.0859375
-1.0356636467702447,1.2874683941683778,0.3924120192565664,0.2558396805520158,-0.23782625659077508,0.32712173112613563,1.2424770469872912,-3.0902922595416227,-3.3946536718932734,-5.54834401777707,2.348838435375842,4.214590112493452,3.791472077621458,-0.5492568388510801,3.09375
-1.806449266797684,2.174120716732745,2.197574575909877,-2.4386582844142026,-0.49070806218579976,-0.46289969437671746,3.9514955296875924,-0.9247026494991203,-1.3307557374718022,-6.7298156407061525,2.1825900690144913,5.042228932934227,-0.7504611637366768,-0.6065709962072015,3.1015625
-1.234330746127898,0.4560287525247168,3.798733792852022,-4.575257623973268,-0.559587355835939,-1.312591188349935,5.006310025694316,2.8245617496845057,0.8388601585169788,-5.912152635009235,0.20641092546775128,4.467649583673355,-3.3738415363975163,-0.6242086271517625,3.109375
-0.9816500308507631,1.2220075754164963,2.971921792862567,-4.517378040064441,-0.342695743346918,-1.4449227067002142,3.344843506582549,3.2078655521294968,-1.691405676731914,-3.080558730919312,-0.7900440717573569,2.8240969496947126,-0.2938696054008149,-0.423654826090515,3.1171875
-1.159974636924226,3.692514082877965,0.3226100872508243,-2.5446302348000587,-0.007411910650723745,-1.0037475566157679,0.5513973272019955,1.3073612335275862,-4.497295192986184,0.17194811281065742,-0.37787521449730915,0.6977195591797629,2.953889599400176,-0.10385300080039807,3.125
-0.09850359334806938,2.0472895404300573,-2.2387290317431066,0.4530899178293189,0.2189345162395824,-0.7170780101098078,-1.4340460428677066,1.8443982543800244,-1.9224879570926696,2.120964585195393,-0.7532622349750665,-1.2140685099967814,1.7290772032917394,-0.03507164668638925,3.1328125
1.7119799652293572,-2.6930340421309946,-3.2068269951814594,2.625462718483736,0.24606743099782652,-0.6858327183324308,-1.994200733274721,4.117961272233671,1.9060352075135754,2.8301056290036337,-1.8918879971037705,-2.3252452505761325,-0.4824657448173048,-0.1597767359463201,3.140625
1.7889181350041974,-3.528559851377619,-1.6575178645459636,2.1066515690717047,0.1715771293856115,-0.057683555880569004,-1.7974660739872446,2.4653951695025116,1.2096178619746965,3.4489656617740265,-1.3169591904078695,-2.741155640110904,-0.19131421572675578,0.09687002492824438,3.1484375
0.4839172677753251,-0.7938264563427688,1.0473626202098776,0.4381420099021383,0.16090282881026113,1.311198371393184,-2.006458135515651,-2.7484546801256085,-0.3481314694721415,4.120314832173121,0.8136584596683384,-3.104298184643943,-0.09699892488629908,0.7194806817594412,3.15625
0.6872984541653042,-1.5050708508643176,1.638887325049677,0.9933419641903304,0.2516251038489263,2.061263310281925,-2.8442572100387946,-4.318775430659619,2.650676042085977,4.073864284633958,1.1567848735455015,-3.5364525812111727,-2.2232827033974596,0.9095499203497033,3.1640625
2.0357477449973795,-4.724712522301483,-0.21340887456499913,2.952775342228885,0.34473561581485584,1.5230826402216675,-3.075200247363978,-1.5297169422723216,6.751555550956653,3.070650263292389,-1.149096723765032,-3.247748985030958,-3.281131734999918,0.5372995700655049,3.171875
1.1732586361288886,-2.3292506870514518,-1.3296521185565147,2.52133201095193,0.3559513872598764,0.8391848797771096,-1.8875678683652584,-1.6062145984560978,5.880769367251902,1.2731124284857114,-2.5996958790383387,-1.5493175107628425,-1.0854925727233586,0.34064991579021325,3.1796875
-1.5351908405619823,4.491704860432099,-0.8437316907572978,0.03797767134009084,0.23922396107213106,0.4862038468453116,-0.3448917683633488,-4.247383821852926,0.9392512790076287,-1.2737021408916689,-0.7755109699114733,1.0463977134316178,1.5193147852784328,0.26085764953463647,3.1875
-2.0526011496391865,5.605713333891784,-0.6863656156526706,-1.1057142970977398,-0.028170224532777177,-0.5615581781599238,0.2739325208577909,-0.953354264984675,-3.4833067919774137,-3.633032389780274,2.142247767896382,3.0177254205071167,1.9323712893542309,-0.4657813408207742,3.1953125
-0.08032462318225181,0.1560932751466368,-0.11183368216665857,-1.3315071921742179,-0.3201258243737895,-1.8668836418557422,0.3965692906662772,6.4472595963365045,-5.389142549154719,-4.030878600684422,3.1151795032684837,3.220042947926234,1.0938035964003572,-1.2964062824406142,3.203125
0.5242902994671573,-2.241953788096873,2.464354010454363,-2.7825716646889727,-0.4030874025985364,-1.4215737170152922,1.111296289627189,6.045040975292376,-4.51062677871989,-2.3290795397852104,2.0682873715094963,2.0241525993218574,0.33550224320245986,-0.8827727181753388,3.2109375
-0.8702670146414903,0.7502237495416393,3.3739869165434744,-2.9622620707901115,-0.24784280243924983,0.31104340285181686,2.1752022403942153,-1.8553570268480897,-1.4132170965423436,-0.4138788924216127,0.4211727555769841,0.6458787854803506,-0.2295489962870829,0.3150497015476064,3.21875
-1.098028303402947,2.0044013939295353,-1.1254423587555369,0.8825161368109411,-0.09378413273124456,0.5941480423298064,2.5660688178513382,-4.335645709668547,0.9587522574831141,0.6207463017612963,-0.9828727318897484,-0.31609696242147617,-0.26626917159305363,0.5903512258065751,3.2265625
0.07302858103854966,-0.015291910386215002,-5.929452517434302,4.47794346956781,-0.12225699547722556,-0.6417660956479435,2.5015913178006963,0.273435674750837,0.32046293423829963,0.9200387281160786,-1.4196119771958748,-0.645378542122569,0.24681301276414708,-0.03994195196679814,3.234375
-0.05634637210900619,-0.3241312239044771,-3.730969130429927,2.4895942461651552,-0.2626316570272357,-0.8200475895248707,3.0494228032043873,1.1112455015344853,-1.0388718954646634,-0.0695901244616664,-0.7505593853460343,0.23855355257849262,0.3450261960698677,-0.1776335312188156,3.2421875
-1.0755653446886984,0.7212236372783882,2.602132560582831,-2.2088984678198313,-0.311100058429698,0.30950772257385034,3.440616783250272,-2.885088306355802,-0.34535659913850586,-2.0037686610707945,-0.3597845201080352,1.7648499744124224,0.11123170950454639,0.2454637452470102,3.25
-0.4826507513878898,-0.3423580811768649,4.717658006606565,-3.4568264742549695,-0.11028743507754728,0.6709028329382872,1.2509973770484035,-2.6467107262587724,0.5862006713024226,-1.717956005554359,-0.7384343685044146,1.4408171091454782,0.5475201732792964,0.2847682539454285,3.2578125
0.8379188894062041,-1.0685851233853376,2.073919465626618,-1.4755299977599177,0.2581118513201706,0.17765201669203423,-3.142541840721499,1.5094155881423896,-0.21701828471107418,1.6865804985677355,-0.035083780656168434,-1.2594912261354827,0.6131518041284194,0.041125824459290555,3.265625
0.6727219489450225,0.6468637183630009,0.5300697110795654,-0.2924059105296928,0.4513688631821831,0.30836845081498376,-5.3985896229624855,1.8599472082457587,0.06748508907574276,3.0279300742126263,1.7732358629163871,-2.540588474234801,-1.1515494664374843,0.042771810772288685,3.2734375
0.31962402011504015,-0.09206200069353068,1.4261096363259087,-0.26678538866251417,0.2859629975128879,0.6484030507418219,-3.3464236058268995,-0.15856489699828016,3.18062597090804,-0.8013471609757356,1.3479766487158837,-0.06389080311047975,-2.384121514917139,-0.096924625289347,3.28125
1.4808382413977639,-4.581210704377561,1.234456730046856,0.4471044599664822,0.036889840283753465,0.012290695833826514,-0.6121279902444472,1.6130034186040973,4.368696034777552,-3.8436173656375567,-1.5170014777506602,2.2224555137613673,-0.2941112024856358,-0.5675579096882514,3.2890625
2.0300771620147486,-5.001657976037457,-0.895849472321343,1.2443688494584502,0.00014021701647486836,-0.8161085037924484,-0.5145042892817195,4.382862030273331,0.23605646475170503,-0.46592479994142316,-2.077345394823766,0.3026652110004513,2.1352232897182453,-0.560018282868926,3.296875
0.16161897436197176,1.22526302835606,-2.5055550420512738,0.8858833506425452,0.0727349965135211,-0.6513973569184746,-0.9372468131692397,2.407609456481414,-3.7002162564081558,4.5584782217401445,0.42301409055617006,-2.9204840772375595,0.8079381000072065,0.17011943941922616,3.3046875
-1.5702076660757511,5.345018506137309,-2.623391327983502,0.5521689000598606,0.1182953339700131,0.027800078053285597,0.24877705196771557,-2.02172901370069,-1.5522417152670707,4.299070717923496,0.515507244251132,-2.8029968163732373,-1.2427623569531163,0.7015667587397343,3.3125
-0.8182630994539718,2.7338308605670423,-2.343977100570538,1.5600702303880778,0.2481596001686107,0.483627307488179,0.3067878838459152,-3.8429246427608774,2.6618470424436333,0.9828301088617082,-2.4261957374900507,-0.694626098430594,0.606324541307051,0.5367934085736051,3.3203125
0.5146231677409786,-0.21420332490381788,-1.9870743313839816,2.4845266217104967,0.3723451084368932,0.7020746793198479,-2.2467779394894105,-2.5230535949158748,2.0474015573351054,0.3685701047068381,-1.7922984567181015,-0.46755574862946386,2.5797599741682675,0.15906946391809787,3.328125
0.19515854293953608,0.6448079093621988,-0.7153041791242728,1.1712605906738147,0.13387779167588812,0.4491995026607157,-2.9516812312596286,0.2900152517342645,-1.6786049812429518,1.896414430717115,3.285307333679286,-1.6666279165163445,-1.037506779527575,-0.015052900438519815,3.3359375
