AF3,AF4,F3,F4,F7,F8,FC5,FC6,O1,O2,P7,P8,T7,T8,time
-0.4850096834268193,0.3876866717667946,-2.1113815504027666,2.677820625994908,-0.10157890391960779,0.7287937344669335,1.6434073759523706,-4.114300767659214,0.4584952848312536,-1.2353254945680143,0.10513394562792464,0.7978118343195205,1.0860723451046574,0.16418973356124592,0.0
0.6718951525672792,-1.23967056087853,1.3287281778415185,-2.5238243626196786,0.10399716724037772,-0.9643185563615344,0.6627629078797694,3.276796507993704,1.2788193413503606,2.331447366610744,-4.383069627390698,-1.2480012834795675,0.48599751255354456,0.22083439212835773,0.0078125
0.7358811400110467,-0.46736912346834764,2.9677255593952725,-3.6852811487943327,0.26877820988573364,-0.7215237623892102,-2.499181996458372,4.376478789622453,0.337076216788672,2.7110950328922123,-1.7002275234205269,-1.7548583243818712,-0.6374299871691943,0.06825948752159969,0.015625
-0.5352240842650021,0.70799969286875,1.1897553795496378,-0.6320802479677664,-0.16293590458111015,0.5572987367488437,0.6936460208865036,-1.909902974596622,-2.1877696062484095,1.0113037034912065,1.9168828263444433,-0.6041398797758016,-0.3469302114179868,0.2995428157064932,0.0234375
-1.6259887000205748,1.4426329190655802,-0.5879246567744839,0.2844991014742637,-0.6044907187323573,0.32648007988674954,6.612666642218645,-4.798484991745971,-2.871304792996836,-0.04121749680529476,-0.017556930077033118,0.6488437229746835,0.6435060486675525,0.5886072041135129,0.03125
-1.8036801418118418,2.54676107749626,0.3825913457975706,-2.337362333328644,-0.46138947862929264,-0.825379411423332,6.695718264086859,-1.5708577545021003,-0.957841000080651,-0.876418089533284,-2.814290696524509,1.4707242850065974,0.17443804166020455,0.381356654278118,0.0390625
-1.174772674226047,2.399571683115462,1.6037379460910786,-2.7329099853055574,-0.11588271071279947,-0.6663039110528296,1.7688944842678078,0.5897783091727145,0.23821542960203787,-2.5143667865440515,-0.43224394200445854,2.068284966004057,-0.8482833494349041,-0.17932687825515914,0.046875
0.10820861397324151,-0.6061326386271552,0.3700514702499007,1.105486084651731,-0.012658983883953109,0.6081118334523992,-1.6441985908812589,-1.0220243151247312,-0.27828205502528724,-3.1985935616519354,3.0901855395052467,1.8608199519660236,0.09724379075764415,-0.47747886505207765,0.0546875
1.3659559237161734,-3.57759695750862,-1.4150996173996024,4.008005643244951,0.09107777122350905,1.2235861730404423,-2.480477261800779,-2.1501443281695516,0.456187813274903,-1.395421628294105,1.9545609904899393,0.37755279569026967,1.8162266764286803,-0.276963477909611,0.0625
1.6120824393265736,-2.9645488701057285,-1.5775654410809496,3.0011444904778433,0.36753359007795156,0.7476068324004885,-3.3654295935381993,-0.49630444945716584,2.8544062071334437,1.1194843428716252,-1.0766803179954485,-1.3427975557646745,1.0970274974504894,0.02095247703832532,0.0703125
0.9777140476121129,-0.4681530382752963,-1.5625094993164141,1.2455334353878205,0.4399509494030122,-0.1043417507537668,-3.4660960052334886,2.0544035560726344,3.2869624064698773,2.2711408270290128,-1.3623250986705384,-2.0588155945647597,-1.2872141084057953,0.03264640692124537,0.078125
0.6851438034879141,-0.4498399752668882,-2.302365761106976,1.2858147077483593,0.1262923640402426,-0.6950788139510549,-1.0987574204577792,3.3847202157748915,0.8455310585729774,2.46739642442552,-0.4441405899817013,-1.9465207986451434,-1.7808772410567404,-0.07665147047891958,0.0859375
1.1633505221694387,-3.1052103806118914,-1.764898944928889,1.5500374658274292,-0.17332482226104162,-0.6148775925524024,1.2472315723219454,2.8947922717550165,-0.9689374337203617,2.1606530327391797,-0.8839126406254656,-1.4703315294223862,0.02244061082267843,-0.05804999969407994,0.09375
1.2225940988549757,-3.742555396909495,0.6702924014240177,0.016020951172716895,-0.13390364730760246,-0.24345723563039415,0.769801652931213,1.815299862873853,-0.662949754883461,0.43597585779762443,-1.290520240229957,-0.18412073870237447,1.4303755639985754,-0.10698316110019955,0.1015625
-0.22414349095511396,0.7402078846023409,2.804474696119499,-3.232492442457173,0.07781675038557671,-0.570584268428624,-0.853778217534966,1.8696673253299523,-0.5810475152092308,-2.3060570284473054,-0.543227164422626,1.911465190572747,1.2766150600929809,-0.3712062944411696,0.109375
-2.2364291736529993,6.64776812802037,3.432420283928332,-6.025870205161422,0.17363963913234917,-1.2349019953935658,-0.8960699719293734,1.9129036612464645,-1.5589121362682492,-3.80188435227924,0.18474821258950824,3.317056562831418,0.5595554998922918,-0.47008168228231595,0.1171875
-2.7135330610857418,7.329315559569263,2.7708169530129796,-5.057792705598196,0.07146645146753051,-0.6699559741845775,0.2782918668910379,-0.5789065373804961,-1.442830548764955,-2.7875589500467446,0.8697731370413967,2.5260989627694337,-0.4926472961159851,-0.09670362813732421,0.125
-1.2267441330325852,2.219644321249731,0.7064095911771288,-0.04008461964513144,-0.12855265445156763,1.015418507722692,1.154824383151332,-4.181165917777609,0.37449357841861775,0.32987146651752486,2.112214714416118,-0.3993241849947423,-2.437573664797772,0.5013325169683808,0.1328125
0.3275112852307266,-2.113972668926463,-1.395044155276459,3.8697342194156286,-0.20841946250018809,1.9938958483714389,1.246826405279641,-5.4314398799729915,1.3950420983323393,4.317929673021267,2.3609957606044203,-3.7056962546105217,-3.655117625035058,0.9946531817193082,0.140625
0.4655223893965146,-1.5571881137287533,-1.1350681571327639,2.7792179371534433,-0.047558828998525496,1.6732022195866605,0.49840446781268904,-4.704425142387433,-0.08362167471000712,6.2036147025968935,0.5107384335628243,-4.628017927807148,-1.1447987731332707,1.1690753010586925,0.1484375
-0.015768684268705122,0.34013392536015996,0.05277914028371591,0.35512817627882964,0.11911974504762228,0.862918702472483,-0.31498513795199884,-3.642230547096225,-2.2140655871905697,3.100848667137546,-1.2763182802127016,-1.7991934074510236,3.755430501467183,0.6782624814622239,0.15625
0.1564973437306783,-0.5493735201454562,-1.1307742484668566,1.1378372213531491,-0.00948552103467751,-0.1382365790203498,0.28436376979398403,-0.8131003055227405,-1.962918101142231,-2.4906697864098395,-0.8761445436675422,2.0837698319198585,4.6843343810364475,-0.374741603076041,0.1640625
0.7209365054345842,-2.6223353950378314,-2.5573435712508665,2.4059123880377755,-0.26065771822932504,-1.0414132638661007,1.5111574550596711,3.5422955546994856,0.5642754847054788,-4.421750407215754,0.6021252963323993,2.8836346876089287,-0.31827113244735555,-1.0089285934468222,0.171875
0.919421403483523,-2.795184932363045,-0.3657765750392783,0.3625950702562042,-0.1909881483576997,-1.0058751361552514,0.49081970857070695,5.156201361872199,2.015482355173076,-2.0261736503695986,0.93588034455243,0.9829513195432565,-3.7620476757196775,-0.7179681243847942,0.1796875
0.9199718514171055,-1.6354026555528063,1.9938105238581079,-1.732454855204649,0.182421700186554,-0.43600971418186957,-2.392103294838547,3.3884368068389503,0.979462302700113,-0.7019318216280059,-0.4682944312158469,0.3667887969489981,-0.08181597788758985,-0.3836541248187843,0.1875
0.8843527503131112,-0.8936789088339775,-0.33268557302762497,-0.1653353717057353,0.33024121616213875,-0.6891648139762594,-2.6254998076148928,2.5741688468886057,0.2354925107697967,-2.010943980967667,-2.2627632800258968,1.5646851441486065,3.9843298298252727,-0.5944425731990621,0.1953125
0.23620496262271956,-0.42673959165244885,-2.8631568795105746,1.3405420595733963,-0.045326931102425486,-1.2455234712338579,1.5310714490537058,2.946038506858662,1.2620707762650407,-1.8484387530771167,-2.1639704040811973,1.3892360931052175,0.39367927132972125,-0.5071430025260798,0.203125
-0.877328051024686,0.17253011335074542,0.22157931653467208,-0.9636345722403075,-0.5313918931438941,-0.5513635770701977,5.3505755039942455,0.6896282059087087,1.1166639975551327,0.5057436668994422,0.20634439225453877,-0.3171375969732835,-5.306981640260922,0.2831232456779542,0.2109375
-1.1296693732847536,0.7159472431258779,3.5607865348734413,-2.8466637290817025,-0.4323785800557981,0.6209338882759764,3.554806019128661,-2.647113115529019,-1.315348730788932,1.2286528709623936,1.558197648022562,-0.6389523136462781,-2.8881879017658187,0.6579694467908479,0.21875
-0.19865067750335316,1.6699663544780445,0.09306813697026008,-0.07716106080755719,0.3090383868754356,0.5051127910777439,-2.456503819972046,-2.303673723384254,-1.9503326187877854,0.33374524294815944,-0.47910155223195344,0.04730595535653107,4.388607413698132,0.1201504230048175,0.2265625
0.4466657674283978,2.8826605811136594,-4.640527992018843,3.0840248574372744,0.8528297501900501,-0.10698273661414809,-6.069289911311185,-0.05097554311920107,0.9236237191428496,1.4143810830149137,-2.4218107626851073,-1.071030816035061,4.911157380427991,-0.15136881562189433,0.234375
0.0014350361029690098,2.443939930815569,-2.0992937376858816,1.5504219150648966,0.5264835802667155,0.48460965093564823,-3.9557238224584874,-0.7356415441252528,2.728489893197422,3.4608646707671387,-0.1355579895167633,-2.910942883473124,-1.7654456371103109,0.407466677796497,0.2421875
-0.4735913677785459,0.10112451128583143,3.755370500812636,-1.7904402319525698,-0.14270315634339203,1.4377108630420377,-0.10536059554076271,-2.938275582452295,0.8657651931811235,2.412643169513665,3.2916091220482233,-2.134250216960734,-5.008039660522517,0.7266368519197153,0.25
-0.22307949704993932,-1.0844830516119768,4.261682606311433,-2.180514715404681,-0.22574608412040112,1.0811986184861786,0.5479577238385245,-2.570553692285856,-1.0305330098809862,-0.517495535761668,2.3290893781200013,0.3138892772676887,-0.9785590123722043,0.2767951256613499,0.2578125
0.010994905015723885,0.2243122207319075,0.9808172182959161,-0.8885427102831067,0.12655755788565926,0.06556238950074861,-0.8821011230659894,-0.6612642327324915,-0.8449912697373616,-1.0779234265387059,-0.9502451774181938,1.0109119682249572,2.97884826473832,-0.0902569925323255,0.265625
-0.21789405584487803,1.0111802805246641,0.4567954965178544,-0.8890487677635033,0.0923530462023179,-0.14425104755545218,-0.6548021932621454,-0.026425927230880258,-1.3600130503513457,-0.20484971460100398,-0.4205483107330738,0.41147761837562785,1.9947313127540243,-0.04683408038747659,0.2734375
-0.2342032509637067,-0.6340470346647243,1.7795323637672786,-1.0536599646888745,-0.32694026684405786,0.039225534074627824,1.140758389656773,0.24971720093116156,-3.160701153073408,-1.482398203707077,2.790996312115718,1.1811863428748743,-0.04127702527477961,-0.24888569977556302,0.28125
0.16096870086301743,-2.220304737436909,0.16697067526902876,0.3570706898952953,-0.4902862656242396,-0.5110552391447797,2.6853875193231893,1.6721211188593375,-2.827434989586271,-3.265240555508061,2.2032526537516133,2.4225587537433997,0.2829538080933906,-0.6373879610842967,0.2890625
0.24274350823976765,-1.5672914480301499,-3.235605262762737,1.806929969024356,-0.3377217306924586,-1.3471913645900802,4.086764076919057,2.7341085548143798,0.02171111060418812,-1.5308268743662696,-2.136403806261908,1.3357733588760352,0.34536854559070046,-0.417947064594837,0.296875
-0.07398706516978078,-0.22345148102336615,-3.6526844306920134,1.6089834063973336,-0.21430311600333682,-1.122994399972873,4.333751208811483,1.6838180495049095,1.8278749956983562,2.012086052794512,-3.5568098454445556,-1.200733056097068,-1.677820880597422,0.25453761466959945,0.3046875
0.059029810864000255,-0.42348733498292485,-0.6781435676336027,0.7233628912875604,-0.06301910226832284,0.2213848338289981,1.1465657086448693,-0.5716216787362861,1.6988972813376553,2.375765756544548,-0.49409061090394013,-1.861245714723813,-2.578715329395201,0.4417654268277699,0.3125
0.8602469063869795,-2.088192380204554,1.6583137035491977,0.5150223171074859,0.19078109430561074,1.146596751674192,-2.8182691343651025,-1.5537661596921661,1.9384822784269713,-0.0694272782892195,1.1594447183950176,-0.4859133195116593,-0.5317737984842263,0.07662450097407354,0.3203125
1.3716056473635017,-3.247852326149698,0.7030809706428505,0.8377538257258398,0.22324518945067795,0.502311455585183,-2.1953873658532044,0.05842083022687784,2.629156221223996,-0.708868720367688,-1.292406009507797,0.13861618287664634,1.1081888513298632,-0.12855429398882406,0.328125
0.7421789708609537,-1.5507506551698742,-1.9712740447586672,0.9774820603286671,0.02975108459470672,-0.8555629068402033,0.9857510011921269,2.548226880891385,1.6846632869399392,0.7169476101476789,-2.999871917303704,-0.4421625206472199,0.23103669624594983,-0.0991877771140156,0.3359375
-0.6639774885133377,3.0462813009174092,-2.963335471663249,0.4829499312845751,0.09901673777630914,-1.2205178784106172,-0.019508903378627613,2.660435644408514,-0.6088698385292685,0.020145479850534144,-0.49283957545330864,0.17248461067936774,-0.20554452122080066,-0.30889755274140424,0.34375
-1.6500704844628824,6.678974459004784,-1.2512418082416066,-0.6413412500793715,0.43586981304826083,-0.3902678470357803,-4.138489919977498,0.029069235582460315,-1.803635978734367,-2.6142899023318993,2.532494764555076,1.904980400008499,1.4658708176002346,-0.5535635685260882,0.3515625
-1.509924694593,5.895026602351385,0.9128769000907473,-1.6137707959416216,0.4876185208876235,0.4425947850364481,-4.527019521833584,-2.257995288996496,-1.195439979660079,-1.7699430705298669,2.0914306787021872,1.2966511923716384,1.9072234001885253,-0.15055228241990226,0.359375
-0.6921992934604002,2.273176706654671,1.804971161172899,-1.659530369364967,0.16704730557971256,0.7811515754596664,-1.1362564348996138,-2.572904398852522,-0.16762623174436492,2.8226879071888344,0.3195073277276088,-1.924545368585145,-0.6884462441043612,0.6773188249081185,0.3671875
0.06952923155843206,-1.0440725053285982,2.528311027198744,-1.1591633639480612,-0.1122568874758321,1.058088150546716,0.710763921673991,-2.3393626546956656,0.44385769292213345,3.7926603806011845,0.5813559463086981,-2.7960492951952745,-2.584820831531409,0.8489801239317879,0.375
0.6950449541833154,-3.7886766881410145,3.8513710009096753,-0.9644107085994427,-0.23479399180732866,1.1506052304267125,0.6066117093780595,-2.048204287178785,0.706309817924873,-1.2828200105516874,1.369676463979362,0.6304191958196836,-0.8165515686572384,0.12350682486663013,0.3828125
1.1872575343484386,-5.388353403674647,3.8788313000274717,-1.0521073443737727,-0.2837636696511088,0.5758564134097728,1.0912502612199835,-0.5943647926982607,0.04534775403336217,-4.147805578825105,0.030052697953618472,2.88973392756164,2.1721998866767325,-0.4026215589072429,0.390625
1.0181965213346718,-3.292258347169562,1.1105694154047656,-0.5966981494581393,-0.13962191275590674,-0.2463185951598927,1.1005338123389934,1.149191164294616,-1.8980555943331492,0.40343198571809935,-1.8413156026953947,0.10911483413077748,3.163732376438712,-0.04052289689363073,0.3984375
0.13342960927801567,0.9432447463488042,-2.8521875608897647,1.0577505578475586,0.06425574790325182,-0.6151225546607489,0.4112580436921714,1.148983931139442,-3.008527215130843,4.763940606539118,-1.7591808766931272,-2.8617229886641713,2.175315089312351,0.3943532867375959,0.40625
-0.4079956897788776,1.3780280784741696,-5.224197379102034,3.2863190997275313,-0.13005918784535844,-0.7761024441135955,2.485495084432782,0.4457700783838595,-0.806487771275161,1.3680435392324424,-0.9200428129186983,-0.7982533099482253,0.06974743074084366,0.025937110366374853,0.4140625
0.023351485256080204,-2.2893813915784706,-4.443487347953001,3.7359839987349805,-0.563074837218154,-1.1094020723114408,5.889944876978765,1.6964343840404348,2.5873279970166996,-4.245157968235761,-0.7479290375071991,2.77075157411894,-2.6629619135608884,-0.6428218396608256,0.421875
0.41905084750978344,-2.9387804983611776,-0.7664225478123374,0.69939855879376,-0.47373594709023414,-1.0801420331175997,3.6642106268882477,3.867172951212688,2.1944024675904763,-3.499964337378033,0.4798258432493809,2.1625636662093917,-4.040706179373278,-0.6873586315089926,0.4296875
-0.2999524748774013,2.0645467712753893,3.0662390495362604,-3.4209790806206994,0.16546177344566299,-0.294515033056698,-3.426804362721649,3.1826824773444016,-1.6688234496221963,1.0282776852407467,3.1034538929930995,-0.8214613763600641,-2.4966708339268537,-0.18385351008825965,0.4375
-1.331068852670097,5.919914242872088,3.340841615125206,-3.943184660663127,0.49919600649762674,0.5108164799526433,-5.7552486549365796,-0.575058524780052,-2.7228243558252054,2.0074348051038506,3.4283432792735393,-1.343166953404333,-0.2584637302785751,0.22230346430250902,0.4453125
-0.9807166139619924,3.073497110698533,0.13135667306904028,-0.29987211397268737,0.22623301594844109,0.6271971922424053,-1.067918623611865,-3.13937262323618,1.275739382799579,-0.03453101519631386,-0.020963941099572957,-0.03357564277437068,-0.07552669077736397,0.3228266884993091,0.453125
0.6573142792415181,-2.589040989159745,-2.0545809025577997,2.840122581116803,-0.02549307117024115,0.4582081021033334,2.0101672394678336,-2.2460310932062812,4.435156392830069,-0.285417571346429,-3.0106573323243895,-0.10161813722320007,-0.35161807928538813,0.26793591802750055,0.4609375
1.4436454856632348,-3.853907220516929,-0.6855918403438273,2.1022484371290022,0.09761333687620682,0.6069464597998149,-0.4234321107573916,-0.9759538531480979,2.208205450858876,1.1390154431538784,-2.177235712228826,-1.0445163446616879,1.3535016816523424,0.2098253232062067,0.46875
0.250333568349297,0.2795718499998817,1.2018906795426647,-0.4373504813300204,0.2596411127244669,0.7832390726762167,-2.720926669972457,-1.8963529284099814,-1.7179121403813427,1.7398544644952922,0.1871702832417526,-1.108772810206525,2.889834533968528,0.28796259089763243,0.4765625
-1.0629250590144272,4.000667136494828,0.3272085706600982,-1.1155759479885232,0.2490014458953997,0.38366133721460627,-1.8836257320067393,-2.150420219271061,-2.105492168696142,1.8891186676470013,0.7233771640513667,-1.0617967718521502,1.4245928018358838,0.3812406215250095,0.484375
-0.4606890002448221,2.4590530851318917,-1.657579214348179,0.27499033174376,0.1896881840287176,-0.37207877950272655,-0.926909652531578,0.6565698606612363,0.2711328998385172,1.4718310064150237,-0.3947769595138932,-1.0139274457699274,-0.593382363712396,0.09519599134691578,0.4921875
0.750904426578828,-1.625936460158426,-1.378691977203203,1.1805328850283423,0.061675778783936555,-0.581832440541017,-0.4117790667621005,2.2800659079689605,1.57178408854087,-1.7607354280631007,-1.1174797981755977,1.0790455719432506,0.43414126630383376,-0.4835505555298303,0.5
0.16644748881286361,-1.9207911150742891,0.7996900336240494,0.2806992143229068,-0.15998744793447853,0.02851367036389073,1.260070866770075,-0.9568237592961683,0.5684702670459423,-5.7833903591335,-0.39816146235860034,4.110836948725914,2.6442354698791206,-0.6405007700144025,0.5078125
-1.146676036006286,1.3361516951156953,1.6724196241954974,-1.0863184390227554,-0.21561327445353937,0.4228945264475287,1.9734800826024184,-3.456884933142892,-1.4288647820085376,-4.211396887116621,0.8474662984244284,3.2734016269534916,2.1795227872012375,-0.15724863182544693,0.515625
-0.4668753748815111,1.6016357542553785,0.24502976154811304,-1.3612660616860124,-0.06708340827162837,-0.43112113093314414,0.4970685682180639,1.166870827322078,-2.6604983616158466,2.646338810966677,0.44555162271966453,-1.516028940471623,-0.3384533606263078,0.24225194070988634,0.5234375
1.2404803072235588,-2.1974902227276782,-0.8615776008421424,-1.0598544155192027,-0.11553069636545998,-1.728878386881597,0.7710883979752357,7.460539841554327,-1.8011037823886096,5.336735849177022,-1.622300504254443,-3.4739527536999897,-1.9715397307997444,0.024899061104106366,0.53125
0.8715809083411641,-3.474182134186011,0.5326027577395591,-1.3267945961645424,-0.4013068081611216,-1.5558054411712243,3.4485055328588525,5.79016619438525,0.4774158282128601,-0.4384741412441997,-1.5938654954552314,0.4625061449799792,-2.386606780693294,-0.4061820332885154,0.5390625
-0.8461310564230905,-0.49487432627990113,2.7983925036410104,-1.4492084241610685,-0.4192705079451304,0.2770323822806693,2.8981627371092253,-1.5166001267113578,1.5085189268634949,-5.851944210749062,2.1969252527490326,3.909909928614376,-2.589809597548039,-0.4214401421473093,0.546875
-0.6010873628049989,0.2959427247756964,2.8452759631495996,-0.24782694897277174,-0.10364551048484735,1.620288259992168,-1.18375135528938,-4.121132407546771,0.3280180703276012,-2.428056334760239,4.739449689448319,1.1580656541891021,-2.3362671779616826,0.035098152114170084,0.5546875
1.1422527307582695,-2.599490000507221,0.4923392366372954,1.1541748389976911,0.03579411935064106,0.9785720169097495,-1.852057199718221,-0.44305719485798345,-0.7744027418311856,4.65387737969689,1.70624902804166,-3.634021853731837,-1.375413871386807,0.5144766559629311,0.5625
1.0221161944893156,-2.129222479762036,-1.8528017628034061,1.2448450372532718,-0.012312261135936808,-0.2958932120196082,1.0426825047729134,1.5138683630532388,-0.12929576715411065,5.508966906419822,-2.570545901222782,-3.7373159285237323,-0.1867423889111201,0.5785411704380603,0.5703125
-0.7299830993515419,3.0257732549948084,-2.854577245793389,1.4786032676704022,0.2529566447554747,-0.014217327955448172,-0.2912174365453787,-1.9750770858493665,1.004539788215583,0.9346411081867027,-1.8163739181657468,-0.5467295365590958,1.2586242063749988,0.2692095715164588,0.578125
-0.7700556699991218,4.394810481777462,-2.885184961019881,3.4317121388284098,0.6775339229471986,1.5388069492796068,-5.693298395905287,-5.763727018048194,1.355232743603797,-1.233767626109239,1.7403630776188814,0.36906879242340335,2.7964534193221984,0.040248505816810914,0.5859375
0.9189729371369815,-0.4527363541452844,-2.222287308842355,4.382844495573941,0.5744392708643555,1.8125785603179456,-5.985082897387114,-4.336318039961979,1.220750656148675,0.24267106743543732,1.6165779942444263,-0.8668683319720139,3.0558489829485027,0.03878511419089162,0.59375
1.0270310537676126,-2.508092648212349,-1.200484560831815,1.2463587831997402,0.018791571865007455,-0.30126233218597964,0.24253948272396395,1.3675617873653683,0.544077110608656,0.6796374170545343,-1.9791043771133836,-0.451301637214797,1.3866428098654686,-0.07229597722072602,0.6015625
-0.8709215711442648,2.0244156169683896,-0.6109652987676268,-2.9448651277943436,-0.2596945731380353,-2.372609302446961,4.257913760532131,5.328471010682596,-0.7562863194598693,-0.365105467719709,-3.249085992344743,1.01960178898028,-0.9269399539202813,-0.2737794957442793,0.609375
-1.7427982976949101,4.7119201774422805,-0.0925877663971926,-3.1266813485370037,-0.14791722492937048,-1.6296058632551227,2.5872860668958824,3.047370399576901,-1.130104240089911,-0.04136025521048563,-0.5796505483772176,0.5710884484793896,-2.3420027655993594,-0.08268308217690112,0.6171875
-0.7938328503082538,1.1879096121960875,1.723498249746902,-1.111442379694669,-0.11993461389865619,0.6381672410418364,0.8383782382523074,-2.354728978089282,0.08635184559035608,0.057659463364851754,1.4730040868684176,-0.10057870856819282,-1.845975522214159,0.3256090277980639,0.625
-0.4104516815469688,-1.037053156659942,4.216394428914841,-2.509718836693103,-0.20167665410939287,0.8067848273369607,1.8011146445802633,-3.2490104098731387,0.5533954927361784,-2.9738680296929405,-0.23681639894654524,2.2491172239488355,0.8569025891392433,0.1380221694640295,0.6328125
-1.0692123198006809,1.739240464107922,4.657926003909065,-5.843752327913253,-0.07707728912285135,-1.1506191139447461,1.860336785619986,1.4121127188368034,-0.8609463020442327,-5.68201944144703,-2.7937949287395547,4.864774428788884,3.489342162312245,-0.5452133861532703,0.640625
-0.44637829918969046,1.7932527484351635,2.059619012948126,-4.068623742011346,0.09005633490320977,-1.614031550484178,-0.2480429447768665,4.268088167255268,-1.4308537892183852,-3.051596363862443,-1.9792183014762172,2.7910637986885862,2.501521643471498,-0.6649288592432913,0.6484375
1.662917753797568,-4.196714616715157,-1.2464498007850293,2.652542789225045,-0.06256608845708235,0.3078990983165969,-1.0798589816981883,1.74370695689415,0.10261483392892282,2.277524478348959,1.3226565556610455,-2.088724844868694,-1.3520870518624233,-0.0447455372196562,0.65625
2.455742758891617,-7.563590703758914,-2.2704991454294716,5.783531241708182,-0.3138765415218132,1.4660798902426693,0.21476345609921865,-0.8321493003325305,0.7638506829320758,4.068141697014018,2.944457991694266,-3.8249385110741314,-3.240962157219855,0.34683557618341865,0.6640625
1.0944812642360302,-3.4362135492177903,-0.6858062507959442,2.289627237754737,-0.19954165972992643,0.6137631488047716,0.11045190461999294,0.09359058382296677,-0.6522325960606759,2.238830316772555,2.10184641414406,-1.9759777402733505,-1.7398186064427308,0.14507492556058527,0.671875
-0.05132431647179809,1.1253668201493892,0.3396430488138849,-0.5351307572171274,0.15033673900179156,-0.0008318079197908107,-2.1323232713998137,0.8578631452962034,-1.1619660318758478,0.8978638252957543,1.3706665263108406,-0.6807154342444671,-0.1212872041857703,-0.057650017851636454,0.6796875
0.0992509763310761,0.9891483360736911,-1.9941616060902072,1.9517772056606006,0.23820702953853873,0.29088369561500466,-2.355133670480552,-0.5727583106045566,0.17320270912318783,0.5931252661199223,0.9324641744977297,-0.6775785732597551,0.38744559119222216,-0.05431531616838583,0.6875
0.06898763981271723,0.2865650712482638,-4.83716131389322,4.180243697577968,0.049264194458886135,-0.09857432130845646,0.6120678734356716,-1.1294485847828661,0.7186298538824745,-0.3805707769296513,-0.8668927881158246,0.14948505818993876,1.3675674015912154,-0.11980031788084301,0.6953125
-0.5399174132233532,1.4674159243073777,-2.699040591268731,1.3383877409624043,-0.0025559805823484505,-0.5218367828999865,1.746494865955672,-0.6591348730522999,0.37478953337431853,-1.0488962850568169,-2.046755088865528,0.9975707148774179,1.6608692495114965,-0.06861258677709034,0.703125
-0.4765638484840927,1.18143414130531,2.847083056390513,-1.9546903466195054,0.15597304688503386,0.8363198933768644,-1.369928910632824,-2.3607638372224695,1.4704301528323693,-0.09185201996414372,0.4588239823725708,-0.07666013857795906,-0.9464269465527196,0.3242183515548148,0.7109375
0.06914860611505325,-0.4086046516380352,4.09859934729413,-0.8971956357063671,0.1982524358634441,2.1946111044467687,-3.6027837520688815,-4.255947173583572,2.6697351030364946,1.0036355604710083,3.6770268873501397,-1.5400655695780687,-3.760662100412269,0.5505920560840208,0.71875
-0.2700160925265051,0.882116989581126,0.14105726076274938,0.558202429621516,0.056562643192269356,0.7250556563680783,-1.1945528105724896,-1.4794358178745273,0.9355775157809305,1.0997758602056942,2.187457947611908,-1.1869470423200759,-2.7001335988627893,0.2431494328718548,0.7265625
-1.180524069133465,4.062127006173571,-1.5120382385863942,-2.1707264503634827,-0.010170605354269278,-1.8707321008414313,1.9409980815784373,3.574001698997004,-2.0763915550066727,1.0567421746477097,-2.3731679957278664,0.02556096249503545,0.6218163921383949,-0.08478567894729439,0.734375
-1.3017995209817188,4.180163959289535,1.1777867410547977,-5.175407330213123,0.0032650064599303807,-2.2266505270125765,2.2369152223477484,4.372371450394755,-2.878005427813013,0.4642106512646316,-3.978951810854064,0.8728467023813566,2.3491955128988873,-0.08968773098932149,0.7421875
-0.5997445335877516,1.072966226066656,1.6580909963379644,-3.1435861220243737,-0.11449212022402082,-1.0560675268657467,2.178681329801689,1.4571208854939017,-2.0163213967090186,-1.638058517499417,-2.5620361210344194,1.9485290085192757,2.994515454095352,-0.17571127865995748,0.75
0.19431257564429674,-1.5849780058954765,-1.691690376392781,1.145562255497091,-0.22803680355394104,-0.7237508133389322,3.121350177845179,0.19883535433424812,-1.1052995004384105,-3.0097246234974024,-2.5649128005282686,2.598959242069734,4.053164662130891,-0.4055840680933759,0.7578125
0.7673600207929054,-2.4322369040022385,-2.3815903688938733,2.0509592176754157,-0.0700627449600936,-0.552892431044648,1.9744286012416206,0.5379932410354125,0.8033077119432036,-1.5128844691489025,-3.2969428793372213,1.275072103997247,3.089973979649646,-0.25656916335620766,0.765625
0.700572921037439,-2.007823562415734,1.2246965840503923,0.32649917886300994,0.1297844459532459,0.8094624088949762,-1.1781028256152064,-1.2779603134777515,3.305318605776736,0.13484487477190493,-0.482613420461166,-0.5450226536749557,-1.3418288343306009,0.20090900701613168,0.7734375
0.021524931245395094,-1.1147300974248056,3.032553792840288,0.2892420840575006,0.007649648503758681,2.051867478823769,-1.9810704155287389,-4.180223834421437,3.3850289756408007,-0.5854283641683851,4.156983618925334,-0.55991911019206,-4.865261535628544,0.34370040728237333,0.78125
0.02119141777563976,-1.5697902721900905,0.9812613295980205,1.9362436030790136,-0.21811352429091083,1.7110671070103274,-0.25070337620363653,-3.9181108733506416,0.7604431897932996,-0.772018949476732,4.702703767691715,-0.202241258388864,-3.352758199206817,0.1724141481382028,0.7890625
0.9292913032596659,-2.933412768608881,-0.6102911749320862,1.9043716684861498,-0.17735267988913586,0.48079562750935917,0.20941927242131586,-0.23241424004717443,-1.8352786952315743,1.608932667737626,1.4619596672509094,-1.2671535955537723,0.3829054446905508,0.07768885366293053,0.796875
0.7046447347556483,-1.0679655944899282,-0.42363808255279833,-0.29026229498299533,-0.05089398880719606,-0.7219118598593688,-0.5208326521371897,3.483489938993499,-3.3982186061732595,2.7032911648629767,0.34017170935863794,-1.629243279037325,0.96671537676703,-0.09633489294740567,0.8046875
-0.9529278247048826,3.573504866671332,-0.7831571122717231,-1.7106046501702021,-0.07726200479155726,-1.5144387486488913,-0.32334457394109845,4.756670925036842,-3.598378062834129,0.11771176621972558,2.456630537334279,0.20460269648719948,-1.6392342804885534,-0.5092452513001208,0.8125
-0.9653037785977369,3.401792587521337,-0.8322718100108825,-0.7140022510194078,0.02480626587430642,-0.9351226421312703,-1.1776626738878126,3.0376194410168336,-0.7326018981170609,-2.1231428164988593,2.8752783443394834,1.3552742873959907,-2.5795645165796666,-0.6330961546758991,0.8203125
1.5030865778728362,-2.8763328349870365,0.9503047689707466,1.05386580004381,0.42418024144013977,0.8936450203219702,-4.363543529574489,-0.40633551483289865,3.469529877697758,-0.7244326184303492,-0.5875695355889506,-0.09726279815577253,0.9121435933956997,-0.14919561400363857,0.828125
2.673745162568403,-5.290056875491122,1.094263306422554,1.6132813571836309,0.679179016499416,1.4515834303835349,-5.431740464167336,-2.0728305646247254,3.5273904520469994,2.054796188891579,-4.328151337879884,-1.7823050440962365,5.466446881088344,0.34473037597681166,0.8359375
0.679554881862582,0.41349600312953594,-2.796507598740442,1.3235265922086665,0.4459166130787294,-0.3884990218467008,-1.7670162531733749,0.18874981021564535,-0.38286625989683376,3.1209480704019925,-4.636134903410089,-1.7505327124470145,5.270470618138308,0.27610899674497497,0.84375
-1.3521567013869482,4.846895961819914,-5.477338772119125,1.3054218341342458,-0.027979579904928796,-1.8104351178775877,2.4533834518886812,2.655879026401236,-1.5691976619589427,1.735424170682576,-1.6510697921343571,-0.708692675353956,-0.344407274994087,-0.060780078906424936,0.8515625
-1.5026025169674166,2.4505138471986077,-2.120992868059377,0.8191502156760773,-0.4233463436513342,-0.5961675498254546,4.3377662950120035,-0.021573416360062495,1.2132790835856642,-1.5286846492136172,1.6410928452573461,0.934946211228826,-5.1444025180987145,-0.06318245403254062,0.859375
-1.6825119311928465,0.4522048804231161,3.0657581271611303,-1.3228531018535226,-0.6141906220588604,1.0880046837276551,5.5175685685562,-5.463032045575527,1.8177072074235059,-3.9887866572987263,2.1862032009661876,2.6647655160534143,-4.0396239126075475,0.3183146335778133,0.8671875
-2.1485753428416436,2.630962335449641,4.149283247849347,-3.632645749482091,-0.42949771361724315,0.7610453914932817,4.794826389109468,-5.623392677825434,-1.1380147925093889,-2.4836600776623055,0.28888984305980414,2.3070858135325487,-0.016427715467791107,0.544163436822371,0.875
-0.767543617757732,2.0764498003226217,2.8077431344372252,-3.4372747493178744,0.02610300781674112,-0.10879708833220716,0.05372843826350707,-0.2925668976771663,-2.090614733223685,1.0176967739916734,-0.4270852744189602,-0.21490898478763606,1.0785806626720604,0.28499166855562874,0.8828125
1.3959158866797525,-3.0629009856584695,2.74213919383888,-1.0092896772027673,0.16332684801720532,0.5343494104645409,-3.2508339455953617,1.5974489070300273,0.21068567180143719,1.6309036489957462,1.0235628048945464,-1.4788478611861755,-0.5003234291902569,0.007709205583229839,0.890625
1.314693657064435,-4.728541211647275,1.8282225364272655,0.9656755523745484,-0.14577041075455752,1.115537215712524,-0.07011649258895104,-1.5057113525834718,0.947012844346326,0.14041868889015252,0.8438417097156771,-0.4919827938399236,-0.3605124277661975,0.14433648128679394,0.8984375
0.09791729096157191,-0.7587326515412743,-2.1453840007378724,1.3490417248118713,-0.17307921988696004,-0.45307505276769006,2.72290727371005,-0.0795704317824873,-0.9053835629179643,0.7795874647916236,-2.0934001218975786,-0.19920453695270357,1.7361991633272735,0.11584102768681094,0.90625
0.3504310007444146,1.788032270681177,-4.793704155362302,1.000248169925869,0.2497079711196627,-2.26155551121675,-0.8224173118838306,6.4665445162457535,-1.5252990825877453,1.9968472435266909,-2.993094469426568,-0.9525194116728676,1.9858554559313293,-0.4913473678171645,0.9140625
0.28818868008173854,1.1496341292338985,-2.3356557948926033,0.41300869771999893,0.20172662484971401,-1.383362933587986,-2.0542670297556938,5.093848956125251,-0.372553760436391,-0.2700446631009311,0.038398728561741965,0.15598635317501391,-0.2730240893824876,-0.6495904877132908,0.921875
-1.7758440460378093,2.1088126007149226,0.9117867852586661,-0.2574955389415343,-0.4134857149385669,0.765866775977635,3.9942306058923944,-5.073258474043327,-0.25727229821713443,-3.185251009092833,1.9114954684582648,2.326675946518466,-1.2602913704253782,0.20448151908102372,0.9296875
-1.9424958416897509,3.173585726715927,0.22969034061368201,-0.16139644233198813,-0.25707119832268216,0.8616772355814395,3.7783237473230997,-6.409318390500826,-0.7050539095399407,-1.613187590601748,0.09378570887982801,1.4954335693377063,0.925752872339132,0.5282697914268942,0.9375
2.1545095710873357,-1.3146398302735274,-0.8489851553947176,0.84227191925775,0.8719269406009635,-0.2803411900146469,-8.935044344353814,4.854505000519699,0.9912712371103058,1.90656132360738,-0.7228630844206569,-1.7889062667419076,2.8210240709985293,-0.5489186138525372,0.9453125
5.006943382376936,-7.571038147088041,1.964901662849064,1.2941358168623782,1.1913661277776135,0.4103561909218184,-15.475935248170188,9.053889170312601,3.5653395585331236,1.6703273015186801,2.05740591232098,-2.698139193563612,0.7105314469457816,-1.1723828766019513,0.953125
2.17571737472399,-6.146736762144258,4.418202432606045,0.4239516628441876,0.13868423189069243,1.9057302856285339,-4.9774999515683165,-0.5108686010559285,3.117707049209895,-1.2982989082689453,3.970837344785316,-0.2690933450618879,-2.710069049655982,-0.2334027123112635,0.9609375
-1.613867827153744,1.5742651818838655,1.2316736199024132,-0.354652781026632,-0.43894413077448,0.9159323055299667,4.187869152457668,-5.275952379689074,-0.39889761914330907,-2.0591237756741636,1.7717150792097156,1.5465301174450956,-1.4749255042267004,0.385999499346568,0.96875
-1.099444948474498,4.383338562910113,-3.598393651448387,0.3651340116894042,0.11212994227713412,-1.386874801490669,0.4887058146049264,1.6866540447329266,-3.0201190910846525,0.07009643828699269,-1.3505584192513223,0.5991147045341967,3.0079312972078465,-0.26243776760345827,0.9765625
0.5684009211887828,-0.6242793053175524,-3.576956257295077,1.7046203122118193,-0.06333044011801109,-1.2514022500224513,1.1761163678301148,3.379441405703519,-2.5287308000808144,2.1396416645294014,-1.816770375084434,-1.0914496777437297,2.1540748771328317,-0.17184779051117605,0.984375
-1.1540716061444458,-3.207555202878872,-0.636384138954808,1.5772174662585148,-1.3456873493664585,0.6101145294664728,13.58795044482398,-5.681518798659264,-0.7308435579984552,2.3545229118572983,-0.6275441129334227,-1.235795536405041,-4.776609119025262,1.2641655337570825,0.9921875
-3.7175965578324432,2.712592853972995,0.02698384116010495,-0.5373026295009843,-1.4256472855985494,0.6781060161288816,16.050588776176237,-9.251866835210137,0.0895151774735819,0.6404901084134018,-0.32058446810178926,0.22853786306854362,-6.78621636656239,1.6079949847506836,1.0
-2.7529645754802767,7.9372466542188755,-0.37871918585709846,-2.66171928140283,0.18230238626288878,-0.7086839491344492,0.8842430396381199,-1.75452839774582,0.16494835391238077,-1.9009298570206914,-1.0705831064878908,1.86524884974477,0.09613786771967993,0.09295065044479255,1.0078125
0.33043539798204485,3.2280761866064163,1.2165639236710075,-2.6933825843877854,0.924482240328508,-0.8841216429416099,-8.284162779433789,4.16475868808135,0.7209253552118096,-2.6339981734605438,-1.3018689562179107,1.8875433157263335,4.217851618503929,-0.8940997468037402,1.015625
1.44471016921907,-3.5385551880274044,2.31167175239063,-1.4330117968440395,0.0765329623130546,-0.3267757809161657,-1.6887111781926019,3.7085856769818366,1.5013402012762906,-0.15580858524141034,-0.6692346692764828,-0.11535137701411648,-0.7986851718264341,-0.3112843804799042,1.0234375
0.14714970683047687,-0.12992781372158985,0.4404618340860125,-1.3782985033659338,-0.033593814085618026,-0.6578158390722242,0.7517209518868954,2.9147288181024495,1.5273264158470528,2.631828915494445,-0.9816586198073441,-1.902991194591882,-3.5518727914329906,0.23096802067074418,1.03125
-0.7875090110185613,7.00311447836857,-0.7630140717863859,-2.1830015778481795,1.0731268422280464,-0.5639890979599352,-7.532069811982397,1.2410630425744802,0.9639269462603862,1.9884863746873331,-2.700639914762016,-1.1643938370268834,3.394518226120611,0.03407283276553385,1.0390625
0.3776480310488825,2.5311495776498862,1.255205839372979,-0.5889117625782324,1.041587490759568,1.1760796906957807,-8.521254846440456,-3.5687565531869514,0.21506351211825464,-0.8805701856549392,-2.1764863699830284,0.7232603741750322,8.443818157826675,-0.03027588803751926,1.046875
2.332378569406837,-9.372830454081187,2.1252746256466284,3.6637724284864843,-0.4813645760138835,2.357202425104034,1.0585566794205248,-4.794085451932696,-1.3800145405296227,-1.7844626539677548,2.862744660492304,0.7364156666327383,2.6579507451455417,0.01471917482114129,1.0546875
2.424286163130303,-10.704188468897414,-1.19168400429896,5.880341459110016,-1.1349338192730283,1.0358492388196947,4.847397705317478,0.5818352563086181,-3.5096335178370155,-0.47047606744592535,6.905677707751847,-0.47472747113011826,-3.78132517113456,-0.4097683248166618,1.0625
0.36234582484952915,-0.9546001189795762,-3.9867401079800446,3.048678352124275,-0.37446136508899897,-1.1213514219085399,1.2196788869313209,4.422895164366255,-3.6595026066593843,-0.09409266872089307,3.631112320661056,-0.0612333045924257,-1.7199151957467582,-0.7125985995503564,1.0703125
-0.9753723510143881,3.565747277091056,-1.832687489833636,-1.4475199575310855,0.06838863938712256,-1.712604766032746,1.3435058790195762,3.0994344628337607,-0.8521080205759123,-0.3805953899683106,-2.660716640070822,0.882500731187647,1.1537066569143133,-0.25059693516452386,1.078125
0.032988834636797415,-0.6173559358690336,2.167896584629587,-2.896852418941168,-0.07430037973152034,-0.6169011406395173,2.005638028050785,1.8651817795475512,2.0606796224072177,1.392686007714194,-2.9471861052690147,-0.7522578107151866,-1.9393414283827646,0.3211102946244376,1.0859375
1.0447902766767936,-2.00229885886342,3.1812279884456744,-1.4979172043635023,0.22978361664845445,0.768210975165643,-3.51130811873531,1.2530407519706057,2.681509736313399,2.784661210905406,1.3521384197635349,-2.6027593109861753,-3.9792182593473595,0.29857656652564524,1.09375
0.04010990361787191,1.5447099187866347,1.3315932417124112,-0.36148460061676735,0.5029465102300582,0.868214993837758,-5.2134165718012815,-1.2556480650873854,2.1189179886404284,-0.97335985782422,1.500359735380046,0.17453115848883252,-0.16617453086916883,-0.11337247307663127,1.1015625
-1.1757120357454864,2.189774355990014,-0.8764923673260253,-0.3450859446221792,-0.053057459949892576,-0.7167570284156111,2.4812718436449637,-1.1939508185654535,1.4974248976113176,-6.207226152414331,-2.359416194964979,4.725271717450166,2.593828300694604,-0.5598284367338539,1.109375
-0.8323296930872551,0.9980176497157083,-2.16142271139929,-0.1483197560967131,-0.3383345954317237,-1.7750996187883854,4.6905716016688155,2.704692211402393,0.43363037129300425,-4.418608343755558,-2.2643128161572696,3.557048405729855,0.22569170273886727,-0.6667595548577646,1.1171875
-0.4502306758094642,3.990250416523228,-1.7584837861671792,0.5499932488518787,0.48786841097870604,0.034597304342610796,-4.609269437794163,0.8536342616568233,0.29550402288551686,2.8363008284807254,1.7750916700934516,-2.3322065895925785,-1.7739896202383423,0.10352690069124026,1.125
-1.1562187365749834,6.569728427384526,-0.039374094248455546,0.9268528018787704,0.9820336559616799,2.6846596777509046,-8.104012357390696,-8.043103888878408,2.1752005994080923,5.6109508852230965,1.9877720722066867,-4.570362778277418,-0.2995559487590781,1.2712572475636208,1.1328125
-1.1516893184697898,1.808458070616171,0.5205711981111786,0.7218609038714617,0.04973427965646278,2.0047501802273264,2.0109415692260653,-9.166091757947415,1.965233121547238,2.1314060622589723,-1.9644178748406647,-1.3949996463454122,1.1591869409208346,1.2992082533455518,1.140625
0.35822822848648933,-5.000512508926099,-0.7038763154538202,0.07472243281436501,-1.0557862911578717,-1.3846034548842532,10.190118202749744,2.1477857208637023,-3.508536742343391,-0.031900787630678044,-2.688692906148839,0.9115220998507878,0.6466506912930489,0.04288356530102332,1.1484375
1.0996512076347866,-5.573036683906651,-0.43404432874880816,-1.1371946902887253,-1.1070366988719862,-2.6679136507885683,7.7914764515414126,9.186715047516437,-7.603698923099383,1.3763535249268832,0.6343654075072136,-0.08011118988862516,-0.8524226690897823,-0.6337563162498012,1.15625
-0.04822765098205086,-1.8335554407512764,2.13795786054621,-2.0580079600088426,-0.5801338103582194,-0.5351451837802933,3.8726537441198685,2.3195980795875424,-2.8854676681519598,1.2949613734829075,1.6038914785689815,-0.6340608429372088,-2.7510546547183585,0.09496910662378114,1.1640625
-0.920415340159259,0.6136966999406333,2.0941781645702346,-0.6008194269017946,-0.0786666322815384,1.3428866078155235,1.9733270782359833,-5.5139528730685425,4.337403840971702,-1.301712751131264,-0.49355310951813564,0.6073032981253305,-2.6793573601020917,0.6203560676514482,1.171875
-0.09593195470429101,1.1780765171928036,-2.310943679658247,2.87707175620982,0.3732190943058688,0.7901539779574637,-2.4968693044484205,-3.355428315376623,2.8238604722020764,-2.5116988723686164,-0.38857590883004633,1.3690703113363467,1.9126999247659127,-0.1617506184921936,1.1796875
0.706585233255475,0.9818763778499827,-4.258987686580387,3.6000871086645803,0.44223639647078145,-0.36627639307467563,-5.24683535518265,1.4991460239956187,-4.139038752860039,-1.768206924732542,1.5134946841935986,1.3044893876878987,6.657428512762053,-0.925763396058513,1.1875
0.036367520695853854,0.5355404890515678,0.6714449746827506,-1.3030995765574378,0.06290137584882208,-0.5616467779658795,-1.1009972640621288,1.3702898585221088,-4.1316048323538945,-1.2108749891349713,-0.1537495038913924,1.4197140825783323,4.775920740481826,-0.41137974810718725,1.1953125
-0.589545284987735,0.8864627062859778,5.6626412016455365,-6.238836356792989,0.08662445952745203,-0.41222713351151186,1.2279166716073284,0.6720402431571572,3.2469912558757144,-0.48257577736428287,-4.074859970486874,0.7550287495611823,-1.117440690716481,0.38212873686995524,1.203125
0.6855952963508253,0.6043094995402182,3.4147494183926574,-3.7955565147790242,0.713049115900101,-0.2675796600087402,-5.136486941482786,3.3207804190906334,6.910127892364368,0.9860633874985838,-3.272607377096758,-1.1658528392059082,-3.0694598579472103,0.08124893293611217,1.2109375
2.738858769886556,-2.7575591804413366,-1.926392509257815,3.111705225486743,0.8653734512671529,0.147584084462562,-10.477930645580871,5.583525353656476,3.0950792971088186,1.3882288675728478,2.238385751527559,-2.2133004851132925,-0.9802319718489928,-0.8098540051627601,1.21875
2.7889347392538166,-5.174228710221314,-2.8443050371509395,4.906619246583304,0.23743928236482553,0.19659247208035535,-6.463163265471004,4.889861654089293,-1.2314535589180218,0.3794202458293381,4.82493339340987,-1.2872766095273016,-0.23569043886602123,-0.9905567702949619,1.2265625
0.310172382485487,-1.0383404925326971,-0.5684394853283206,0.760086443326409,-0.183103256391451,-0.2486864501468009,0.17571540473805466,1.7935373920766915,-1.6995080622334349,-0.03436342026308882,2.170765277289745,-0.09367507465064372,-1.0630936258364259,-0.2843949319989462,1.234375
-2.210713281958055,4.815775004839284,0.18109861057898835,-1.042452277290152,-0.1501653704324729,0.4838646223957472,2.703124349852777,-4.693348251049292,-0.8163520342506503,-0.04332786565109001,0.6722099390506127,0.3565495770095924,-0.8331420663256934,0.5740664743972796,1.2421875
-2.6135879618698876,4.216726463793255,0.3487769940440474,1.530242427733252,-0.3026899032976954,2.511138075935407,3.2238940290434943,-11.623814013650648,-0.5611700842997769,-1.4397362173470558,3.554081464793302,0.923647948869186,-0.7131665719703196,0.941258235680008,1.25
-1.4483449433143185,0.4825658805712216,1.5958325102539523,1.7663384189733362,-0.44504493767681,2.5702855381237426,2.8431760309599476,-9.607980312649184,-0.026190603239652218,-2.570790475018124,4.758245800381765,1.3815122585545327,-1.8812582170534327,0.5791336733013125,1.2578125
-0.395667689080518,0.5969094013529891,0.707396478643941,-1.7610260096442394,-0.14408614387087196,-0.8094730852356135,1.8098905121814883,2.16667639646421,0.683134572415337,-0.2872260570328683,-0.7688145371166838,0.34973008698948715,-2.0803029715231416,-0.06515977979312061,1.265625
-0.01758901105812378,1.044310282088592,-3.0751654877806494,-2.734457304816405,-0.15332020078118086,-3.7948286835874354,5.340087208717016,9.626569239747957,0.1399141631874317,3.5153010568945424,-7.923187401072602,-1.3600004130552545,-0.5176371055141621,-0.08930227002826481,1.2734375
0.10146392718109284,-3.0738296481865115,-4.003311167964001,0.025850914197728687,-0.8950755334005058,-2.8525064971949017,12.514236180792699,4.420897574169179,-1.5954976115997714,3.618536735270266,-8.720132940445415,-1.1177312418373364,1.079521466314293,0.49307982415384727,1.28125
0.3887562967874064,-6.171072864537311,0.012544204052431587,1.02030628584682,-1.0773230702986303,-0.0888697017492682,11.092145286428673,-2.8978687342562854,-2.755774314340834,-0.1041747363349954,-3.6934638494367427,0.97409629890681,2.7550620651053865,0.5424357728829993,1.2890625
0.8763706991716242,-2.904170964703748,2.708889644611861,-0.38075348081733257,0.033006429741913604,0.9659331477336995,-1.637615436593793,-2.0760882390263062,-1.7804500241022454,-1.9588623859606054,0.5313604361814478,1.452902983684486,4.33526543839256,-0.16197988593071502,1.296875
0.8299242346474813,2.1465487239747514,0.569830512806408,0.10120614898806783,1.017016069100006,0.8328665438661288,-10.421225659825192,0.43965893795299704,1.0152932927818628,0.5933255170536481,1.5350222156958726,-0.9930228408313427,2.6588036088821356,-0.3188976949135765,1.3046875
-0.41929011173468556,4.476461280222887,-1.5136620615821512,1.6901965604417573,0.799912899518821,1.3170165333305333,-7.263948601024646,-2.7171420786540743,3.050759513174243,2.8179468043039058,2.268022859611554,-2.8051906729927865,-2.08464857201861,0.38657948476939374,1.3125
-1.482810926714725,5.314189777285046,-0.07950655748007308,0.46143614362325897,0.3978631687185211,1.3454249855273595,-4.098335678484893,-3.9883047135514578,2.026662872791083,0.47600200090267325,4.0524147249354865,-1.0247127603872823,-3.730688743593141,0.3307767794824102,1.3203125
-0.22933889842817679,4.133009241908922,1.6233835524568823,-2.1303268573582583,0.6977514572037778,-0.3787225261094752,-8.952259634005761,4.078135982003393,-0.6673636011533545,-3.354372807073545,4.566527188062734,1.8678869421909403,-0.1420314388995142,-1.1123362390668932,1.328125
1.9090960604001774,-0.139591524063788,1.428608774124746,-2.5864853841906643,0.8224112026728855,-1.973119492810254,-10.887958030894572,11.571001632357973,-1.5558928527194267,-3.6303084591270474,2.2681894253311956,2.226349303156334,2.495649268530975,-1.9491921807238288,1.3359375
1.10186741993913,-2.760300634437138,1.5770137269124171,-2.0034322833357474,-0.06104006310894839,-1.2594587679730278,-0.18780016695177496,5.6279182125859695,-0.31807803214728203,-1.1217547398985022,-1.186555518265279,0.942947925535338,0.2536453729401279,-0.6077331869728037,1.34375
-2.013320892565412,-1.0060678502042029,2.3563821927331534,-1.9333812271103878,-1.1714246702606699,0.5278335616399874,13.458564728094542,-6.933678574648842,0.13255710944491828,0.2782301661435896,-2.9319866369791203,0.6397496511201937,-2.7363738446973116,1.3300424137084035,1.3515625
-2.2791755363197743,-0.6525199096428597,1.2506334989480068,-0.4899144715533597,-1.2551651080146968,0.9277640841209183,13.954187862715953,-8.767393979195775,-0.8329207457052564,0.08570525073941734,-1.7822004862502205,0.7380001936744022,-2.2827378306606105,1.3843915996448757,1.359375
1.275232743485058,-4.154292481239089,-1.2924105346938213,2.6816470160300243,-0.2214836793185554,0.24779831061096216,0.8320812782930749,0.4453217821774392,-0.5955842472861086,0.1389128656128972,0.7023699528953373,-0.32574150680599234,0.43010322139563734,-0.16207917073167183,1.3671875
3.4637606025297067,-5.186815694657993,-2.523124242106695,4.9287495468590805,0.7908065218512366,0.6511341425768666,-10.33327520376105,3.9506782232172926,1.3887563785219683,0.5698380043605723,2.179014466654502,-1.544119889043671,2.5806346052593083,-0.9111591444416207,1.375
1.905044201735953,-2.4930403120151357,-2.208830807012691,5.426454472480483,0.7138848133487908,2.1835067545342794,-8.08882434225764,-3.6275919556542697,2.4923528672997697,0.8216230708570705,2.169114821179331,-1.6792533357778634,2.4305971713974386,-0.041052156057831315,1.3828125
0.3293475430072933,-2.4281620131405135,-1.4190624650915589,4.462602252817751,-0.12242826953956253,2.3186889751136,1.1006821759270413,-7.598141288388214,1.906689478232815,1.3239232798297482,1.1335253725181516,-1.4958374709771787,-0.2982050166762895,0.7867425442988624,1.390625
0.56410722152937,-3.5437336393241665,-0.03777585447235074,0.5174113658211925,-0.4668980867949565,-0.14059445654121455,4.7005770954313775,0.4377753651831032,1.2274966596507326,1.803262599705433,-1.4706462126919682,-1.2602719604385797,-2.7268738586675356,0.39507648329177875,1.3984375
-0.5081878502502788,2.0746459847478165,0.9192073184123264,-5.247159266537828,-0.06663924959075848,-2.9638917564189113,2.906699772737095,8.193918031170108,0.07303665839644394,1.1961795157021922,-4.892660357912851,0.0281385655060093,-1.48342090659796,-0.23116686214782137,1.40625
-3.4339247899965284,10.825327523601421,-0.3087720723216768,-7.307464556462085,0.13722814290435045,-3.575595671977151,3.4530731338603893,5.457340244054483,-2.5513800624823824,-0.13577070782935896,-5.6099858487231495,1.777861595778094,1.3741477627449121,-0.10645641227443794,1.4140625
-4.05608116152673,10.951610964449381,-1.7678232814657597,-4.2178661393881,-0.13372107260169824,-2.2111964185378685,5.034426002818948,0.1438611472238884,-3.79160724322257,-0.9456838541629315,-2.421058870658541,2.0921655504205474,1.178368045839227,0.13778056199935745,1.421875
-1.3476507144277017,2.8112711577888976,-0.18168411964559208,-1.0156676925070596,-0.22346670880394182,-0.4521162603027524,2.3702250296493648,-0.3405792571555554,-1.3101394444259453,-0.9566252382125965,0.9200983867605889,0.9418870758321194,-1.2104968722160778,-0.008252169210319264,1.4296875
0.5923723497880614,-2.5457283614422286,2.3625387745637023,0.04028775109116817,-0.09055451760112246,1.108920467448892,-0.7928092041059072,-1.6667508268160294,0.8417301605708906,-0.4505489374659073,2.1517857979270936,-0.12532050550708276,-1.5174820736298225,0.09351605405951549,1.4375
0.12587170489070584,-1.7202466929035019,1.5680954706802337,1.6479381784981062,-0.14261269830865209,2.0823412396372487,-0.6121318399865313,-5.609567378994138,-0.9325630818404822,0.059321264108335395,3.6980870080033164,-0.4680610770905426,-0.09547000780505405,0.40094334222160566,1.4453125
0.18459053616263082,-0.7702587455082738,-0.8511516055414843,3.5457104909573025,-0.048479115744778575,1.7846308984731094,-2.4416579881790286,-4.138792213667708,-2.1957670415307975,-0.3563336057984179,5.763907844856985,-0.37504288592251306,-0.0770388632373705,-0.023870907429578897,1.453125
1.8552274911556377,-3.226467422927969,-0.22730520158285827,2.723343801861622,0.3541667274649959,0.8547287150952977,-6.504504981646401,1.7754742350284636,1.0108369655871543,-1.0868878801120132,4.095183848570167,-0.24845592190110316,-0.6858091311346001,-0.6869240668824438,1.4609375
2.73036372328164,-6.580047105598632,1.9794765128198035,0.5684828055606188,0.27578058623380264,0.4756128599962805,-3.661294946941204,2.500280435583289,3.497397362013334,-0.028956666387977198,-1.5276314947046232,-0.5788712245932479,0.6339365649156684,-0.2801429087756212,1.46875
1.9162871390818037,-6.405884443680482,0.7417560370250226,0.3590826561857882,-0.20782150438801134,-0.09054487124628383,3.025009009431184,0.6477143721986497,0.8881946607319543,1.7294291462666749,-4.993099446634622,-0.8842867052883245,2.957617096711759,0.31929184022397306,1.4765625
0.8819490497273272,-0.6625647127840351,-2.771591601462373,0.7311015558801582,0.18934815029745256,-1.5480551935814084,-0.6950722818883858,4.580820660711303,-1.1483995869517227,0.25243739535717347,-3.289989779200685,0.24491446095696418,3.744636020468317,-0.5068763290970746,1.484375
0.017158933897009038,5.735574220681888,-2.5935013289718514,-0.5616673628539154,1.1312227146007434,-1.6907457040065264,-10.04101308630818,6.693743263096383,1.9294440252387608,-3.329334381291202,-0.2377847998406431,2.0325826754708824,2.3010351226561845,-1.3823652333191532,1.4921875
-1.0418644506256989,4.744941781103242,1.6461885371588187,-1.5479635920723596,0.6771372402913511,0.7719576508286312,-5.617094737083003,-2.3180051688684995,4.016017253842561,-2.804032526117242,0.9112623842652312,1.470359637907587,-0.7662954139109142,-0.1422106610068394,1.5
-1.38462863055322,-1.7727588330842399,3.702099302757377,-0.6218854371748104,-0.8879858387398976,2.377807725866302,8.614169745894165,-9.973038620402319,0.09348660808537466,2.0690413307273925,1.0007916930568188,-1.3150012888391198,-3.517364864255281,1.608084283693904,1.5078125
-0.5704424340713938,-3.4284087024781176,0.9816550677810716,0.1028917328049205,-1.1650756068232042,0.5212226642740597,10.353823145477174,-3.5272844186213907,-3.992685129451969,3.969964906321919,0.7449518525776865,-2.2215601098605253,-2.8928424480707715,1.1170694270691492,1.515625
0.029876760459228643,0.6438653439298638,-1.4533522664976726,-0.33014866473269233,-0.07642911285574538,-1.2988010839599697,0.444193943441359,4.04121344634171,-2.594431496598903,0.6465733394799548,-0.0461411407934948,-0.12124246090642754,0.48218842934707834,-0.3664676455800937,1.5234375
-0.2530713647829008,1.2413541981583838,0.1019575734283603,-0.3021972324453476,0.16721279280294082,-0.026496814922662586,-1.411681749567705,-0.18566301100194585,0.26111677525869725,-1.5531366408805993,0.09013403882201511,1.0821891071691914,1.0108627693856838,-0.22083030459099381,1.53125
-0.4927230905468851,-1.62616743283851,1.7346282686784251,-0.15746301097639798,-0.5563925804910392,0.8520436533821252,4.48967205568703,-3.175704973183624,0.0396167299567363,0.16146256524548586,1.659772147314971,-0.20137265455778372,-3.232865573451452,0.5001616885529024,1.5390625
-0.5125201753496135,0.6577788694718509,-0.68134041987394,-1.1488506364900009,-0.42474722080574384,-1.5027705607441444,3.2238246877058363,5.110428136523215,-0.4915822513542989,0.9065523083465924,1.5566307186038935,-0.6403374102851344,-5.833417090725973,-0.22564743861819145,1.546875
-0.8023051751868591,5.567510502613837,-3.7462187945856273,-1.2671978119062004,0.43786379279636145,-2.8824385691326833,-2.3846861111688638,8.427326144545487,1.3528089475575498,-0.8492764479593852,-1.7751192587191633,0.7512164667831582,-1.9133009581803015,-0.9132638436144139,1.5546875
-0.6375298621904119,3.1454064062934903,-2.5172472512633863,1.0038497917326898,0.4615974631859963,-0.01912881465036205,-0.9015653697119452,-2.764828656341927,2.4318448405400725,-0.28256973720507544,-4.346594455366581,0.4633816232330983,3.7249211114235123,0.24600916592994918,1.5625
0.3987303058628568,-2.994114091242173,0.6024384529927926,2.403796170227251,-0.08584219484174013,2.5105916633124474,2.380257546156013,-9.75304129032917,0.0522651058047861,2.7869319662953935,-2.712704065747168,-1.7465650559380865,4.849386841951738,1.3098023815134738,1.5703125
0.776887462775085,-1.7104423738575874,0.1924192849337466,0.7805521724000818,0.03587645407397449,0.5825745055693159,-1.245261967810898,-1.005659883727072,-3.12633236148315,2.255136653237214,0.4456815599433471,-1.4094887662165019,3.2160195710656216,0.20885539258832236,1.578125
-0.10599540314980378,3.8847069230951536,-2.7540309727164076,-0.2630730174431795,0.46493650545668,-1.9592209653017532,-5.275604696689314,6.8468850376973425,-3.447105924719419,-2.120231490884489,1.507767187772784,1.6901588510262462,2.7991176991952633,-1.2690574799488437,1.5859375
-0.28811887105331824,2.7609760994642705,-2.7337296849318653,1.431945153630526,0.32664449549047403,-0.7605877188407995,-3.540008392976,2.2496572316117165,-0.8202725983181772,-3.499620584177384,1.6012860203047545,2.3278871122642144,1.8891459792176042,-0.9423388190296611,1.59375
0.950064724802253,-3.4345179945596622,1.5550829470099081,1.7283551194277775,-0.008655895505178294,1.6562203543978977,-1.6531493487387832,-3.025308624906257,2.2644686113570676,-0.9881267927087007,2.451645347102498,-0.06328010445161751,-1.5100264825483651,0.07952498709924992,1.6015625
1.3996041549468907,-5.374431012952361,5.8461278073213725,-1.6924072202549358,-0.08462489149592614,1.6598883967766804,-1.5136853105707457,-1.4372159686112365,3.422296509962137,-0.7401776041820868,1.9670023858235075,-0.24610522232002027,-3.3978018056884314,0.1927081340763606,1.609375
0.20888517230598347,-2.747785917810815,5.98456111107514,-4.1084101454148705,-0.20865950802427433,0.4221698537278735,1.622844917588986,-0.6685577413745281,2.0436956695117257,-2.8433220700270336,-1.020823201406643,2.0595646559385195,-0.7810675135576037,0.03918000466078165,1.6171875
-0.3804351373424695,-0.8674506575834109,1.9696821155779904,-2.068801741304641,-0.29743518297219496,-0.22079525458535018,4.017364131420644,-1.1871235513558167,-0.3222947174194309,-1.0499178615740843,-2.6998426348291003,1.304110075956876,1.5716785980849055,0.2334857566445192,1.625
0.6207018235012043,-0.16949590222397518,-2.31245621763828,0.91019450121455,0.06313013321368165,-0.8751794444779786,-0.8081204468477018,3.8370430756228293,-1.4980632980115876,3.7141872039739012,-0.16315736143443374,-2.562281306122204,-0.7552951182068469,-0.002243910219972695,1.6328125
1.1083873388591239,0.7531328144328131,-2.9582478278919573,1.5589437942959916,0.42245486965944734,-0.986822922044834,-5.974783093465735,7.043526231140042,-0.7361042032036531,3.9597712429967937,3.083768663108558,-3.392599396532463,-3.3898885295127665,-0.4959097847139982,1.640625
-0.11587324959475427,0.8384358300916688,-0.8107318046394841,1.7865451396622916,0.16169624230494256,0.9143223039408075,-2.2671380094195386,-2.2020412157505365,0.8494873705692906,-0.07690365768039846,2.4009294574498488,-0.43550466915843145,-1.0915706427067629,0.04343826125004503,1.6484375
-1.4178475891886728,0.42020908445704075,-0.10202944885393272,2.480584389843766,-0.3251183539985206,2.483061460125872,5.102808674603316,-12.0690894003081,1.267333837472709,-1.0020574518967424,-1.0170312148726974,0.8302555311719658,2.1984676347048495,1.1469038149585993,1.65625
-1.5048408504962973,1.3599503783828435,-1.434463031999592,0.6729856142912655,-0.4969180069335035,0.33174064814744747,7.327084626049105,-5.474453529758332,-0.5812034598690232,1.6905098397064506,-2.738067206506417,-0.5470805054439909,0.4062922666617665,0.9865430700494984,1.6640625
-1.0377156836373995,2.3540822576566502,-0.9720381139456415,-3.3469332849465174,-0.4849033821988263,-2.9156956169796664,5.397430839172623,7.619947741105071,-2.921142961431344,1.7831769620366071,-1.583580498977583,-0.4093317495583755,-3.2570009986699056,-0.22626460824252634,1.671875
-0.44389512907799067,0.8120778531094685,1.9403215980224395,-4.194663242728781,-0.3057860752387481,-2.0921631026023797,2.205388219593924,6.77252404951221,-2.2412342472307025,-1.1916842552825666,0.039922752818465676,1.3506270377620129,-2.0505000625907366,-0.5987529648115066,1.6796875
0.6047156015984012,-1.803049971447228,2.6282224126354685,-0.28634984788260864,0.20925696995133208,1.2478559282982264,-2.5243914823937414,-2.8957600046597456,1.5129467780084682,-2.0656208882033256,0.2288557935448062,1.1713422873599846,1.994221276538416,-0.019232245234407922,1.6875
1.218682984415813,-1.522591954806133,-1.0416665852703104,2.9159949057586543,0.5747963328648499,1.3274534859173546,-5.116066143741269,-2.7243771568253314,3.373525913789667,-0.29638332969859427,-0.665551064775783,-0.4289480889891385,2.3833295086815496,0.003874402952883382,1.6953125
0.12039217175648136,2.2049477929938566,-4.649349402740048,1.818241905234538,0.3090465063800414,-1.5934114769165042,-1.8562643742029536,4.713107524575068,0.33544452350106413,0.33801346872124527,-1.3018843262110704,-0.22713945222158374,0.3598750785715322,-0.5697138691722603,1.703125
-1.3177841395062335,4.640670336473172,-3.8126865225875934,-0.13756829311369917,-0.04822134091378856,-2.0556237612012414,1.6856485262039695,3.802016184757791,-3.1814332330463047,-0.5649023059889517,-0.8000750906939533,1.063191203530089,1.2222630813897837,-0.49390369617802315,1.7109375
-0.48138608023303103,1.2382701793796154,-0.07250858680228398,0.6087963728198771,0.06862106047733665,0.7331491950157092,-0.6318953935751563,-3.3648199993930303,-1.6842020070598684,-0.666172115330044,0.7043556772296206,0.6159351707955434,2.8112840772398764,0.12150936328305426,1.71875
1.7705948913476803,-4.633294828945199,2.3005751230469027,1.9215029470984055,0.2638593886495173,2.195797813714981,-4.533480325503378,-3.3670813326090547,2.5520528660130957,-0.02888292415998874,2.1676214020228572,-0.885333045962897,0.1341735790434398,0.14101450233983018,1.7265625
1.9219122358654859,-4.516568785898839,2.012874797435279,0.6307497860541714,0.19845396798097747,0.7465182633347166,-4.220678325598435,2.1733583811910075,3.2625158496211144,-0.19951635792268024,2.1307690021599255,-0.812911580069163,-3.0068538262014477,-0.32111529209740425,1.734375
-0.3065078162621247,1.7397224164075737,0.7833129438381689,-1.7615323914881262,0.17573790630063638,-0.6268317641508926,-1.5508784077129942,2.1816038453785582,0.2623298531485141,-1.0219887318531455,-0.06391017463662456,0.7766201249118847,-0.2792493569274937,-0.30643803420179033,1.7421875
-1.491794351917471,4.296960659699428,-0.08030539129693204,-1.8487080844944326,0.13910650238981337,-0.449041024008309,0.9834392476947845,-2.009475936210788,-1.5736797627706298,-1.2258899951004263,-2.595512665646989,1.6322017564732547,4.103780508506051,0.11975910312709018,1.75
-0.3744922684916696,-0.5452923250838451,-0.20183241396309015,-0.01304555051311175,-0.29030841146546255,-0.040758243067478536,3.9065635532080125,-2.0839902482104753,-1.2201370951345147,-0.08175691562272035,-2.090226874392471,0.5721843734490855,2.1560795426900667,0.30236669827440976,1.7578125
0.7331171584430834,-4.758964472668363,1.3596227673666175,0.3664996403003095,-0.6929267225945285,0.3181746801399064,4.615209955536469,0.27281797683647985,-1.453866139021589,1.922624380407131,1.7628680623731476,-1.433245409704805,-3.3454395247643074,0.3273306961238995,1.765625
0.6588877151629513,-3.6454192834829224,4.350326941480359,-1.4712337754426734,-0.43158531388453103,1.198538799328038,0.6826225554202109,-0.5419562678020942,-1.906842371909419,2.810086836861332,4.4670376027409775,-2.3401082355364937,-4.289239587627659,0.45875795010750176,1.7734375
0.4426501235317779,-1.6792001136672827,4.966418890581652,-2.359304086557067,0.037553610418922606,1.398138462483933,-2.3585944282262794,-1.8392614291667804,-0.2607708452012143,1.137527950397564,2.5485476788947894,-1.0999141021079217,-1.2896268421370995,0.3608501766935138,1.78125
-0.05787707519258876,-0.18137687058059926,0.2980481288262242,-0.3461910049983504,0.015925294672167113,-0.10270091336014214,0.6689463688370947,-0.19071873726375335,1.9619176257077116,-1.317082222200663,-1.3595854783248373,0.89915275067192,-0.24141303040745282,-0.04443654096989001,1.7890625
-1.4811557201089083,3.969857615105241,-5.313350172705259,2.0559703455184284,-0.07847168482345032,-1.3756471893687605,3.847703808069962,0.4080266965963528,2.3671509599251794,-1.5998374439243805,-2.747027040074781,1.336858388100799,-1.2492285993079004,-0.1425738368575114,1.796875
-1.8890486343082282,6.645526990994338,-5.0505442563146135,2.0354864978070637,0.3202110399240418,-0.5004658268854242,0.096549570942433,-1.8528467501973944,2.4738487882437874,0.22596294286630403,-1.4523517291788022,-0.16031942874811755,-1.0834597197402003,0.1899191010324116,1.8046875
0.32887391944424477,1.6009343266285179,-0.5598541607290493,0.8991015068329117,0.6345292712213183,0.8020504315410548,-5.382095294956704,-1.2564391451041024,2.732208140132365,1.7060109364437286,-0.14996656425499164,-1.6887322737263886,0.12823332478812619,0.2052119753328043,1.8125
2.271751501523084,-4.795644596623092,0.3805280012757235,0.9520012257346461,0.19035990768619762,-0.03690871947434395,-3.487492515073236,3.6365005199957583,-0.40190940329159663,1.4284582017441039,-0.016777105307418626,-1.2930493049423704,1.522658049768191,-0.35148427813867505,1.8203125
0.7316014113890613,-2.5028351711027823,-2.672652418435049,0.8965211858048574,-0.4714155914632022,-1.9425317683265098,3.6344129124365265,5.457441460690436,-5.678737736182622,-0.30100603472387777,-0.8587866819494272,0.973466689637977,3.4192616693794324,-0.686618083794771,1.828125
-1.8281401854347143,3.5422995241912005,-2.2563662131670656,-1.233540502923399,-0.4805513479354135,-1.9156334552559007,6.296191240146662,1.1506891793750713,-5.090917625432649,-2.1613258265452084,-2.1771269076074167,2.7780484759282635,3.659329697987332,-0.2828051781003334,1.8359375
-1.2620637504875363,2.480983379368225,2.660816909620351,-3.290191012087689,0.02579246089052586,-0.06897910230054573,1.7192991118097902,-2.0356068023034046,1.9382615159075844,-2.322468056550992,-2.4328809158779654,1.999853125562346,0.3887192295210388,0.20096823915768253,1.84375
1.0410528832568988,-2.3692929012857893,3.9946132710782094,-2.199165588710025,0.29661362151841125,0.5861458548513975,-3.294766049926393,1.0292423875063128,4.557564677494664,-0.7028325293672257,-0.4393116709097621,-0.0864898254195811,-2.375116481498874,-0.03470627005753258,1.8515625
1.0458235790443549,-1.5616363786865217,-0.6340237784729263,0.7242303869367436,0.06644620258888068,-0.5631038255115431,-2.817616142143986,4.457769337680259,-1.489071947436852,0.17301718756426857,2.4615990151775744,-0.42478458792013946,-0.8164396340047837,-0.617694340199338,1.859375
-0.5215417046130387,1.5000432976536895,-3.3061390240283455,2.502129989124164,-0.25682539065493026,-0.4606254565359325,0.4632632416445676,0.8377339110981459,-5.721261977955021,-0.7243852238971801,4.03348032762719,0.6949532093389833,1.4809371740847972,-0.5180178716683994,1.8671875
-0.08290794235275997,-1.1650195287669942,-0.29850612039812996,3.140777871543835,-0.144949051539433,2.0269127790861607,0.01387278673768751,-6.512611418682332,-0.8470230479031333,-0.708758893932424,3.2462292411491243,0.1059360889242879,0.8942100383738262,0.33050658122665527,1.875
1.7441532233856645,-4.626484606696857,2.0215039689345566,3.068775151239373,0.4517376197900784,3.34282020061223,-4.576686960916856,-7.76944743177538,5.6045955222021835,1.7157006052170805,0.12892796378571195,-2.2949337655898843,0.3208373212965815,0.8616118288563569,1.8828125
1.4277254056553694,-0.6636158827140051,0.4028144969245518,0.7276782566906009,0.8939356346187839,1.2074303795252506,-6.934909532534392,-1.3591376078268562,5.3638578961927195,3.6444455008955914,-2.8219456343411577,-3.200384913700928,0.768560829068759,0.5366787150249034,1.890625
-0.8533282932581393,5.0929703377622335,0.15051158001406395,-2.891607363033185,0.5119907464346741,-1.0077763454794806,-3.4371620415366437,3.406501219754859,1.3868732387204892,2.4685112128213382,-1.0138824953292958,-1.6769140245275393,-2.2205461946038962,0.0812240997374728,1.8984375
-1.9011584428691486,3.6548033922319885,2.862239643910435,-3.502681890477564,-0.391261801312963,-0.2546115073833119,2.146321104334084,0.8486334360624022,-0.8032600424143634,-0.35304154188560977,4.5284292673976,0.1389608487582535,-7.058614824683699,0.08563248791166006,1.90625
-1.344703107632116,-0.33346045837104826,2.948328405029722,-1.3138251595779427,-0.8054461134061747,0.7019172948731074,5.405091517539105,-2.788636858273624,-1.3698092379538485,-2.2930066645764815,4.723218849446916,1.4921670695175062,-5.180769852874695,0.16094207164518365,1.9140625
-1.1866372232539297,0.7580487952205172,0.021683748072410823,-1.650417529671577,-0.4759793942067515,-1.004274670225608,6.7661575092416255,-1.0799816963656903,-1.4901818785184513,-2.521523488683981,-3.7950100945095806,2.752470422098727,2.848411743871167,0.06131833149253407,1.921875
-0.9707889944946114,1.5557038070461742,0.06237964811356349,-4.34276652513215,-0.20437950629898463,-2.5576070098799817,7.2431554353823415,2.397004318247308,-0.8404402191032527,-1.0505114923963845,-10.125263882030147,2.4885398549163873,6.215312485490818,0.13331828869688062,1.9296875
1.1592889018619708,-4.722122618001702,2.2202115252185006,-2.5457696383008845,-0.3626982420958564,-1.071647952589818,4.5705429603626255,2.963706881143218,-0.8867082451943923,1.1059122681480542,-5.219798898758665,0.01086674301287318,2.6176633726148446,0.1593872068564952,1.9375
3.673537032642075,-10.404664010461193,-0.2537439399559525,4.210449456081275,-0.3018043286540218,0.7290282305931953,-1.7179539698198063,3.2182970212952,-2.491781630831142,1.6406411909418532,3.1795599961461902,-1.820013128608378,0.8101279609142897,-0.4761243616377514,1.9453125
2.9761213597633005,-5.493803212276212,-5.569919873510065,7.1720897921867195,0.21021547055157905,-0.05149060949277013,-5.826782496201263,4.62814901990516,-2.6099626083068923,-0.1669325096669831,4.124518139717987,-0.7265881614658821,2.517502701581952,-1.184196645038755,1.953125
-0.8563116385113448,5.0648003077849,-5.684537438886414,2.7609895658443686,0.4042191944580189,-1.218796595007589,-2.941012664968887,2.533875636705719,0.09390727307058952,-1.907838331611311,0.775367646330369,1.2010421034712953,0.5501638186067838,-0.7717813487815299,1.9609375
-3.6245934272933376,9.984075376363439,-1.6224280312479726,-1.5622486574417904,0.10474311325392356,-0.34118430452273557,1.554642527711322,-3.186428836278289,1.771657306636635,-1.1977501489654863,1.0386405432277368,0.9632392393303474,-4.216654757735735,0.3385336856628621,1.96875
-2.5301104133769887,7.4709873399279445,-0.8364114364417411,-0.21986338479627757,0.22298410662732768,0.9467733651886734,-1.0025657812127633,-5.106792556167074,0.7529924104624562,1.553489908243806,2.5902332679503837,-1.2729330291330903,-3.264699267812966,0.6965627821071423,1.9765625
0.44907572509721544,2.5442635065921304,-2.4452695211989233,2.358451969448175,0.8091591332002963,0.9223074391025712,-7.08692935443789,-1.6169451223630642,0.7260528636730248,3.7822832610679877,0.2581801374839159,-3.0679219309572443,2.0553061632741128,0.30976230848379416,1.984375
1.5540428358917184,-1.8829948101208518,-0.0591314776870427,0.9740764418268409,0.5936913091788103,0.6660477254073648,-4.843719382586581,-0.09102952233525297,2.6093007927416756,2.6683777599512197,-2.4158769891313794,-2.2006432415144763,2.178595958079241,0.2457687171539576,1.9921875
0.35351094771656094,-4.711305544330952,5.017414737451317,-2.1117652869768433,-0.5503323935114269,1.0129812329371972,4.511337183248361,-2.7571839169707095,2.2027958113270207,-1.7607460583833958,-0.2945101361774583,1.1338923937148584,-2.4400250563000094,0.391346082180966,2.0
-0.07878167096010408,-5.134012432205148,6.564814144987116,-2.678224177327337,-0.9351007783897881,1.1331708786488446,5.713129076975546,-2.8499894739813367,-0.9326570197399794,-4.849634510139753,3.6482742318297596,3.3234094472071485,-2.8520260828972614,-0.07066796162679723,2.0078125
1.4272131322554318,-3.752009388596378,4.1999551692514885,-1.436881543071593,0.05405939235403719,0.5892389109998564,-4.218093405554181,2.1097783111200115,-1.5232915250602828,-2.690078455378539,3.8056187557914742,1.4756931459797753,0.6779000733235547,-0.7137962266952019,2.015625
1.773076599090603,-0.7154900726602061,1.1574552590133333,-1.147655420060431,0.8042547962215013,-0.38101910583218046,-8.689954263222303,5.650994695525747,1.7451977763729416,1.4842585406967723,0.10249181037167358,-1.5701314150659444,0.33415766646927997,-0.5454990474778274,2.0234375
-0.8112823794033737,3.9633661608866637,-1.9901349079280966,-1.369140069193674,0.30343205092141873,-1.442447337958133,0.13192330656017187,3.1496775334669294,3.2066569223350543,2.128186217700151,-3.676439316499873,-1.3266333346199166,-2.453130548397143,0.18122753966910843,2.03125
-2.8803607967720963,6.341126818339755,-4.234126451470895,-0.24480765085659842,-0.3593210616916704,-1.5205793889098047,8.11183750563321,-2.1987163406674513,-0.44873040456221,0.08107614123849205,-4.6745942202004676,1.014577658945232,0.4750297035618268,0.5316476361757382,2.0390625
-1.570034360273291,2.6998734432497584,-2.629083436246638,0.9636166295804407,-0.313158085991883,-0.22330512285970183,5.454935352874902,-4.875540943611222,-4.807204847254732,-0.8077818671333283,-3.0020083004913967,1.7608698328658978,6.990161763980829,0.3583480508878793,2.046875
0.4372680545482558,-2.5839938755235483,1.4981991473186986,-0.3401907659534983,-0.2273032545115742,0.41192030819270586,1.9416083690475963,-2.6112923693071144,-4.473711041730748,-1.1730014297525113,-1.469557396212229,1.5726988598133729,6.980768201492052,0.04038957333207002,2.0546875
0.4091558647821843,-3.3720594131274595,2.683385095545997,-2.380342722102781,-0.4799994926742781,-0.7738864269753111,4.184445114613177,2.3071230487132524,-0.5495656446174988,-2.068970005788226,-1.5052857608586816,1.8436749762036648,-0.05891914506773374,-0.2371043350670434,2.0625
0.31012395718108376,-2.0432491121336773,-0.16584763243490117,-0.5957624031847586,-0.40870010280267666,-1.1919345825528083,3.481223328446628,4.511194596633464,1.5949359285335556,0.02448347751549024,-0.1791232344961021,-0.14755561342583717,-4.966792415386121,-0.2256189785596285,2.0703125
1.4619098061698197,-2.6415816802935805,-2.6271389401766534,3.9882194539188776,0.04531363163294114,0.7741313078094503,-2.8648072461077763,1.418174995600171,0.033191677694235804,5.609687384732651,3.9302812164774643,-4.844005880487611,-4.574769821738575,0.2880023325034598,2.078125
1.2410240643213608,-1.7650686108203058,-2.3320002206409556,4.8401251059968775,0.16912226745685002,2.038838864327708,-4.533917961288105,-2.4245473160253255,-1.3615973874326017,7.492351410923663,5.6160257545359675,-6.2634339257066625,-3.476577818196827,0.7597802871099537,2.0859375
-0.7922333757912952,2.5870673291819712,-1.1254543967023454,0.742542001101101,0.08847186318203852,0.42184144023308745,-0.49910708575124285,-1.68857479874578,0.8645562545724215,1.766419008707742,1.3105424656007494,-1.4864542363919864,-2.554707469385207,0.3694204578394195,2.09375
-1.026038232341646,4.089574323612401,-0.4091550729573834,-1.7131286502230876,0.4303311636119107,-1.0705694231471534,-1.6682004230444636,1.4770551353909225,3.965717811359973,-4.962216502451285,-2.7427250339918943,3.543621000872382,0.7339056579846721,-0.642951988617527,2.1015625
0.9143770390743459,-0.0015592968914064625,0.33007439787473375,0.45278006706159724,0.7002527162923236,0.024092058179432323,-7.114474576231898,1.692098842667902,3.1170537997158654,-6.003940952525418,0.1855333498576364,3.6655814849185067,3.20049092811576,-1.159500900974481,2.109375
1.0892893856092871,-2.695759933246135,1.0818148742697635,2.140201574578651,0.11355681821828735,1.3097963086304505,-4.760674659892393,-0.8641251792404094,-0.5432911960052247,-3.5219809932165402,5.46224471670232,1.6414633810898769,0.2723336575603676,-0.7240558436062122,2.1171875
-0.8647254554448195,-0.4419844044451479,1.0437583901724992,0.31053806961665903,-0.6018576809859268,0.6025781698925313,3.6502748418381485,-2.244138886184879,-1.6799111796068853,-1.8919215455349259,4.273617597568224,1.1626986740469702,-3.3206190246268172,0.0014498476011449257,2.125
-1.12390017185648,1.1810533396670628,0.47554064558522724,-1.5886084031914933,-0.328907900669226,-0.4776585809378087,4.992882560797026,-1.376889120321396,0.3407023696251395,-0.7240929345641062,-2.5250541290727027,1.0429760536655934,-0.2163771804250774,0.32507757994331354,2.1328125
0.5695297513959355,-0.27007442300012463,0.6325279288636875,-1.8351376819628697,0.39992036701418326,-0.5120609224181696,-0.5707372228072684,0.18581360631913635,1.0783230440617655,1.4108103425028893,-6.772901743750607,-0.2984243057741712,5.656090615121997,0.31940260449629093,2.140625
0.7157389848207444,-0.011555612570412613,1.6507758894801627,-2.7299445771143174,0.454196003429006,-0.4308658872467067,-2.207804391783523,1.2435672671399773,-0.7021269799450673,3.2533124225332517,-5.157862177948579,-1.6094048213320495,5.139540640507086,0.38713700670728257,2.1484375
-0.838985021299698,2.897601124554775,1.9236148123984136,-3.662501378032262,0.07528327449282052,-0.5731422113503724,0.34285927260373966,1.08707100601335,-1.7381915400247527,3.3175562525513977,-1.45804168558951,-1.7566653162181487,-0.11544119137629914,0.5001544517061464,2.15625
-1.0935565367660738,3.325237627280464,0.3565631298376955,-1.8012624912240123,0.005213657422355357,-0.4020058679805013,0.3317810219532833,0.4793917771828063,-1.2078984354021425,1.527722883893166,0.573240541395265,-0.8335142291520236,-1.4801060671265869,0.2234766164721787,2.1640625
-0.08919545181720637,0.5411370905837029,-1.7784599356345825,1.0844006718079653,-0.03648736355558152,-0.5407234097166059,-0.023060952870719832,1.3144594819523463,-1.303020202144965,-1.4253883822506832,0.7528679879036907,1.0581434687635325,0.8797098905336836,-0.4328427367422447,2.171875
-0.3684420079743327,-0.23088198858002354,-2.457795240666562,1.4089326151030008,-0.39609629083807496,-1.069694920006765,3.5134536246036294,1.8348454666594185,-1.369477425966918,-3.231927218402566,0.44656371123403105,2.4693699596838505,0.07140312952152766,-0.6203296035631531,2.1796875
-1.5231000671055905,1.9193314710199285,-1.3732303806071362,0.5373515507557635,-0.4743864458922799,-0.20795695111046886,5.281740186754039,-1.9021719698534316,0.7424544092705986,-1.1172724289194342,0.6476794318120983,0.8491579197363888,-3.594150828205941,0.21699732079363832,2.1875
-0.7945283496001505,1.1109498126403008,0.41822279554386776,1.1608731658212805,-0.036279924048355144,1.8847421447842048,0.9516634104844364,-6.335433619653993,2.8189863610030628,3.303408419920275,1.2571744486600875,-2.809589111223034,-4.061792912335399,1.1345582846083426,2.1953125
1.8000059963014368,-5.051139340802092,1.7660295986338337,1.749186467688363,0.0723645836863531,1.984940942116482,-2.117322096063962,-2.964652217177855,1.5205792375909035,4.37074215683174,1.0061553165000345,-3.71975050704845,-1.185604363173423,0.7671126055790022,2.203125
3.2098907749302388,-9.903920770757667,1.4693813522003318,0.9044487928642381,-0.4149129255384803,-0.47265313115398583,1.1883505460559334,5.547102107332303,-0.8961936328288528,0.3150099318097362,-0.47225786554386956,-0.40250009103198764,0.4536823287373838,-0.5297210463644472,2.2109375
1.9037647298852824,-6.726710210790784,-0.8246797641845384,1.1274023279736107,-0.5355282148471318,-1.6425091290119076,3.344854411044436,6.674022643432156,-0.6623859695795976,-3.8182019799622267,-0.703740531408539,2.7149852278988367,0.27843289316873443,-1.1316689667350759,2.21875
-0.23904564159571576,1.126034694494926,-3.038753446939756,3.2077037432777438,0.09759924974044591,0.14814627870046415,-1.5878081474558488,-0.8594705163464923,0.4011664125138203,-3.660585520365195,2.3458192828519167,2.1631521655568626,0.5420767078297133,-0.6448042907931444,2.2265625
-0.8331958963618701,4.775510877803848,-2.2833289573087057,3.32975483907352,0.6136768436915577,1.7246281279020104,-7.187565905054341,-4.8516935764247995,-0.7451418876638594,-0.9205507926723022,5.42891276502687,-0.07048857386380003,1.1653235213678912,-0.1443381309113582,2.234375
-0.03261836012159444,2.3812908571907374,1.2263814909753585,-0.33685209691885626,0.5094367369153299,1.009242725484845,-6.47300945857535,-1.2160805640203471,-1.8096945539541123,0.9784124505756886,3.5009421558753937,-1.0000595945750967,1.3068393816499169,-0.043321274011261776,2.2421875
0.17489262264563427,0.42469167854968254,3.8240278856168817,-4.026475595107209,0.27286276678634724,-0.1335740861980561,-2.070812477792071,1.2967702899663507,0.1227136853276644,1.3973842387838507,-1.9010262958188469,-0.6858394001101731,1.0859668657497208,0.2194732314278955,2.25
-0.9498449754313141,2.7369877324056486,2.6567088752073382,-4.115255935346601,0.21458816236113554,-0.37248379339020365,0.8662569022896146,-0.5857787706759744,2.644346973287793,0.836105048824266,-4.309239069810014,-0.12832994784721086,-0.02842067788466577,0.5346882517307648,2.2578125
-1.8383168220087787,5.443811895444688,-0.9264970584672151,-1.7703943655477359,0.16805683693762294,-0.7566200628753553,1.4113236430328278,-0.6317865301691715,2.4232633026881483,-0.26106326577526795,-2.5873241903629327,0.48620824603790475,-1.4250545034382247,0.26340196893434475,2.265625
-1.2001628781763853,4.491207831038778,-2.968808443715034,-0.19673471206075746,0.14705300234839508,-1.411993535821348,0.5249511613378567,2.220412461704743,0.24473706225283948,-0.5501282923696086,-1.5561608962152118,0.6967175379975585,-0.18786672200360477,-0.2536329686161287,2.2734375
-0.2918377376376467,1.9902391255043435,-1.7082204707245814,-0.5480536048790131,0.1431977459492439,-1.1761475540438542,0.04303646562199995,2.189316998384043,-1.8025866616402315,0.2474726072226645,-2.4125645284518615,0.3964585144547443,3.1354440978672575,-0.20442034991145955,2.28125
-0.8259958345301393,1.6041005005484452,0.536045918013529,-1.608413039826163,-0.12599894827852348,-0.3346745187036445,2.3939850512320917,-1.305364260821998,-2.7501956766951845,0.23617905915784387,-1.8821033220220449,0.5849580494833554,3.231658529255869,0.24659460944781036,2.2890625
-1.586097142686608,1.5317022209120046,1.2466624701335056,-1.6735222280449022,-0.5351382258539443,0.02610890228257303,5.828966184420473,-3.0047073133334217,-1.562969768399539,-0.5734087275536902,-0.16778073778281333,0.9387206339596628,-0.9352787492835023,0.4646165996939014,2.296875
-0.0170755050384739,-2.789147188512133,1.012654959924772,-0.05734301348755756,-0.5900683240642295,0.1390125529467125,5.205326542898239,-0.6699476671944766,1.0808567131677098,0.09164678260070734,0.24858877769819812,-0.14352048860439917,-3.8217298680972163,0.3075512136730784,2.3046875
2.956210531541601,-9.551308152934897,0.9083096915759421,2.4049366109817565,-0.409953348715802,0.3950802915641285,0.9564690192893094,3.2570400117947,1.7763648538965249,0.8116934670093321,1.19081803650272,-1.3231521532811226,-3.1299932038522145,-0.24258716333834754,2.3125
3.4764402757190362,-10.447722894226189,0.09760230090404672,3.8758306301176413,-0.3966763933569464,0.342389365249563,-1.2525949225205992,4.79272936740991,-0.13029427690541617,-1.4689151191395031,4.162126883678352,0.03103271841066616,-2.136355983782467,-0.9419038309369094,2.3203125
0.9525082056013953,-3.037555619654919,-1.1124889706052186,3.0334055878038977,-0.18458887655847664,0.40457079080463876,-1.3022015633352393,0.9696778367319631,-0.7650217230712951,-2.711085008865541,4.433655754878347,1.254189429326967,-1.2118138173990616,-0.7208206755501797,2.328125
-0.7176749604400754,3.6569220043794126,-0.36969754446499326,0.6877216065378845,0.547442685725244,1.4590251284134819,-3.7627667265411744,-5.420985716551549,0.8805422585806054,2.4773141475880234,-0.264537593284809,-1.854991221293508,1.9542794136776016,0.724139244350615,2.3359375
0.23868666435048294,2.4497857269209766,1.7259229647412822,-0.7841672875629362,0.9338943043357102,2.1698462838929595,-6.377366919830152,-6.52941561594593,1.0673396199816514,7.301731170323669,-3.2620295198701585,-5.042656367201057,4.606265383266092,1.4967965665132787,2.34375
0.6940381890671619,-0.7776920092360228,1.2746966399824156,-0.4644950193869787,0.2931556188812921,0.5767467646353107,-2.9201279405003233,-0.7286929875646322,-0.6554939692806792,1.5615305430502564,-0.6004998426194333,-1.0622623517472254,2.624865178985397,0.18456950487142404,2.3515625
-1.1577179902530947,1.8740819883627644,-2.128643058297414,0.1283218362827151,-0.39609341089473105,-1.9218749244880546,3.2219908306051877,3.966572446733589,-0.694619046292614,-7.979138465215893,1.5576929803002972,5.764160243114289,-0.828515645848664,-1.4000919394252953,2.359375
-2.37785443748835,6.53215984876826,-4.2403928362846655,0.020028297844586478,-0.09420651008991796,-2.228325849912455,2.9572992248315053,2.7039147535293115,0.5084415096757292,-6.018361255081777,-0.6277727778977255,4.612784501788752,-0.7776471164591806,-0.9665733246939401,2.3671875
-1.0420189435205054,5.58204553052588,-2.7656509262416447,-0.03473465536616319,0.4876587788031695,-0.40195114265489573,-2.27580405553767,-0.17503249254065253,-0.2976092064038411,4.749258866859192,-1.7125290907721968,-3.073520859215618,0.38280451176718283,0.5741822775844913,2.375
0.31468216722076064,0.8606586401261777,0.4845535800142457,-0.27207253086933175,0.27151417736229516,0.869140799492785,-2.868664452331501,-0.9392992346921073,-1.449506776917771,7.549585704973941,0.846560637893784,-5.396960071749596,-1.2500421420232712,0.9763843901069821,2.3828125
-0.051250140926280996,-1.814005110855386,3.2981512984994965,-1.807703087818913,-0.34596056829169625,0.5265006619392008,2.0653185973220802,-0.8478184130576393,0.10247219880680108,-0.20346380291367416,1.491139533059575,0.0466531330941708,-2.6876279750668823,0.2278690752393991,2.390625
-0.24685685963413076,-2.415009809885885,4.15262373018712,-3.1471411970128296,-0.4551169190806483,-0.24500511959863677,4.357778845309393,-0.14960877963453276,1.6651779430495708,-5.061586193871534,-1.3314869363784585,3.7866370633387287,-0.6297534153329708,-0.2796425513940209,2.3984375
0.4732577082280094,-2.4533905262801468,2.178934209309022,-1.8199460556770148,-0.18567966503415015,-0.475790228502527,1.8240499272157669,1.4898525416182953,0.39241875643073215,-2.236234450055139,-1.7968601418440078,1.8204785324876944,1.0517367095459598,-0.26273509055794264,2.40625
0.17802385113676605,-0.6335917211439696,-0.5955703409719663,0.5769574478028076,-0.12411389092967261,-0.27923354320143623,0.3011145684329695,1.4480930746682223,-0.6451980843802159,-0.3371722242544442,1.2438027600241888,0.13216555458988974,-1.0262159552353862,-0.23692766105067373,2.4140625
-0.8611574531290787,1.5059146138788397,-1.0135545019834469,0.7176730219170814,-0.1872440067804571,-0.13921626585920704,1.4381146383905359,-0.42795326484076224,0.5494323990343173,-2.366440841882556,1.89517974103246,1.4753076120543183,-2.3244004471250985,-0.2586509468617354,2.421875
-0.07242720912214522,0.050307253456926514,-0.019701939550922754,-0.22767009611957886,0.02868724483488477,-0.24560355280790974,0.39334362045850263,0.014876299262191812,0.7360996619589744,-1.827837768147892,-1.2405294204999437,1.3941862607220268,1.2081301527414372,-0.19359177693422625,2.4296875
1.8007053458291127,-2.669126368254024,-0.6920533638634829,0.8876529870715338,0.4173675545029441,-0.12601418574346523,-3.746578398807039,2.07427168409847,-0.8765866964120146,2.3188646685243595,-2.554098052760313,-1.5067631645544948,4.757013219802062,-0.0898176305210855,2.4375
1.393289332107977,-1.1194646015176142,-1.9475590888434486,2.5042078103095915,0.47267365771299863,0.5508467076565435,-5.060648758049403,0.40111654375211375,-1.1266812475792365,3.7102051611171025,0.2426600112166042,-2.855737294965552,2.7280991544030657,0.10622503061047,2.4453125
-0.8972168411482506,2.536764378763224,-0.9150433595623855,1.0979705352748705,0.03419890166562851,0.8234110474557208,-0.5054142074988536,-3.122704364575956,-0.4618827375363176,1.4449920883698388,2.2741874402750604,-1.2139938377237929,-1.488127693214016,0.39693665600665395,2.453125
-1.4790738574449862,2.253305895034239,0.5833205082521359,-1.5617523597605576,-0.3774619384802805,-0.16506129255163882,4.472654496401022,-1.83712271804651,-1.1712611359834662,0.8181852815611972,-0.19081911870434243,-0.1396558181016071,-1.70105660811103,0.49681894799256,2.4609375
0.11023570498423305,-0.8673455102571375,-0.7099825786900339,-0.7683031175807429,-0.2205756354282465,-0.9966422885465752,3.600463448029333,1.8265771144187648,-0.7516442182063057,2.0382936807641876,-3.416692403852751,-0.8670021859927192,0.7601673313772759,0.25871799440030546,2.46875
1.2441915257673821,-2.4102091541018154,-2.5309650606068423,2.9702900756992325,0.19747446989317008,0.0867066934465334,-1.421945490375761,0.6664217959293423,2.3465073539539993,0.5916620445318178,-1.4381335402651574,-0.7872921131927632,0.5939957219381174,-0.11018918901568496,2.4765625
1.1565152549806503,-2.9571286519119164,-0.7185575837598878,4.16198256454895,0.17863975533060755,1.7586469044706932,-4.10436472126562,-2.658157052409706,3.126496504889501,-2.5435936030440676,4.248261610641528,0.5742159224623772,-1.851223523971378,-0.3690443484565577,2.484375
0.7760605180345368,-3.1297465050280118,3.0021767414311173,0.4871216626670606,-0.13050986677302365,1.4439161418262487,-2.4135789586302177,-1.3982163874555755,-0.2891827347988813,-2.3307809217066873,5.343160701086705,0.8996579985750968,-1.9351857385903828,-0.32436687928433705,2.4921875
-0.16428989560539714,0.20400314081305157,3.532048224501439,-3.7614088595958353,-0.040918272663223676,-0.33198308025192924,0.14085032274296874,1.3554931059589304,-1.6918634894687947,0.4609312395561208,-0.562141021710918,0.0994856833707251,0.6728009383643646,0.08351770729810369,2.5
-1.6466777100045438,5.2442244436647885,0.5359165501718015,-3.675433869927558,0.25076265090530286,-1.0135083756338483,1.3793409100210985,-0.1665048284356716,1.0436858928416,0.9648839065743051,-4.851073068146979,0.1090492359577148,1.3738343060883362,0.45029428356348067,2.5078125
-1.8986553561965265,4.733574195997249,-1.695072817940738,-0.3660859134650185,-0.03242201470743044,-0.40275688805071214,2.7049546299405898,-2.029442025809589,1.5954984010701863,-0.6308412319952122,-1.3413744147124018,0.6753632650277415,-1.5964161643263515,0.2874026949380799,2.515625
-0.5312854332002729,-0.6933616809493663,-1.0724906452693543,1.1093677000129494,-0.6304475053811879,-0.3453058710948117,4.232945759481294,0.8336378098142143,-1.9813046120560058,-0.7442816466975127,3.38119316412541,0.4363083406948221,-3.8171754962063207,-0.17444878310630757,2.5234375
0.3683875415441701,-2.4411493748954483,0.5181267711016943,-0.7691717608618417,-0.5443170955446365,-0.9761338916578532,3.27073552354388,3.7750398303042645,-3.718199035411905,0.09931244154663406,1.5536887010878047,0.23163672591155826,-1.037242715213186,-0.33143631519751143,2.53125
0.15825171436392182,0.4272273175302622,1.3326771334701097,-2.4346398148011845,0.19050995447186309,-0.7924815928264027,-0.8080849031889371,1.9205841175380929,-1.3408483460207534,-0.45671804933332955,-2.8611861080866157,0.9051659179803342,3.9392554410636955,-0.18197673149959667,2.5390625
0.4256845029359665,0.7948614325467239,1.366572541075678,-1.3392873688169935,0.5922315158590208,0.19236485838531953,-4.365475008540511,-0.4580235128056881,1.2664991732728288,-1.1212726937146997,-2.6678905547924523,0.9146446134736315,4.535804502729906,-0.13779688965027662,2.546875
1.0267315483914703,-1.4210678943368156,0.3184780831409767,0.7981690669055607,0.3656715830752,0.4757216092282999,-3.963661543780711,0.5209022701205013,2.213738573386721,-0.4152541574757449,0.18675070206975833,-0.19438497977023964,0.306913464005914,-0.21825435889400183,2.5546875
0.1633806670760614,0.11437770476316628,-2.088923208447999,1.8435245607966388,0.07924788264209841,-0.12210579814942171,-0.6443112104616835,0.769337414178677,1.9447864701383077,-0.0983445417233707,0.4189054411501765,-0.31199697147004185,-1.916265751255808,-0.14866277882014373,2.5625
-1.3629732691574503,3.9934789269893027,-3.803558408271014,2.0007930609694076,0.043506414677167794,-0.2510395216817995,1.4170126058841515,-2.2585480455795035,-0.1508789751237106,-0.4562510076789717,-0.6599719392881741,0.5225758155517348,0.8754634369177984,0.09534712154569336,2.5703125
-0.8917562124779794,2.9395933337740305,-2.25284872872657,1.7156443495328162,0.09835247282766392,0.47928108957638005,-0.38819130442807426,-3.3409203558188825,-2.386574370832412,0.7649533867927469,0.7677092755241479,-0.32159043123875736,2.5822611625022938,0.2360109247535144,2.578125
1.2469263184259771,-2.5651569997150414,1.4230230174720424,0.7138806929644946,0.11261702695641054,0.9571322064829589,-3.8405397235076935,0.6024337861825022,-1.1264975068792504,2.1556433822875274,3.570216609255144,-2.064620860558343,-1.1929330847548376,0.0032638022437860253,2.5859375
2.055137986275061,-5.408201669124845,3.3622293186289793,-0.41199124382982727,-0.001741597671211182,0.57480484837718,-3.724767039867258,3.8454085498075306,1.9385798960820564,0.2085909600437527,3.8769934470190215,-1.1313013743129123,-4.782396523097348,-0.40836059123620855,2.59375
0.630538822882451,-3.3493063653730633,2.0389184952252672,-0.7153665127276663,-0.2914956028610644,-0.04446215359894607,1.7167412365109078,1.2917796398943973,1.721919430552307,-2.394995586388728,0.41912369934710153,1.435344392373401,-2.170023262843043,-0.29237888251586025,2.6015625
-0.9477899673596176,-0.03863870750717616,-0.6219704105514936,-0.4672623097697995,-0.4758279990537941,-0.4174846165877577,7.256183964788177,-2.9395652127983882,-0.7086191274844187,-0.2868724111921386,-4.432044163816808,1.0766371254446405,2.4707785725084723,0.5321607100231808,2.609375
-0.9750601049828101,1.6030108925692252,-2.4465452277413187,-0.0763817061442349,-0.2242334812921897,-0.645257536192452,6.456539421290971,-2.5310199872716646,-0.28813726124711353,4.195303002051747,-6.461906197123152,-1.9521921975552436,2.2728115745313002,1.0739561050646909,2.6171875
0.10548283026546021,1.0005828750120236,-2.3378799590278483,0.7117933586261654,0.21462962306402492,-0.38700137193026074,0.35411671611868184,0.6187052255499811,2.1878267487529968,4.724098787316441,-3.4227738246779853,-3.252656632583526,-1.159983560212613,0.6453479517610685,2.625
0.8243769648143299,-1.1516933908649543,0.28311629097012986,1.09736600642865,0.24441787896940234,0.8125616737450896,-3.513937649939355,0.025155370537074367,1.743182766319455,1.6763186658138958,1.9389259418010483,-1.835936900418362,-2.2324162093056295,0.09131225998763097,2.6328125
0.3600554624822087,-2.5828580761608086,3.9393874678917444,-0.24959010797519882,-0.2170114621332455,1.900750374708185,-1.2872124496995245,-3.6993599565754267,-1.9148686667182524,-0.7985118390856509,5.065103562865475,0.1269169576179625,-0.7787126296167866,0.13626659718004788,2.640625
-0.6407571635579609,-1.2603081490124048,4.612345683010317,-2.149320355749641,-0.5607620926628218,1.0412936480728268,2.28072298424442,-3.0759918532603154,-4.43958267793508,-2.774048360860628,4.615298891952697,2.1339577433998067,0.2637102396638938,-0.0477511732154394,2.6484375
-0.9253669673648955,1.9717293055841862,0.5570165133783852,-2.071495720390558,-0.23478848550329717,-1.4306570556894636,1.1931380576099964,3.450498245425523,-3.1190853369967013,-4.914746286767854,1.6429792758696469,3.881514679833698,0.9696030339154577,-0.9693633449168891,2.65625
-0.4362184451620321,4.455748247121771,-3.8953787256362293,-0.4275534687452728,0.5067765516224174,-2.7596471782940886,-3.119692775526768,7.486839489907592,0.7898742371877462,-4.443503249621581,-2.367981521373246,3.3865621106941215,2.225231555745521,-1.3981553028592297,2.6640625
-0.22019568445110319,4.365105836189259,-3.3509728517369806,0.1348558626769824,0.8085836921338503,-1.4305893340279063,-4.554174290618898,3.3750655439105075,3.5964576469403156,-1.430696745504482,-4.158458467896044,1.046038262750382,2.382487181895877,-0.5615183743325856,2.671875
-0.49981476039821043,1.990738613380045,0.9676441429094647,-0.8101887063692845,0.33658575185283934,0.6626028810745178,-1.7539171434504042,-2.800713570176074,2.442147013721887,-0.18075490729901378,-1.3503320896827404,0.05138874183750367,0.6266639513184149,0.31941905351944094,2.6796875
-0.42969187382467205,-0.28767459170769083,2.8326580473191054,-1.2145094160555974,-0.19620645226709085,0.9667835472262251,0.64950111783851,-2.8374807477327404,-0.9855380539650449,-0.7796937192805462,2.229556650166022,0.49956484267869405,-0.6646808201267881,0.21901286676853948,2.6875
0.20285033366476038,-0.5022779506712031,-0.27791400944482236,0.23032823875540837,-0.11378263207059663,-0.23433610489045686,-0.042252706412100785,1.4095855958592454,-2.1020053628057895,0.5577116436390152,1.451780802509371,-0.35085946924798367,-0.07431341529706254,-0.15593594341863234,2.6953125
0.6785385951397613,-0.005959285176286992,-4.281551676190632,2.92298448705269,0.19560158727531637,-0.6570468060312438,-1.2147326383071155,2.3843240367769,0.01285547812719593,2.645611696103299,-1.0325281571870861,-1.9570450492427358,0.3781313679116792,-0.07449769043941212,2.703125
0.6970247679467863,-1.19364813175294,-4.465042385343924,4.766021842050786,0.07639847421675232,0.4561665812907646,-0.37547146944543364,-1.148174000712244,1.6299488577878294,2.2105300896712707,0.08044339214649031,-2.036328289320962,-0.8971548191410009,0.195248225129536,2.7109375
0.6233115691746064,-3.069963731159639,-0.9459388902120632,3.281591266382489,-0.27835399389204857,1.4307066628823146,1.3964128466239984,-3.461125379610947,0.4964206874090566,2.309106865336892,2.243947852390145,-2.1494358236769635,-2.4116931011609277,0.5350671486469674,2.71875
0.5309507277934847,-2.969316895409264,2.5562116116152898,-1.0513396584815418,-0.3565090811725795,0.8910698263234117,2.5697700491578805,-1.52213401776711,-1.3513267829549251,5.652977482242157,0.3426965048923362,-3.897557874242907,-2.419078397252707,1.0237022851824042,2.7265625
0.1373827648059621,-1.136142769256777,3.3466571702329446,-3.861217155090337,-0.20561941573579517,-0.2303072606296968,2.9220107509661,0.9279697519696839,-1.0748414108598092,5.9824218632592,-2.918863561464415,-3.6166958724873983,-1.291160653044145,1.0161307461825102,2.734375
-0.3516495244441568,0.10047905325982477,2.3113175025750516,-2.6813508940374775,-0.05421671965025084,-0.3334706715203317,1.8109132952796176,0.08336088285407477,1.669582043375084,-1.1204724411010105,-2.5282245670841372,1.0687081046928444,-0.09577025973553654,0.11969939227265676,2.7421875
-0.31806863064272917,-0.11160737285050544,2.062834626084199,-0.7303774151756148,0.123282138704963,0.4217838612131057,-0.8020974594387786,-2.005596486671209,4.280364184059809,-7.5592710924207305,-0.32991373083425085,4.966476875653926,0.6764051370070723,-0.6715678765599982,2.75
0.12813106331612714,-0.6641911652784577,2.7768395703826205,-1.0274898604959795,0.2163263008558018,0.678773405556972,-2.423278758875657,-1.5398813154064819,3.196894483697101,-5.495375637678602,0.39873759988121493,3.4730132919188335,0.8049194092766885,-0.5189688339155227,2.7578125
0.07038800797449038,-0.20919184691079512,1.8627634202608654,-1.435769147374823,-0.011306355590645712,0.039462421307943744,-0.9447949920440644,0.6370934239626995,-1.6463320191562425,-0.5124973586938988,1.1602626242132148,0.45461151638380076,0.689643547458922,-0.15011512695992574,2.765625
-0.5551946420609108,0.7720353700809883,-1.1341885651304042,0.18642641913690555,-0.38654589235549436,-0.7250341756486979,2.279451721536814,1.3761504329513132,-5.485905807408661,-0.2715508392356097,2.269626629780468,0.6745752235574463,1.3030981796689236,-0.3004222837462535,2.7734375
-0.5568868017300929,0.13255556304926072,-2.973893655881471,1.6396291088793917,-0.5127372626456129,-1.0177539128700273,4.461043036727712,0.8845896270487877,-4.8462025388572485,-1.519676850317375,0.6335989115411433,1.6752191863938786,2.3914334928918577,-0.39294191399481465,2.78125
0.2680736443050039,-1.4381009253032506,-2.273404214180088,1.2501672493037033,-0.28441928565685426,-0.8125277934742597,3.4915618998398,1.0555802851229341,-2.051232564663196,0.680316024621571,-2.182486543887519,0.022194910294514425,2.2824398712461,-0.014471222786262842,2.7890625
0.5042529000384622,0.18103931354883818,-1.8432824119897226,1.0389121086947186,0.21807465362821526,-0.3017157729768858,-1.647007856279502,1.5023161614235876,-0.3056950139002661,2.632225624965429,-0.8698157320806782,-1.8493562560503707,0.6503986153020236,0.08554678958711064,2.796875
-0.05614064334532966,4.150462893109152,-2.730317159227059,1.8586857556261873,0.7765605347098037,0.12698066913529435,-7.857164504465527,1.4088562213402298,1.2440120896915263,0.6030210285420624,2.7000202575320906,-1.1027435188558816,-0.7032094398595766,-0.4163881199070985,2.8046875
0.02739198578808486,3.8367900926393217,-2.0139589074011224,1.5225523336540179,0.8848421946171706,0.22583638549262847,-8.376716460401273,1.091966107546931,3.7027453011903533,-1.4454493110245008,1.8048509231976702,0.16459594718991113,-0.8458945971816947,-0.5746907018224869,2.8125
0.36636912431108487,0.03999131396360238,0.5785642684273016,-0.3126693114070272,0.3879317565271111,0.2841024696547775,-2.377034260785874,-0.21959086411713544,4.673694234225641,-0.20645289727205615,-1.9996819124840621,-0.2441682944950889,-1.0645721471297966,0.09435149499395802,2.8203125
-0.8230593247846655,1.3842645097124353,1.256241680409557,-1.4022079230287636,-0.042570096073921745,0.3875374079376843,1.920150256338092,-2.4082597508898114,2.363785109491939,1.2256144627072338,-1.438889035786756,-0.8250372462525188,-2.2352653309044297,0.6360457339565608,2.828125
-2.1667561217956375,5.959580176723478,-0.17683165923097915,-1.3967615293640716,-0.007672297983008772,0.014084964610575417,0.5287919986929636,-1.842161139828129,-0.9512401875837228,0.7762104036960099,2.2792538831810845,-0.4419079113676532,-2.907366922327101,0.3334573361151941,2.8359375
-0.7681394578112797,2.211670595141623,0.41155731100097415,-1.5750770935721528,-0.11046565077925306,-0.5985156995140305,0.39503619111285526,1.714693660124671,-2.453697720738496,0.6843421643946513,1.638033473699076,-0.2513172797785652,-1.2268722326437482,-0.06964761426244062,2.84375
1.6792098415894656,-7.310558175710086,2.995906391125226,-1.4606306649381393,-0.6105441051886976,-0.278607479842043,5.187855226787362,1.5841401621933109,-1.9713997344348027,1.0824832150956336,-2.947948741600708,-0.20377163840931675,2.0415304402915146,0.21002236164579224,2.8515625
1.3247060436746425,-7.84544481543906,3.1331013337980442,-0.461640410836958,-0.708538882525154,0.7115093782590579,7.354620453939922,-3.375424681232424,-0.45045393041605486,-0.15305116034252267,-4.416388774544448,0.7131835388027872,3.556154843383751,0.6128509358266907,2.859375
-0.48395863137728506,-0.34453517666979955,0.7499305963973947,-0.054987574806428456,-0.16067524387997675,0.6153095484020478,2.7988402477247214,-3.894088582575829,1.105987486760125,-1.2936860736523506,-1.7574787878851739,1.1063871227439896,1.2552697087175053,0.3567317778420413,2.8671875
0.06693468695521375,0.452446380345992,0.03454898586330805,-0.4963318111412962,0.07187402895606422,-0.4099193492804601,-1.0642190461646956,2.3365399010805823,1.1086152797217785,0.23786657429149585,0.7511321694020905,-0.40694736536492354,-2.5039308238302924,-0.17480791901083856,2.875
1.7001007636241092,-5.210402501195782,0.9901942176202173,0.5766705087264172,-0.32286660188519933,-0.18218269571629409,0.0024812892760997197,4.354594721913553,-0.6872181699376656,1.3351820287631622,2.7816063086057006,-1.4151465971105637,-3.610902159555746,-0.3094930000781125,2.8828125
1.0466560610989797,-4.292372401101026,0.017273435557706107,3.1771690144364215,-0.35469545235221905,1.2609272924124266,-0.2593450829358872,-1.4621669185388282,-1.6090353690279662,-1.0418893054489506,5.252650661917263,0.06336681872487653,-1.5440949363633174,-0.25597239763479374,2.890625
-0.5739514801365508,2.7375011890348704,-2.3500172644383897,3.554678420731857,0.34191383076609927,1.3706283594705595,-4.372929295436856,-4.227790820556597,0.12039405390287759,-2.393275735617387,4.270998575578514,1.030584413235106,0.7693772229077623,-0.28008465753723455,2.8984375
-0.5014636417870165,4.79735338411574,-2.3434547094157603,0.3803466314889668,0.756261533244713,-0.23880647308418954,-5.134168632903292,0.16722457019860062,1.7749476597071625,1.1269489302812714,-1.6473678844588655,-0.8599113648506327,1.7290079215402863,-0.0065171112990933585,2.90625
0.06418330781476868,1.5025373255990657,-0.16042525604228902,-2.449798078414701,0.29281666058941413,-1.2246625622717373,0.03714098394008705,2.80570456322846,0.16527205363593672,3.734079941204877,-5.369791156611701,-1.9395804601964215,2.1490006888320106,0.3942186226672638,2.9140625
-0.24652450679537782,-0.26905741033052644,0.47237603375779,-1.5133945931348938,-0.26236014072971164,-0.801571099977842,3.174891955591663,0.9201339235709908,-2.6684072557513043,-0.025935897261659145,-2.0315091517793737,0.7305524798838516,2.5005218031686773,0.019606690371282657,2.921875
-0.10822097740737169,0.01562655339029665,-1.2497127389971474,1.3578662186047494,-0.10490123418815836,-0.300405222739762,-0.1984687150094684,0.38261995580716834,-2.314509846781798,-4.292189288888622,1.8948024758197075,3.079631364146571,2.6295645509742265,-0.7921065384571833,2.9296875
0.2613812172664795,1.147296007283423,-2.466084340614054,1.9710570989476819,0.4089092111841679,-0.16372824814538312,-3.393223891082681,0.38288935228841764,0.7674386633629843,-2.0318617815489506,-0.41739612542006815,1.2618205938910632,2.7904239020083312,-0.5178644236209686,2.9375
-1.0840190042055267,4.435102808932219,-1.4885128573593656,-0.6794026891903855,0.4433975756752609,-0.12442563339718485,-0.3481153298750458,-2.5025366797677444,2.0872523360689414,2.2576872629915417,-4.607969830353701,-1.165273396256688,2.1129304424023134,0.665701951136668,2.9453125
-2.5952188153813722,6.271513983992737,0.5031390572354169,-3.3908713196116063,-0.06406946078605213,-0.5783942776139309,4.158832641951786,-2.573976600392799,0.8139978552645257,1.1500155586205123,-3.176881542955936,-0.07310923240728044,-1.2237437916558564,0.7810571481262113,2.953125
-1.1819377765661432,1.8337489793440147,2.133894309137043,-3.081104273069999,-0.3672065288820518,-0.9864561664755054,2.3503234528437926,3.2599171984896547,0.5486374068417451,-2.5712848312936076,2.633653035949903,1.7085169343311262,-5.866414374532939,-0.4123230476451441,2.9609375
1.3980443730725234,-3.676162200866383,3.0111705191501414,-0.7924672088970549,-0.10172716053154972,-0.03796163486162397,-3.7781402195144036,5.905817132925238,1.62314896906488,-2.087846812891457,6.3454699004943045,0.32256836518048687,-7.205578133212664,-0.9275509227545514,2.96875
1.3224805820739596,-2.7268961956672433,2.3316106459171078,0.3754980745217113,0.13109558730456294,1.0965980440511858,-5.025081746844521,1.4584182108425783,0.06644618515949598,1.3358837911314412,5.37815983024166,-1.865509654400693,-3.7003418388041194,-0.18332466872177763,2.9765625
-0.3655220602206638,0.8338326415503408,-0.20519399631066199,0.27251402850026674,-0.11273326510471546,0.35249480636574887,0.3799556468135451,-1.4292992181760613,-3.2151697973962508,1.928279118296247,1.5704914006634858,-1.144988143796754,0.8492655468093906,0.28246202653036684,2.984375
-0.13703437568674848,-0.5400784322221668,-2.0196220259617492,1.203985457893896,-0.2349011916288685,-0.4760423267963495,3.4226838147793073,-0.7186622955611273,-1.5259461409288615,-0.3544332288443112,-2.2410376074494205,0.7481821387930784,2.8377621131056716,0.037324104560906506,2.9921875
1.6300990890113618,-4.8694902584389315,-0.5943280909004229,2.968267346538572,0.17331992767154528,1.1792160158249945,-0.2871470139557504,-3.3787479213305676,4.697464070160877,-0.8513388026598585,-3.588663240218095,0.20325379013860248,2.496596310952261,0.22591984629090744,3.0
2.0078563144294885,-5.9547459947234485,1.3973099063381345,2.838656207392555,0.2656055274944153,2.5456723847306337,-1.8592907404032608,-6.198885578525623,5.291037635576027,1.8620974277490623,-2.436501341712906,-2.0139468954328956,1.4155314141172952,0.8394702050237715,3.0078125
0.5867262014905784,-3.5804580152432077,-0.06809932178547698,0.5882952400617394,-0.5187962723944419,0.17180534537927264,5.124472432972352,-1.1168142175773443,-2.4307628468619233,4.364149864405055,-1.713817086486298,-2.6084618075356234,0.41419179357289704,0.7831580298732339,3.015625
-0.6176465363691634,-1.1632329887695623,-2.427380650901198,-0.9496024638035878,-1.0539534445073557,-2.4782247699069937,10.72163544720125,4.574992402719632,-6.788498668286822,3.480521347127418,-2.5474967584708836,-1.069553619746674,0.0763476055766225,0.23997880088228576,3.0234375
-0.5738134385444728,0.6316249902280272,-0.7163775615643241,-0.7550206444745079,-0.26817794584321275,-0.8685720946056452,3.6942543341263967,0.7702855144303244,-1.2207425552952587,0.1587629345238978,-1.919980270075745,0.4215085724656222,0.5630968427011442,0.08564422636040694,3.03125
-0.3115871409232626,3.397493223701781,2.4839601587794773,-0.8859957138605784,0.8865839293257425,1.6862780809598692,-8.344220244290304,-3.9411535458569786,3.6074763117117645,-2.222986538567359,1.5375059875536314,0.886613840161032,1.2759580575071863,-0.05361400685911311,3.0390625
-0.9271435736372822,6.196774939467188,1.648658180606731,-2.105461694661765,0.839288617773306,0.3395120455755738,-9.344812471947668,0.43171092595298255,-1.2756158132439273,-2.5053800905568493,4.106373512500899,1.4580486747981605,1.8115341125122304,-0.6744343115598692,3.046875
-1.48112768119311,4.551840879760076,-0.9156970353736982,-1.9739458691788765,-0.19722996510460816,-1.837641438371181,0.42527565845286147,4.354214935339653,-6.8652597411941745,-2.6738857923163515,3.064771256620285,2.6037528321380097,1.8684533673802977,-0.9246839757180463,3.0546875
-0.35277735475667454,-2.1087580020523284,-0.4703282035718021,0.9006152126920746,-0.6918106812465326,-0.3559570972610658,5.745941293959351,-0.6701235835571533,-2.2724355281459934,-3.6374455958086975,0.8503744942849212,2.8728378703557054,0.5426202553342913,-0.35186100876729665,3.0625
1.379857336830659,-5.357828409954874,0.2166940607864275,3.458095059259121,-0.03334882425538825,1.6462459006900525,-0.034692535415496314,-3.7284171390648604,6.518467682787549,-3.3487193139512432,-0.024336497927584175,1.3334260686955381,-1.975320504355802,-0.04980659976279698,3.0703125
1.1037846792722443,0.48381254140252306,-1.7762673022473,2.0416272596839384,0.8591494909129382,0.23558797920139388,-7.51232822552163,2.227992782607715,7.844660057573636,-0.8104796080549113,-0.34696242979001385,-0.6477641218817717,-3.2629667677268546,-0.4414950990370892,3.078125
-0.5042480406749855,6.5826976470257765,-1.683651799797284,-1.7479770428676347,0.9821661158997088,-1.3553227195555864,-8.020345368073803,5.66765367068032,2.6992985498494737,1.5721742266374212,-0.3954011740981516,-1.4228192897488572,-1.924507561846554,-0.44995136163454935,3.0859375
-0.4563880126892057,3.5649179738572148,1.812674325929467,-2.8991401376890273,0.4675342420096968,-0.21160410479114375,-4.481241591072782,1.7212208769067538,-0.7377459781538244,1.7905007822180699,0.6625939726427016,-1.1949647828287489,-0.07371660119597252,0.03871903708564378,3.09375
0.6743191268447452,-1.507626844752176,0.8869066232103942,-0.5133460400098521,-0.0071278428904842,-0.10550117909985783,-0.9403272471688903,1.7961458818575777,-1.1402625760644474,1.1306448570925645,0.5835301475753357,-0.8070112546662732,0.02360791383827483,-0.06975193902386133,3.1015625
-0.3011659054469959,0.6643650799924997,-5.139985380814881,1.0758796675062254,-0.4214209919061373,-2.6715914675583448,5.707931633563558,6.0056323301182974,-2.067862147373818,1.5763062084490176,-3.11686093630154,-0.40042874099419923,-0.6210379222925887,-0.28834658596262086,3.109375
-2.6165078650358526,3.489812814050191,-4.779275853970751,-0.44096500785495973,-1.0274514737030553,-2.403041956967579,14.456794568414198,-0.3330910856721704,-3.5971783178685897,3.042630577184296,-6.1485101040930665,-0.452298323058208,-0.08544456990215143,0.8916988843360865,3.1171875
-2.3005815793825204,-1.248041737469418,4.536209926023009,-2.0403491760003054,-1.2461552050329607,2.5312051657667642,13.91933515460301,-14.02569641435663,-3.612695467053444,3.979761932934796,-2.2583271662924425,-1.5903940970412132,0.9270963584026573,2.422279470091699,3.125
0.8853137436241553,-7.196132672180755,9.571508021143478,-0.9287436533275849,-0.5163649412192712,5.187297651422503,0.9051285868284803,-13.492638734253259,-2.049036612555031,2.8482891113010447,5.289440132767657,-2.4890231541986605,0.26753754484481024,1.7119836859200341,3.1328125
3.094525489897233,-7.116304428535027,3.8095130207990784,1.339716415708303,0.2683109857596082,1.7183361324457,-8.51806692683639,2.5296367681654557,0.2308480579958849,-0.5364041111185708,6.84916221706156,-1.0006195616723512,-1.9487978351490658,-0.7184815557907168,3.140625
2.4113498373802544,-4.545573040656376,-2.87074355811466,2.1141380404775156,0.12241227882511473,-2.2242305459477536,-3.343848142958029,11.13257224335582,2.5528723143338476,-3.9518143396006185,0.8045780361329914,2.0360297026532153,-2.448466970424858,-1.7819578212712306,3.1484375
0.6945704418045029,-2.2250563695869734,-2.9570785665239723,1.330881487919341,-0.08614745746092622,-1.7972662515997868,2.864262244983837,4.118653079262271,3.4207732751036737,-4.64262330286147,-4.730188064964423,3.4181150623112333,1.4631615360000485,-0.8667895227212192,3.15625
0.06839388696476649,1.5878827727323546,-0.9541068019559854,0.7235073415718055,0.6512247189087869,0.4010489258630243,-3.3944334842217896,-3.2321101859295576,2.1354202435186695,-2.7148857628259875,-4.354903194579129,2.1391343064982133,7.065963571397612,-0.12312132156405377,3.1640625
0.43977181623042255,3.4914660816375394,-1.107558752476199,1.441747320010497,1.1886344590721283,1.1631578109771474,-10.36427985576379,-2.9419671670006498,0.3670259747628078,-0.3517115504990403,-0.6243137609892132,0.02720973071601973,7.467021396025709,-0.20010966413681824,3.171875
0.22429759362992757,0.8975400328803276,-1.6857671689011346,2.5210405653249177,0.2953465425993744,0.9514689105147193,-3.8142285659969892,-1.8091181021850598,-0.605145768317517,1.487068889584877,2.665865234187427,-1.4937296719403161,0.2907959017924223,0.07052407275675061,3.1796875
-1.2517460566523115,1.1220999044607507,-1.751093668705551,1.4859723079054776,-0.6950488984701924,0.07341644106033894,5.132465114597086,-0.7100119610852714,-1.3020579826114098,2.4348892418217187,4.500132485968705,-1.9883195260799655,-7.493756405669045,0.43876455835367784,3.1875
-2.3752381376648684,7.371352112904464,-1.5540072783952632,-2.079099327712099,-0.1122349285951026,-1.5979332378407993,0.5162667387972455,4.462442258881301,-1.0662029027729256,1.1104565027375393,4.203097032710143,-0.8653901886545979,-7.79734728312504,-0.21850291680518216,3.1953125
-1.5791861742773874,9.393932981525746,0.6396983966361246,-4.9249361478938765,0.9712530802310329,-1.9999229038177317,-8.558643421175445,7.21916272124214,1.3407213647516343,-1.8810366973198513,1.1344054900474603,1.2388036858386857,-2.0179435551992992,-0.9742799454325144,3.203125
-0.18810667613653712,2.026716602733832,4.0166355554588975,-4.55407122635829,0.5680097481837167,-0.31112762506843267,-3.8293636278761283,1.101155686946429,2.9489277011480635,-2.6614834585495677,-3.0563243746830566,2.0437973474422777,2.146296641029272,-0.24715751781986595,3.2109375
-0.12272768144244521,-5.080612104444485,3.883522203106254,-2.460950742958032,-0.9233218870358454,0.3922068347890995,10.682003187125945,-4.61710090471262,-0.586306708008041,-0.006523545443359758,-5.266283239837572,1.0051724081887263,2.123254995171439,0.9808486927012411,3.21875
-0.3563171788380835,-5.252282681515761,-0.15770448971983753,-0.33680042180662,-1.495969450375982,-0.9877706917909627,15.131489197893677,-1.3552712145385977,-5.915306433809666,1.783971947337663,-3.7532496358474847,0.20993579720942188,1.7314569718841235,0.7578939750313722,3.2265625
0.7264617345170677,-2.888492068593382,-2.851023240895643,2.4614831368198526,-0.45870580769763075,-0.8358269172854838,3.2005367127411053,2.2311329413703693,-4.581886256227632,0.161968149397561,0.42512919417816003,0.28510025509717396,2.502583172297555,-0.3740261629933744,3.234375
1.8704923546176815,-1.342413007472341,-2.2167911720590223,4.989245380181237,0.9051811808057997,1.7397222367764371,-10.562842841929708,-1.3375035772810109,3.0500903808435083,-1.1142645240467661,3.4537973159381083,-0.5443470266798688,1.6934802365619346,-0.5834126760330327,3.2421875
1.505836994652791,-0.5153774860097629,-1.2877172095089715,4.143345459816233,1.0074131033528568,2.2620733384406604,-10.034177210240202,-3.299451997601763,6.454751316780574,0.9688693709918923,1.856509389297991,-2.1795323786817673,-0.9673237850475709,0.08180169803293984,3.25
0.5327206900710364,-2.1360131602985564,-1.0875063866840236,0.43472850499915805,-0.2531965684545262,-0.5542202137286263,3.3733521168658287,1.6699189798179712,1.0255027826259424,3.35126855469647,-2.3936497024145944,-2.24274217632733,-2.1583563947593825,0.43676571540243025,3.2578125
-0.25224575544323047,-3.9896655411115347,0.1250988383857838,-1.943570085192988,-1.3004388246748662,-1.9296608596342437,12.957996590975549,3.2251406911279696,-4.901665591864421,2.9147399569315873,-3.283886545229747,-0.7726277641583009,-1.3519668400565097,0.5017694840288129,3.265625
-1.3531906221120966,-0.14258748076226913,1.9116606016657427,-1.8298713723706808,-0.8373291295607393,0.15528303621403988,7.867643922894515,-3.0769568096463953,-3.658265835969633,1.3394144095350506,0.49213474612725644,-0.24004465585950618,-1.3729091023425681,0.7400564241328211,3.2734375
-1.7419902434475711,5.378916729807129,2.419407601101661,-1.5221376859067242,0.37621947125069755,1.7067439838852279,-3.684429868214616,-5.62535947800311,1.2631951610008874,0.10916542211435216,3.363887021060077,-0.47850516497626394,-2.111786625803977,0.5412762488359287,3.28125
0.0313637297796878,2.793452974703988,1.9669023979904647,-1.320456532774131,0.78713737510153,0.6131160632705333,-8.11017633776095,0.4175374412895765,3.2859309695904972,-2.4129388972822454,1.9861369278307897,0.987089666332296,-0.535863071371201,-0.4887008264530288,3.2890625
1.8299607026799858,-3.4118160247311176,1.4218503370221212,-0.050305831371472376,0.4274319692897899,-0.32596661091402657,-5.446723244771486,3.9145296895143193,2.2441879280963493,-5.572536032013202,-0.15174741722754817,3.4546552856196566,2.926097883605872,-1.2561636026202074,3.296875
0.8219586048824938,-0.9447825408726065,0.05192190084644912,1.0277418617042082,0.4312225868986693,0.2590881350840949,-4.468593378203252,-0.08272572886326236,1.21431508830232,-5.080160101453491,-0.19236106432512068,3.3181214116687716,4.501617421563771,-0.8573011499446944,3.3046875
-1.004089176036839,6.341255769765334,-2.10369365616622,0.5886026116069946,0.8685779579648979,0.34218651246386267,-6.493008902545066,-2.110174190931225,0.9767688278938442,-0.038977420959409856,-0.30513832855082834,-0.07128781860734176,3.043863648973374,-0.03618233905577774,3.3125
-0.38118965289185996,5.184123761508109,-3.0405806177349732,0.4125503276610264,0.7694275296685521,-0.44585607770973046,-5.380919907734541,1.5039511756124482,0.8452953014710879,4.668056903075241,-1.3736238910236238,-3.3299562680220096,0.2708464376549851,0.29948064842127753,3.3203125
0.9455642465700431,-2.332358624653384,-1.937752270468046,1.7005494995101718,-0.14879370728774083,-0.2705940937246959,1.189840877689305,2.2312835080376434,0.15623219494222548,4.79140193992907,-0.3338589676129686,-3.5430862889895227,-2.837227715164005,0.3907128097519767,3.328125
