AF3,AF4,F3,F4,F7,F8,FC5,FC6,O1,O2,P7,P8,T7,T8,time
-0.8125593639421509,2.9017220973293463,-0.14843076587748114,-1.1482488792681846,0.09398007723224143,-0.6977898351193983,-1.0461700067863469,1.4827261655023072,-1.4863987384946789,-2.169996470705215,0.9790707297750332,1.71966122776038,0.812357705684972,-0.47453915612712644,0.0
-0.20783793754774119,-0.9569732173356367,2.521719059426125,-1.6361635943685726,-0.2337964306893961,0.056020582399039544,1.3380904277831374,-0.41452508006458866,-0.8196784652210186,-3.425499503916205,0.8167174415275222,2.5478599923663903,0.7368974593226036,-0.3183632410452227,0.0078125
-0.12080294540402547,-1.0097816669444675,5.166554602232677,-2.9355028087456168,0.0037334115624465328,1.0237041490439993,-0.8237639079985248,-2.2663314074569705,2.3861136258213635,-3.1646270734411988,0.9488277138858396,1.9530897792088426,-1.1595811227237975,0.002183089537407676,0.015625
-0.5066532798363409,1.9375711899156882,3.704313067560995,-1.9346578054187373,0.4700347266823269,1.5305707811392975,-4.216308089343368,-3.8885187132619943,4.4515362624415955,-1.6992550330944554,0.9321129867805739,0.6051917298369301,-1.6375825756303601,0.251921498900472,0.0234375
0.4328574064564588,0.7272407696922658,-2.2142509522634164,2.706884053092672,0.5143430335988894,0.7054345689816085,-4.173157691337246,-1.7039289745820918,3.0209748225748707,-0.4300938586703984,-0.2721603235621655,-0.23393939478076417,1.0025089759581856,-0.08613004854962253,0.03125
2.235748293059127,-3.4527887133955186,-7.063847149145582,6.240247741390535,0.3159521647668056,-0.9606908409645925,-2.6421808156870368,3.9738911786295144,-0.05424377380868386,0.3795395304094589,-2.26952079885732,-0.4702810329718263,4.530888819044404,-0.7662765838823572,0.0390625
2.6534246588177735,-4.548921717802467,-5.285495449572143,4.09416739844921,0.24124462293392118,-1.4916248729558825,-2.2165590694149486,6.408392279745344,-1.6844923590796497,2.1323318760916,-3.1857366762648374,-1.3703967475376007,4.936744159694568,-0.6856157647214733,0.046875
1.3282916100663555,-2.7394366216052344,0.3408528978197356,-0.49510915347653256,0.05323999507961754,-0.3049194913634808,-0.36371239404281636,2.4772330130433757,-1.2531187701227264,4.917984118107949,-2.23352935391977,-3.2095503558215555,1.0701571203101776,0.4077189173639792,0.0546875
-0.38740136305595785,-0.8627303252468294,2.2625496263201077,-1.7014042856018698,-0.394053307483997,0.7469236270862818,4.2690031019927615,-2.6899708386713326,-0.4193536678808275,5.855279972399747,-0.7344223065985729,-3.879390201223655,-3.3687309883054537,1.2979397303188949,0.0625
-1.6681758938263331,1.4967366217570792,0.32747086461382274,-0.6644624976759347,-0.6268686576821761,0.4159106839581321,6.97369110883121,-4.030732419151113,-0.4750219862436122,2.6431484323583168,0.12658250317951542,-1.5445426373559934,-4.004052102410161,1.0258494951342043,0.0703125
-2.1064205243501637,3.839723807222369,0.9277624702739239,-2.024760501864895,-0.33714266309846913,-0.2531632563750447,3.89373460341032,-2.158685964485791,-0.848256386762807,-2.5093794712636,0.8442408980366254,2.1431355954058975,-1.496449595743732,0.085073028579046,0.078125
-1.4617966093384152,3.721704841851386,4.040668527744508,-4.278092372200545,0.09460950397947275,-0.15700968109499425,-1.5667352077821408,-0.014050757163294346,-0.3520192143294497,-4.91939596908062,2.0626995706013527,3.581516241282377,-0.233387427059494,-0.5161945123561384,0.0859375
-0.5119457616599328,1.9537500586997485,3.2915342116798567,-2.570287820920682,0.22524135234149556,0.3420221361016976,-3.6284811445370218,0.3314876184604911,0.47210563379959936,-2.8780021228498347,3.0098263336544973,1.7110856909749337,-1.3307893057299953,-0.41418131815079845,0.09375
-0.09755183830315345,0.7668236529195002,-1.162055785144885,1.6667069313258054,0.0754327379166444,0.5793677990893621,-1.54922721676461,-1.1744711703334585,-0.18333204514269524,0.8045094028521711,2.358220296643184,-0.9196697093523951,-1.2216237269958938,0.06007684680342463,0.1015625
0.29338631072711197,-0.8801037443727413,-2.9239132694276218,3.029468918336056,-0.1236358314190208,0.3096250374611769,1.1656381293747307,-1.5726302245946873,-2.0576907377837856,2.32037964215442,0.15647913262840046,-1.5429192484935552,1.5538876129413146,0.2756933463738257,0.109375
1.02169681342943,-3.2331721101352766,-1.64685650597395,1.6325373234671667,-0.2265834267722963,-0.5001097126386922,1.9903522819782944,1.3654534289974776,-2.515240286220204,0.5696990675757547,-1.535388627117041,-0.036097721792190694,3.2700002656473477,-0.15168277026799093,0.1171875
0.9837249620619191,-2.775991793056268,-2.044136173374748,1.5292372750817604,-0.1728091358508457,-1.1715675200808227,1.0995143422421851,4.0508495002232054,-0.5881759879786813,-2.3816279053608373,-0.7380245237913502,1.7307025383708687,1.264178748107087,-0.781751074405715,0.125
-0.2204087142338809,0.9444886810284528,-3.1064907480972934,2.3706786956275394,0.004207104853842411,-0.6501024688616711,-0.34719049998920376,1.7980353595261445,1.6434784280228638,-3.5904260934725727,1.4853968322502018,2.1143921018775256,-1.685805778397511,-0.7593387248729905,0.1328125
-0.9566496546823152,2.815839207807166,-0.7566873129903682,1.0863641250673064,0.17308099374183694,0.7010489178643539,-1.5587143285917335,-2.7101428445394027,2.4368523501341475,-2.1160687141210452,2.104547132529742,0.9869797579573664,-2.1441726544094486,-0.06568691297989632,0.140625
-0.10991083206289666,0.37209633954102395,2.7265367473013535,-1.1212120407926462,0.23599748411418417,1.274559732633554,-2.2930112785035597,-3.2276857956458964,2.071451815437793,0.13500366927945673,0.6060131495960543,-0.4128450318713734,-0.6447997370913988,0.38230048174799636,0.1484375
1.1967187736552407,-2.791981366341958,2.983816541431279,-1.317378812237856,0.2102444559860195,0.6515835774649733,-2.5670428655129083,0.15618148281119426,1.160737764589364,0.9868926128897227,-0.7283650543061518,-0.8761319083880537,0.7870707567636137,0.1435869636393357,0.15625
1.5097236532287523,-3.412482527851953,1.8815087531979782,-0.987872596740544,0.14510632486136069,-0.08458893690833534,-1.991369615163074,2.4638907425424876,0.1898747969302616,0.8936112976530686,-1.3228464196918932,-0.649863215959579,1.4878064201395889,-0.12387413992282771,0.1640625
0.6733869688079955,-1.666811986994119,2.3491880556288938,-2.577256357869725,0.04126430617302238,-0.4513531254061527,0.20289609343525758,2.0378465856253047,-0.1491959852971808,1.6792035903253044,-2.7589441141551148,-0.8134362523548716,1.2489293486792132,0.1840178844097169,0.171875
-0.7161449188251013,1.5092401035128282,1.8293102481886987,-3.8148833243086373,-0.08153372844826463,-0.8466810192304913,3.343772208568765,0.6935324556625068,-0.1746152972536429,3.129298870539261,-4.533912046412713,-1.3899754957958452,0.35324013247477304,0.6988506185791089,0.1796875
-1.7024515164386718,4.427052512004232,-1.4065002984564694,-1.8812618747224248,-0.09373824263648523,-1.0078856489610557,4.3889274128409514,-0.7500378440219676,-0.7284694631841837,3.3419040935065287,-4.196411446285417,-1.465682294374302,0.2959771280915675,0.7786325150949186,0.1875
-1.2884343124439714,4.222381333553157,-3.3234561707672152,1.1216994073826372,0.09877107885627501,-0.31497124393086545,1.2775127458003421,-1.9411081361205225,-0.952439231392096,1.963899822120243,-1.5626025700737451,-0.977480789350784,1.2651362527928194,0.41248442168769334,0.1953125
0.17736974434916852,0.7419759889735299,-1.718210910434805,2.2701937231824267,0.27037498679256833,0.6686107018095306,-2.9843588005563584,-1.5505021410934767,0.07116725573480813,0.24749531308816203,1.4967823998856393,-0.5165077225757004,0.8784655592674188,-0.05130514181175082,0.203125
0.998551208084545,-2.337534348044851,-0.4551402407287197,2.5004161904242856,0.05192879890576308,0.7452064483932102,-3.1273058177798814,0.4111958535357332,0.4598065214781665,-1.4929025879221798,4.011162987210605,0.2698425220122727,-1.5408170899991815,-0.4936325913907295,0.2109375
0.515855006422315,-2.5761368914000466,-1.5948100900848279,2.8507349408393363,-0.4084606496172273,-0.11573644460145978,0.7107349937348588,1.9868154390240778,-1.1902462137579257,-3.44391660065327,4.905564488905163,1.8542161936593533,-2.6380573797578197,-0.8551706674019409,0.21875
-0.1423756210297949,-1.0948832714583248,-1.6739196723830743,1.5473040224508554,-0.45457100770766656,-0.7754222722239291,2.7103471426335055,1.911249103571999,-2.0570086681373816,-4.207077050619529,2.408140128849091,2.965574843590203,-0.3060945197944915,-0.82850091727662,0.2265625
-0.30183263313253034,0.6417795388253371,0.9601580111069764,-1.4911211615105109,0.04165450993650649,-0.42804794809490004,0.426055643850023,0.2509491916508576,0.1305533179370561,-2.3776199675424134,-1.6413891134822314,1.9818490266435271,2.0496112585440933,-0.24124864843699917,0.234375
-0.47559338532994094,1.7163549195669574,3.0605363369846446,-2.8080019235304974,0.3099984596619715,0.6114832577703977,-1.6277442271824523,-2.1782766021234936,2.1570907697577106,0.5814067414329424,-1.7021578783771876,-0.34590731206732644,0.2306236782640489,0.46738651031753875,0.2421875
-0.43317096450560766,0.21550981351142015,2.6352018600188742,-0.9079333822996775,-0.10818976172821955,1.3271017330704808,-0.18435041210854974,-2.99258415357709,0.7420511920197362,1.915848790839231,2.9685656345117164,-1.7597184827881998,-4.032801190717067,0.6099066702712684,0.25
0.6571849918002919,-3.8387997135731804,1.182354248684084,1.4872623303545454,-0.5476920690712055,0.9919982212445049,1.560166708611976,-0.3988314971121254,-1.5188959113464053,1.238469887276271,5.4703471318369905,-1.4787629416937893,-4.915965186245169,0.10990606102653717,0.2578125
1.706291602922206,-5.414332062997444,-0.4073081835189621,2.092769690131337,-0.3052609281992409,0.03429212868067473,0.5995970541549334,2.377205246521602,-0.9984667284078889,0.3057694172273397,1.6153909295386317,-0.5379543359607564,-0.7435631740763641,-0.32156831176385,0.265625
0.5795724782983533,-0.39491315262185717,-2.064459466315713,1.2912096882890338,0.2638723907939898,-0.3799262416441896,-0.880740152142923,0.4671433501042309,0.8839260199462529,0.14870732477753795,-3.213407773366982,0.06765048341171273,3.317580754045573,-0.0834913701651904,0.2734375
-1.849170710606746,6.581997347747572,-2.107102850658353,-0.29995621160246727,0.4755841953752243,-0.013767912737541249,-0.8882355439294546,-3.7619580427766786,1.0848254116518952,0.32834665894728476,-3.101181413254979,0.20705725145658113,2.8995453343675495,0.44343202679859584,0.28125
-2.1411257383511337,7.024696234641312,0.01970508153326617,-2.1249379596355595,0.36883448616351355,0.011003310233112894,-1.2038763648851627,-2.907202090260059,-0.0993364199576043,0.25332726482533696,-0.9243257377460928,0.2239047367625907,1.110621948756656,0.3863480995291341,0.2890625
0.26301193669142076,0.9294801010757446,1.203911871987334,-2.4285539364689477,0.31649973510091106,-0.8608391165375631,-2.469404746114853,3.077054046456113,-0.939808559630469,-0.05031175916424744,-1.9046211494656642,0.40965763058956794,2.7449627925135887,-0.2922286953369274,0.296875
1.9430439781600726,-3.4441981110303663,-0.5308355887919282,-0.4400670372903735,0.2592733570894077,-1.470616120114351,-2.037155987298834,5.916553554836863,-1.0108185157730623,-0.2208163107222184,-4.038979365323534,0.5703795199007601,5.18156030824832,-0.6768188055377108,0.3046875
1.035303700893662,-2.508287709012108,-2.2175694716222973,1.556815961227897,-0.0319384199051927,-0.8550838547045315,1.0155831629639982,2.47535168374247,-0.16858180902330822,-0.14614092003176282,-2.7202123085314525,0.3197694545599932,2.5501980599485563,-0.3040390121418742,0.3125
-0.30459649862208654,-1.0435361917751933,-0.8352855390958258,1.0866779474187065,-0.40201679316311634,0.060229624449020816,3.9807058140650198,-0.9446960313689449,1.4702429371609278,0.009580032660569815,0.25580634377091116,-0.16388765110858156,-3.396645279047165,0.22884871167059953,0.3203125
-0.3429574561048226,-1.5438153151132399,1.8357988634579292,-1.1492886650491667,-0.47843062923162644,0.16530511981479826,4.455028702944564,-0.5371490822674122,2.307777048522894,0.5974533828437308,0.2755789890917355,-0.5998478898610632,-5.421349021907601,0.4371435952914128,0.328125
-0.29396141441200113,-0.2952774883084223,2.5042975115781485,-2.457590889603241,-0.15780658535424577,0.11661551648833973,2.3534340497536514,-0.6212423460680176,1.3023067023708754,2.1189102879797383,-1.568980780191235,-1.3259282178162692,-2.295118802298586,0.6201847543087725,0.3359375
-0.8465048561896933,2.8749979141675204,1.2267310936993236,-1.4127123873673877,0.2386693748767827,0.8219595420362409,-0.9479179703499808,-3.5375957727053624,-0.04228474233229087,3.14333928881784,-0.8585600130581045,-2.0137467826607347,0.5339292208641029,0.8180530221118608,0.34375
-0.5144900893784935,2.1190494405112363,0.3754233306949556,0.8129653546446047,0.25974587653596326,1.4245013608191706,-3.094921724768815,-4.155584284805034,-0.45508974735031316,0.9374817142020992,2.6302949325861924,-0.9675153108375527,0.2760493186713985,0.3508541722980141,0.3515625
0.9240243189571598,-2.919566667400357,0.75534257748284,1.9369825328143266,-0.10210902904707,0.7811667429945679,-2.832644749470559,0.4861581846846265,-0.8423104255019268,-3.869818664948573,5.5591712437430285,1.9689350321298729,-1.0112842933585415,-0.83388079034456,0.359375
1.358818418822503,-4.349169532660527,0.6853049645268245,1.432153749446364,-0.27821014182797404,-0.3564629473156901,-2.0905245100540872,4.778495813167889,-1.2679633200436544,-6.349137627814593,5.907956685525584,3.7358163680651337,-1.6523424817882209,-1.5546850777019496,0.3671875
0.07313029212623752,0.631870259031259,-1.1405828370890265,0.946765909389557,0.056625574138961826,-0.6075114243319143,-2.52030291391619,3.306097105634916,-0.3245901446372864,-3.66609639165596,3.5230919533378264,2.141883201977277,-1.4259502211640367,-0.9956095533312297,0.375
-1.0209728105657532,4.513413180774238,-2.8994383903934997,1.0557588371547484,0.35225042773466864,-0.1983498307604042,-1.6677032955352642,-0.9418884024626969,0.7992567717126167,0.9111764201603542,-0.5476426185170653,-0.6384977024475337,0.1583945076029335,0.12327620759876166,0.3828125
-0.7371255679123903,2.138586393349648,-1.8600160479887289,0.2385155405664696,0.030252338617256853,-0.14659658052618943,2.3715186272785393,-2.3144882674261416,-0.7710288394901155,3.1797581623502995,-3.4863784345138957,-1.6369049384267025,2.275630245696806,0.7190200663704872,0.390625
-0.08469410885033006,-1.6556368017497167,0.6552350250797302,-1.2648005444221866,-0.46861343664288396,-0.34839008552837875,5.620755400200059,-0.950212467626245,-3.504532418265311,3.280368988148622,-3.174548520711834,-1.3749502960224311,2.5653518538952005,0.7063202681577672,0.3984375
0.06651169084087066,-1.6467198450789338,0.6908538124428503,-0.6881813777302848,-0.3870253477101353,-0.051677092945134416,3.807312516051037,-0.6157329381571344,-2.751921848701168,2.873128429358723,-1.1284492087426723,-1.4974742854768472,0.7924526007954242,0.538085493869224,0.40625
0.1457207862089627,-0.16820280575531418,-1.4467969193254242,1.8870714447503492,0.07061122074262752,0.5594809572348709,-0.35977799954686956,-1.6897781999949282,1.1958238747827632,1.389045738470566,0.11839252338032526,-1.2430283467322574,-0.7377088040766245,0.2797942883503419,0.4140625
0.42790463998672607,-0.6348053659983736,-1.537120141043741,2.385621587458344,0.2065597928331176,0.5356508809412314,-1.809029002050856,-1.1248818979532127,3.1525515025565527,-1.387151616417727,0.262223619433092,0.41373860730457984,-0.7247716029019463,-0.165905440864914,0.421875
0.3731146646806791,-0.9039167294596261,0.7603573221458476,-0.5697582502152765,0.0776682331743588,-0.34304592115837396,-0.8913791624014122,1.6032375490377457,1.4141513671612378,-2.7817106348597282,-0.4622100992891147,1.8395666535281057,0.37036352052439786,-0.48606486099617696,0.4296875
-0.27594022968144716,1.5793347949148087,1.5538572081572395,-3.131867714491054,0.17089277633399227,-1.0575912941713521,-0.6677115382752635,2.8312824967606214,-0.35400115011610206,-0.9055056449871592,-2.170150558624697,1.0899725269629499,1.5970761085544554,-0.2596114864806109,0.4375
-0.8022988844079599,3.6832252288777934,0.4826252347539582,-2.5940726180898155,0.35579168254666255,-0.6094610524599436,-1.0300751642764836,0.478725043250502,0.468730142440597,1.769612298164044,-3.1552900386427893,-0.7707705161221269,1.39918878454277,0.32386133381816795,0.4453125
-0.3465047240405758,1.563423772527153,0.8755500367092702,-0.9605969408446173,0.2731345954548459,0.5007391677711165,-1.1282337959095798,-1.9245616247529667,2.4472055065019185,1.5638068256320936,-1.5885941799243957,-1.1686955813619417,-0.6104278540373196,0.5028403449400295,0.453125
0.7510058797294891,-2.0050502554895235,2.354374407812303,-0.47659752350470763,0.16392715009321784,0.7756936233429035,-2.4091999036193084,-0.3850090072361598,2.9586453471033276,-1.2473317917349225,0.7695988895016997,0.333263697205509,-1.4922068227908538,-0.09329864686365008,0.4609375
1.0447993456257039,-1.8431509362492724,1.4702067116519788,-0.4765681134937023,0.22605080880680406,-0.14846230735000973,-3.840323000569123,2.9554543546929617,0.7164887162048688,-2.973320075541644,1.4089708016277163,1.7110265896879022,0.5350937272786171,-0.7890337611842101,0.46875
0.03472241831244889,0.4665769816576566,-1.0635388943108999,0.15175510874196668,-0.05343169211659547,-0.8846802227067426,-0.6096247771247967,2.9523980683269033,-3.0221674771279936,-1.501455034361728,1.405537722115093,1.2526216754600863,1.5065713726268883,-0.6370758996383356,0.4765625
-0.7416008488945127,-0.7460820429261692,-1.3886692617323408,1.1001225195451976,-0.800277106659567,-0.2937087238404467,6.449424588066619,-0.6639634238285063,-4.49406289624079,1.2258235150381074,2.2017274539576066,-0.4584756080975915,-1.6308871064034554,0.24052129545968184,0.484375
0.0006314925130124241,-4.506870981472836,0.45160571491895424,1.6935348292056545,-1.0100790356952782,0.9103741182723643,8.086694622383776,-3.350414166617393,-1.6239044591962675,2.1003922245912703,2.107634912385815,-1.4979751503893082,-4.114371514902101,0.7539994769745467,0.4921875
1.0049065703225983,-3.979468150584773,0.8267849100135711,1.6327063282134768,-0.14012779723594412,1.2154282215544563,0.7768637616260485,-2.5513945312076847,2.2682041886731055,0.9040732097625835,0.13311719296045466,-1.0913271266228095,-1.3914220878855281,0.39415841085650744,0.5
0.416262074433704,1.712067936797187,-1.41519935390784,1.0664798833070455,0.7061617489753695,0.24630620300943662,-5.426694358463595,-0.1999241614032852,2.812120520396634,-0.014874873691771458,-1.537633651477734,-0.30856104506591675,2.0822963525573246,-0.1350467910541048,0.5078125
-1.0984944885212873,5.673186304836116,-3.6430486578371464,0.5647545662322324,0.49698155576187336,-0.9668677237213111,-2.510588130637717,1.152518927688146,0.569918898164965,0.22505848984815854,-1.5063494838506883,0.012147661073160496,1.21877633359383,-0.18413711125960913,0.515625
-1.4263339640726147,4.2410597659073535,-3.106259850379602,0.13643638818188297,-0.07941289468787503,-1.2834292592874297,2.207086249369776,1.3755899479110878,-1.3646548579372524,-0.13708078646081207,-0.6740316749285401,0.5285432927633031,-0.28483484785103913,-0.13068137211866931,0.5234375
-0.3062754297880255,1.069340277370106,0.19329269803623023,-0.9167516999045113,-0.012303573212634417,-0.5719216609046571,-0.320803200371653,1.4178461294458131,-2.1231149874998705,-1.5745763445150232,0.5739935169047222,1.3760609407235038,1.5872783919954356,-0.39290821716290303,0.53125
0.6568031248992177,-0.6159276691614559,3.57821942809132,-2.1563966409385933,0.31826568725025084,0.4927729633987336,-4.9518562971152145,0.8237688153464745,-1.6004257800483885,-1.467593832069316,1.9514494808642373,0.9339947159030103,2.439401268886618,-0.4057188218145203,0.5390625
0.5941052081803759,-1.6843313325875064,4.428729902657869,-2.007900558409758,0.1334346076227083,1.3157109693217306,-2.8553118589836575,-1.523971525171474,0.692309363873248,1.2150847049736586,1.8760927077432616,-1.2250866667948068,-1.302001005010424,0.3386558822771516,0.546875
0.06368856938148075,-2.4490078281922565,2.674567549550065,-0.39017171170197723,-0.33003876803660115,1.4896062810467052,2.859952116841061,-3.987171699582393,2.2354182105966425,3.001224874667047,0.5993956458395027,-2.4468624931635845,-4.326244249583232,1.001790442506914,0.5546875
-0.3063428027025028,-1.5887360651873952,-0.3505688495437494,1.2598004195230743,-0.5133049659724572,0.5813684128610823,4.665834713414842,-2.7640417837623485,-0.3365736968383082,1.2250883813052396,0.740091893184373,-0.8687181494240996,-2.269590801476054,0.524482443299385,0.5625
-0.2911754166361904,-0.008123693920951055,-3.6478533358640495,2.4789342011532707,-0.42985603875707423,-0.9942428991423737,3.0687422894861687,1.9013354278726027,-3.8780102735452826,-1.3935527958392002,1.83245352743742,1.2355960212631087,0.6713808373243361,-0.5440411352146572,0.5703125
0.2718309702389585,-0.00395055957488578,-5.288242793250542,3.25858516174016,-0.14660728584810695,-1.6032288833539916,1.0895834091618428,4.345829818755625,-2.1526934758875447,-1.5229766858908527,0.3426217606477044,1.1867055441911436,1.0753591172387198,-0.8504985720577263,0.578125
0.9634108276499729,-0.7247392938241424,-3.1153632599448544,2.2616626866060283,0.41184425698693883,-0.5608779086298352,-2.20102386744191,1.7183868776192326,2.889155229548474,-0.6035926750580946,-3.3435706911598686,0.2820843810800059,2.364359173306275,-0.3403196114167006,0.5859375
0.6286682182411114,0.8209950446411733,1.0342873531468098,-1.0103981670648543,0.8391973371931672,0.4172164198668556,-5.199263243638982,-1.6175310771861942,3.801744213290203,-1.0374789618634082,-5.08105935178075,0.800352995342337,5.566577384024267,0.037496480537333086,0.59375
-0.8739754635042895,4.071255785894024,2.9988681691532273,-4.19799855312702,0.6340186951667207,-0.05345826925159073,-3.221860836823463,-1.6932628349433811,1.1471728797775613,-1.4749366311877448,-4.225588968162372,1.631030656330271,5.1264812642747035,0.13287197214583155,0.6015625
-1.6254062515704708,4.247050039792485,3.187574698578799,-5.11410777331311,0.1336516500522071,-0.6202176289879562,1.385235863133997,-0.37569159087911286,1.8265112707955615,-0.4298913725378463,-3.3475952637679725,0.870800228288807,-0.519202885202211,0.38110674758189994,0.609375
-0.06652704716007299,-1.0361493132060668,4.543864588974206,-4.016628114291042,-0.05518701090780047,0.07734711217232376,1.5972664736254065,0.4173336052165914,4.829699525860666,0.35453043387554023,-2.311797617856986,-0.3872542055270271,-4.409041832007351,0.46136545669409584,0.6171875
2.2292830946815596,-7.0232292217859955,4.544509399398944,-1.3395932112501034,-0.10056568271123859,0.6835141611930776,-1.1045849534296623,2.037665809559815,2.7272207478341883,0.15031439793229934,0.15626121846600083,-0.664865803114662,-2.2496242049726103,-0.047251337586126485,0.625
2.2398354310526702,-6.68868535495958,-0.8062940927976022,2.5762710421771224,-0.38876207788971956,-0.16771942093381229,0.4449150800010107,3.6957903994988945,-3.458783865445929,1.1939709553288598,2.273711757613025,-1.0281224129146618,0.5640709393534026,-0.44923225277075296,0.6328125
-0.3183409062843215,0.09408075940035993,-6.9140141413344285,5.008811841006972,-0.6544058657368345,-1.0807020912227052,4.974657039976296,2.161930813991555,-5.493794729096003,3.2577990177890124,2.9694300136935867,-2.0896448896330937,-1.8456485685092754,-0.06667303117379317,0.640625
-2.560961956538847,5.902443446905109,-6.11579694979562,3.5693420062968335,-0.562933071031341,-0.40953906499151105,5.055991229184592,-1.6064054865054798,-3.108028928682948,2.9436113255972627,4.945950328890154,-2.120742734638579,-6.339566871659067,0.41075079310783996,0.6484375
-2.311128648711951,5.291862987396142,-0.6445235712904017,0.9840157492614271,-0.32558770341873744,1.0778213990744034,0.3470643845866633,-3.6911871484109375,-3.214678859980688,0.5763809486050315,8.4976747486498,-0.866121338090028,-5.967162394537851,0.24627443157450574,0.65625
-0.46558974222368515,0.8787436548579226,1.6485489438266154,1.1884416028711153,-0.12056990337747793,1.9426365668351029,-3.2988214140790943,-4.03439170786371,-5.238106210987132,0.01579070268899114,8.590986349829164,-0.48302031625298536,-0.624484465082478,-0.004796522068262979,0.6640625
0.9335424724324728,-2.021921994356858,0.5713676033206071,2.3402315095636657,0.1999813133365976,1.8554268857087286,-3.9214987900720777,-4.086535002227671,-2.2066261606939372,0.552127281007706,2.9104502843099658,-0.7264723052634801,3.4733228147933293,0.12035656326218433,0.671875
1.2035872014106082,-2.295555490659337,1.2861411320470773,0.1796144178880911,0.5155620623766388,0.751781414450896,-3.271021540991798,-1.8372788531638173,4.5243361386464205,-1.9853099497348359,-3.9017851306943867,1.1674791151144546,3.7023099966214357,-0.04250261069390895,0.6796875
0.7884207425156924,-1.575013112053821,3.5559716120935865,-4.138748532072905,0.46617670097568165,-1.1135699758406838,-1.2821946725170987,2.8653714704080464,6.282515132654249,-5.954006534586714,-7.506690790366153,4.465385783962884,3.809183602705085,-0.6619887060965843,0.6875
0.03808382460882391,-0.2421779097316208,3.375552273632255,-5.875656543969095,0.15543290662333498,-2.304144250900882,2.0923210935116257,4.730968723813857,2.338813092935963,-5.62294168122813,-8.498246318635355,5.029829648542971,5.499319936580459,-0.7167072743278604,0.6953125
-0.6192892632000778,1.3950169787156343,0.5372353810979605,-3.6016054524593093,0.019946800811059665,-1.8326620736892238,3.9679672808550888,1.9152432821651328,0.6397598845574141,-1.4893911547978074,-7.877897356626756,2.2225829132266703,4.719295453416267,0.0036176856532734057,0.703125
-0.413913753719714,1.6124433237955007,-2.736285760340505,0.6296093310552794,0.14054817637208056,-0.7567090302144561,2.1120766108421143,-0.019960719493244003,3.312877435884188,1.2233326938022366,-4.857097997843231,-0.6230115546604259,0.034802619946320716,0.3436689788055668,0.7109375
0.5924987813551853,0.2716829050523896,-5.217442338553941,4.424834863904426,0.2755142975530239,-0.1481150164259608,-1.8672190258945671,1.3660099719550145,3.6972693370277736,2.4291108697035395,-0.028687954255279115,-2.434769850063995,-3.369125534720197,0.013407286759808262,0.71875
1.0182162909558226,-0.2582930544192956,-4.682542741025162,5.194684953997525,0.23546451459809595,0.6345900027711311,-4.611372213387526,1.2066370316746937,-1.3267238798710717,5.093308981487929,4.851248693813693,-4.44438250449728,-2.9636787656264127,0.05639447238306414,0.7265625
0.11094168755937688,0.5730401766828598,0.342151515862234,1.7670064554803906,-0.07049720760472364,1.7621657391486902,-3.9749527438482515,-1.93967689860376,-6.3004159126602834,6.320228433912757,8.717740366076793,-4.9683924319894555,-2.8938481306027795,0.5544459521488759,0.734375
-0.8607360106408425,0.576095404199294,5.124648752978253,-2.454601688500433,-0.44835980963525174,1.601787874218605,-0.6486811076902564,-2.531635086835434,-5.948031265983231,1.692801296170843,8.785796727980632,-1.410117038296327,-3.8265337352884834,0.34584043878895154,0.7421875
-0.5519983813918501,-0.40956369167624146,3.5108538482365863,-2.9796876003011383,-0.36684852443410315,-0.3608846259760379,1.9327313931549666,1.053659223064754,-1.6131216956082626,-4.303726904215924,1.8973018820175276,3.2330714944266794,-0.5221020093742519,-0.520828118530659,0.75
0.329578770301382,-0.3717700034226336,-1.5972817326423494,-0.8026058237597392,0.18251583437233204,-1.7728562075953518,1.8678067729562804,2.8155978414467473,2.171985815266435,-3.332789893447161,-7.394222759345169,3.065168522917513,5.350179568899995,-0.5125683886843233,0.7578125
0.4147557332201855,-0.3347567909102314,-1.9508185447023163,-0.05485831838732696,0.2722122836928578,-0.7158312994019059,2.264514766590621,-0.5475136676095635,2.878954510193514,3.0535551727646597,-8.798747661588381,-1.4440702554268428,4.267742670874955,0.6914390488452045,0.765625
-0.0799845952208705,-2.729435156283976,2.3990070165284116,-0.7148621479901203,-0.5062041430326323,1.255888886037116,5.485811314464738,-4.369231715463598,1.4351595665033259,4.852054089283663,-1.2013518342127132,-3.378274116510762,-3.8374906062706255,1.383985361369068,0.7734375
-0.1664608093738331,-4.827635853509225,3.578527350851913,0.12464007334304368,-1.0294623696787624,1.4187767029105132,6.671129808028385,-3.4410063946670553,0.6077483397063389,-1.6082861805037951,4.918081139437933,0.5784314040840774,-7.183559278964198,0.35701813344876177,0.78125
0.02902283533724039,-2.0493865683521375,-0.25905314673231544,1.738552047255474,-0.38107970429246457,-0.21382170717034527,1.1042672176102855,1.1954134630592252,1.206461476074865,-8.589718092364274,4.038381154498844,5.445154862972047,-1.9436288190481084,-1.3166806722607303,0.7890625
-0.21557095991256703,3.165332036332982,-2.4592796814323212,0.9845980009358073,0.5069756472088349,-1.2679201538152904,-5.536945606737391,4.243592252975151,0.7268675964120398,-7.78006275308574,1.8930506401040983,5.140088229592096,2.3226670010059878,-1.716965194821962,0.796875
-0.6958824130768027,4.548543845161819,-0.1182986986359397,-1.4379752789625224,0.47260540597070533,-0.5528417198664569,-5.038256895347423,2.35614452867512,-1.6750136923926868,-0.5443451271146705,2.043012326063075,0.3825822718193039,0.7433134079476454,-0.4807289984797043,0.8046875
-0.6021732227487602,2.2313147669584126,1.5116665247212286,-1.7534259459359829,0.09016487014270701,0.6068534806778978,-0.8042114256893429,-1.7973088224521658,-2.4277054220676915,5.080850558893275,0.6919219138278444,-3.311537946069201,-0.3633798438002362,0.8457886042779916,0.8125
0.07726756282364497,1.182441325360427,-0.8922633786018563,0.48955905451783127,0.3291694380580416,0.6024813664656958,-1.3909870650483964,-2.498793347836841,-0.25875163744336055,4.789658911993304,-2.4114807728841483,-3.1394481098231664,2.2998402495545687,0.8206142956500683,0.8203125
0.44803443662660775,2.215036573736549,-3.3317790389813413,1.7309344451209758,0.6790747927026282,-0.33587382074462657,-4.693367926638052,0.8702721513720225,0.25723239910489065,2.060965155105921,-2.5254379010756036,-1.3705639397609841,4.048645297667898,-0.052160573978796164,0.828125
0.13071886736465155,2.187141558333599,-2.2942645942837108,0.538766573429544,0.36952248824083384,-0.7568366816061726,-3.2190773311298218,2.5222594836283756,-2.276247517455008,1.618430726491517,-0.3664947679496626,-0.9148841735384876,2.7135977862690996,-0.25326801140956845,0.8359375
0.04988037892271887,-0.0019829995608858543,-0.2879840717383401,0.0011502124274068402,-0.039468946445616576,0.024071510386657367,0.5321474559328738,-0.3173795009471443,-1.8806426239689198,2.4573792981396285,-0.45556900735640005,-1.4666300231544107,1.0602768492606918,0.3214054038689847,0.84375
0.8725787368219942,-2.7625849512654193,-0.2925598094837601,2.0048589036426088,0.0622080684708366,1.0153948335609149,-0.1273111004329872,-2.5999320566303985,2.973668404397391,0.7083183399780796,-1.1451687236040657,-0.8925614358869804,-0.16751824191668388,0.3475957512901592,0.8515625
1.340615357061344,-4.0076605886479415,-0.8194047587715748,3.1429766489490167,0.041912716829506654,0.7305369647341428,-1.463228372502315,-0.3225156215417932,4.287340172377193,-3.1106071176910253,1.0624384654454253,1.2924052373277586,-1.7052149394757603,-0.47012170495671385,0.859375
0.13734049736864684,-2.585481298393168,0.4669252150580163,0.26255826434073265,-0.5492186408076798,-0.618979085495236,3.056182359121979,2.3975625126509894,-0.8160133910694065,-4.740717389381134,2.658569111415966,3.1849645342099757,-2.0290485394711117,-0.8233705819136281,0.8671875
-1.281728145354554,-0.573336725779903,2.733358381914936,-3.4208209893180364,-0.9210276139893313,-1.0487479296187119,8.283207271405717,0.773922877076675,-3.46659758459987,-2.8415354351604405,0.12839629230281013,2.828788726212062,-1.095209097794578,-0.09703370935978695,0.875
-0.7636069578685818,-1.3436603811063759,3.742695818091566,-3.297253123281588,-0.5686170714140582,0.10538141746306078,6.534759064995209,-2.2402839912721704,0.7889273851019584,-0.05404040963447019,-2.343958364467863,0.5342302520396858,-1.7616506312373623,0.6675314875029661,0.8828125
0.5265693359661628,-2.8642977341951275,2.6946027227350977,-1.1701351283567114,-0.13577266597585058,0.7274848498207864,1.8643777167157674,-1.414944871139572,3.856742591892507,1.6477900658489297,-1.6679938732453998,-1.4291026592908616,-3.2740026287333888,0.6371561040224143,0.890625
0.11782898491691512,-0.09758161054202384,0.5747217028480804,-1.370133022985376,0.00528446265248181,-0.48264233331556083,0.7217593765858268,1.718045789100498,0.766147370751106,2.165169811113348,-1.6875822853367117,-1.3861495584269143,-1.305877173701793,0.2596988675583495,0.8984375
-1.0222480526916158,4.500214235726339,-0.8561618834450673,-2.398118294974999,0.2763248545513105,-1.3357533903268046,-0.2942030643560729,1.920862062844027,-2.0315333726826243,1.399216248512038,-3.225296194436708,-0.1623655564559484,3.1698778057350205,0.06105649707918454,0.90625
-0.3747607222413402,3.7595352709838497,-1.1448108384808087,-0.06829836187799256,0.629797878520342,0.01618557914382097,-4.647361026127798,-0.7789134793877986,-0.5022669478949675,0.290992814255232,-1.2120204232189642,-0.02540250471124407,4.124613262424071,-0.06382566002019754,0.9140625
1.1700564501115716,-0.8358851730331556,-1.8695921365964934,3.9195043875868225,0.4995627778728135,1.434699216062389,-6.696398581829964,-1.5750024145235315,0.351424258442105,1.0011429278689592,3.6113075335811424,-1.5739143064351209,0.7320402047517867,-0.16823251073024365,0.921875
0.9847173973760343,-1.3607735141726147,-3.164269154706544,4.161464406207606,0.06203226355528143,0.5534159922344849,-3.070191936836686,0.881727058330908,-1.591249705013449,2.489993451875063,4.308745521561831,-2.420488863650623,-1.6775381117051509,-0.1594232290375938,0.9296875
-0.6318308653693963,2.539772693540456,-2.1297527552141355,0.32680072303958446,-0.018889086384516966,-0.8926590174740497,0.005094899500340839,2.35282141386798,-1.7482434381035823,0.5977511769502043,1.2316978784573984,-0.3128181800460293,-1.0829945880886662,-0.2367441912297607,0.9375
-1.5932905736506902,4.592992651810011,1.5054322116704613,-2.5150950469289417,0.16139913158441727,-0.3176595242379477,-1.307320129743781,-0.21774578678290518,0.5482798288757073,-4.082699265613497,1.3790215975421751,2.913576306615655,-0.6281909199337774,-0.4361708867444465,0.9453125
-1.4060307784155424,3.0613526663584527,2.702427493810064,-1.1469554158462543,0.07761712263889202,1.1796860287347037,-2.155571235999345,-3.8917811584613347,0.9373050268193097,-5.242504560360053,4.420606322732168,3.23455485149917,-1.4337422037263312,-0.3363738362085272,0.953125
-0.4181972998304211,-0.026292282687904758,-0.6497661352099614,2.2766757965292856,-0.19517201176684448,1.1419499329841833,0.4384349817724391,-3.636633939675315,-0.40858754857128005,-1.269205575265164,3.6004592909990802,0.4778015950271645,-1.380956380504451,0.04588899712500254,0.9609375
1.2252549300809958,-4.1605257646889635,-2.9541162048951106,3.4400782933079546,-0.31130902953182404,-0.1439148002763507,2.7989345747960286,0.854445506467204,0.11405316870721442,1.848759997672375,-0.9418698577761442,-1.4240924444529255,-0.4421025515845633,0.09188642581725118,0.96875
2.184384082729125,-6.890776706655682,-0.26008133595065247,0.9322782685863379,-0.31997930866472357,-0.8000122572580166,2.764213851951326,4.283239228421064,1.111663326049033,1.1863733189105423,-2.9435217340922866,-0.8342874846471696,-0.2614480426362953,-0.15399806658391077,0.9765625
1.1509646221534249,-4.490969980781128,3.0395913811649278,-2.216500831407436,-0.30566927173113195,-0.39905542338440725,2.3575571708544896,2.4005560392694645,-0.7428777693564388,0.629142325314458,-1.9048798591698113,-0.12421276440337557,0.5644255612294115,0.04207460011109562,0.984375
-0.2578738899184458,-0.092877580434872,2.487962444458918,-2.757394158713712,-0.10406163301703354,0.007774133882603697,2.1296819991520333,-1.6264632980944502,-2.8946227052799642,1.5915998504409832,-2.8886750756829227,-0.2617751182908826,4.150742821286632,0.5166617402851517,0.9921875
0.11745241525833497,0.34551821654260884,0.31273736303141286,-1.654885072743547,0.2582782557696144,-0.4721505583696804,0.7575710798355639,-1.1130553798536387,-0.963491343124762,0.8660341866008175,-6.474608315283796,0.3689809387163749,7.313994944071419,0.3394976623284001,1.0
0.8937086219796175,-0.5153173352808839,-0.6342532269342,-1.4186817751618743,0.4914098113689018,-1.4291279299998911,-1.1657491009127499,3.439688695396405,3.224370726526099,-0.8435302240621022,-7.521758599797471,1.0874251142895748,4.669600590943788,-0.27396361670829666,1.0078125
-0.17405372915982864,2.637003632066374,-1.0952569718511727,-1.2903855157912205,0.44829079162847035,-1.2055857732173214,-2.023282470481958,3.8405691933178807,4.530403841994096,0.5932233408825209,-3.02015370150779,-0.5723796049292024,-2.5311776515041124,-0.13379476640168494,1.015625
-1.7126004638251127,5.401932793597994,-0.9464467637796145,0.3877504683582919,0.14743565816184973,0.8879032036790706,-1.3733027759682765,-2.7422826145912023,1.9761172456452036,3.6364330129873768,3.768726217284519,-3.173607490810372,-6.998034756303745,0.7396976049782722,1.0234375
-1.4351092243961205,2.1196578598436284,0.7029499757222885,1.925218693324181,-0.2979501457724763,2.603015708677846,0.6259521847868932,-7.946939006848216,-1.3374958101842205,3.049662269862739,6.883615773398683,-2.7870381198189342,-5.144847925845382,1.035935129394415,1.03125
-0.43414964988596655,-1.4775106299396543,0.9464807681698784,1.4064925698126631,-0.5281073109487728,1.3614792448729087,2.797706564736654,-4.4924069252974785,-2.774308507261758,-0.7957786392343897,4.198997714430838,0.42467451440329235,-0.8808923188342823,0.24514462265579146,1.0390625
-0.5577236100901858,0.9612239526034334,-2.3710104378394417,0.49936463944428383,-0.29044005166290887,-1.559836270104693,2.6271353379952918,3.2937024327182605,-1.9544451751122671,-3.705101658110848,0.2697707173137968,2.9380739942514214,0.6815659044998835,-0.8310008343152824,1.046875
-0.7011289960024285,3.2662237118912403,-4.132346286519575,0.7503660611722976,0.026550999822975763,-2.4285067930591664,-0.21547042774696687,6.64202722285871,-0.3402542770649567,-4.760256812473036,0.7582889184371338,3.394879740504713,-0.8886872456470463,-1.3697320394307455,1.0546875
0.5401406297190261,-1.3608074583751442,0.45279633558328997,0.5611968232447683,-0.05526786159370617,-0.2823125789430708,-2.4475086724844286,3.3568016587639526,0.007974853604378494,-4.422083848308762,4.358063466553978,2.5041038838368186,-2.144069974887833,-1.0700254591127643,1.0625
1.7014845316990335,-6.468354875024846,5.855151773412487,-0.660069651468763,-0.22858974641787466,2.0518173000775786,-2.2288645898241883,-2.154403049572761,-1.134129920808841,-1.5275322328172176,4.746517968691885,0.4528552166378191,-0.3141336011543495,-0.09480989176527026,1.0703125
1.071001608622169,-3.5315844904256175,3.9759449799758158,-0.7058905269185839,0.05306437852092472,1.9415248323466554,-1.7195891987886223,-4.368081887662578,-1.523609616576723,2.5097823068902994,0.45091292081337225,-1.775183860343725,2.924281800455833,0.696437214642906,1.078125
-0.3183926460360016,3.328861882162118,-2.4725466067887147,0.6471729695831133,0.5325328886630795,-0.05943145138672495,-2.3425452087667846,-1.291468008153831,0.3719813351054968,3.6263501880082165,-3.3561075961039424,-2.2467051734130665,3.058019058868972,0.5247167404724861,1.0859375
-0.6077541920450881,4.889245658222329,-4.418291359300126,0.8422000608107689,0.59633618187537,-1.283621526727296,-2.4511582038214783,2.617685381453397,3.0246336170069488,2.0158142035462285,-3.4657698140082633,-1.3884515110367384,-0.36479932440852225,-0.0035164823565343975,1.09375
0.2239446182005436,0.6514693793145454,-0.5504958035902376,-0.3377937459205183,0.3139083481896028,-0.3282774516350769,-1.2747798582017773,1.3760451406733627,4.015816185739694,1.4831907047738702,-2.5497004315275342,-1.2701476905178872,-1.94089407612886,0.18731602286789964,1.1015625
0.9421121024353797,-2.9795463966932423,2.4238908940214614,-0.6952841775894015,0.13782379468908004,1.0653997334850487,-0.11100135647479925,-2.779573581792621,2.786892178622935,2.0681847182733146,-3.194418211258871,-1.498020607109596,1.1299082997465122,0.7015283382251623,1.109375
0.6781471029813835,-2.353937443836937,1.3066292254772294,-0.49891177693881505,0.04739301472503567,0.5066926415279852,1.058010128263358,-2.4165912527183617,0.2075073567932214,1.1479136462913435,-3.894111409291708,-0.3946252008018245,4.1193671024149685,0.48554747917410274,1.1171875
-0.38289732497422135,0.4477790694054949,-0.32492676144669785,-1.5124347019137783,-0.22347333636677855,-1.2655635224181898,3.2628383517828237,1.9134367031443043,-2.631479802746118,-0.4752977810345518,-2.669823803740774,1.1423476749587294,2.852426373489533,-0.1326853890505506,1.125
-1.0120100923115174,1.1188032402900323,0.11021679850122953,-2.2753387706776724,-0.5621480409613285,-1.6403606107260265,5.213588711053055,3.104538081063886,-4.426654015042784,-0.8760442918821276,-0.16833164421519264,1.4593885556528017,0.22008686605507477,-0.2659502706309916,1.1328125
-0.33008437855732253,-1.6222807627414184,0.43666099663712793,-0.40267560376275435,-0.7007734572152577,-0.6107887345424932,4.914390074815572,1.1693946010762755,-4.346329245891089,-1.4765218920071126,2.0744718853241593,1.4584170417255478,-0.28967701059706163,-0.2747864157157204,1.140625
0.49975073509425455,-3.456405013294747,-1.001657126395616,1.990699739100976,-0.6141653058577174,-0.3940325601607029,3.182711415583118,1.7496123681886677,-2.9950927528472877,-3.178124786362757,3.21613471906462,2.169991444252039,-0.4551783479031135,-0.7136154620478606,1.1484375
-0.18266327118476497,-0.09154335171351816,-2.0916439047989814,1.4121883313126309,-0.3115579370895705,-0.9757123845023905,1.4170147733378655,3.2142533783004903,-1.0350101884754859,-3.106080275253334,2.751316384553546,1.9981888406914028,-2.1825681786129905,-0.8139528438675306,1.15625
-1.3592226333664306,4.775680703086495,-1.2591874138697896,-0.18101808871735972,0.2343850339578646,-0.1428878022985937,-1.4265063756599965,-0.2986050589648932,2.0385094422786927,-0.02587207548511748,1.2855588402083546,-0.26727289601722,-3.414115683253202,0.043226980770571515,1.1640625
-0.6605655286872342,3.866549617252411,-0.2727892756434021,1.4736402481781514,0.7321753289901276,2.1210346216170612,-5.609925768237944,-6.1085928726972645,5.527284155451033,2.4382518284132884,0.9693129039046615,-2.615794544566698,-2.690833096425273,0.8319340440130786,1.171875
1.2291936297223223,-1.3627326479407722,-0.20886199353768245,4.3157551521498,0.7604398575966551,3.1849452047389843,-7.838459900035341,-6.711864071220087,6.3339423685042355,1.8125917258283004,2.43495275018747,-2.7822576966867816,-1.7654152608012872,0.5971333813146125,1.1796875
1.2941145305299806,-2.2182508250158994,0.6382732253173052,2.344999317177626,0.42462446820761796,1.8091356702659547,-5.6294679204675635,-2.2671744259927906,3.2599004675713066,0.8405345627069445,2.6451884719630887,-1.6400456979429283,-1.6143686022448176,0.10888856753544018,1.1875
-0.5700394401662975,2.37749024812489,2.4138552537629425,-3.6372517693873614,0.16757743525726718,-0.4613434302781653,-0.9244166467962605,1.5328060103294017,-0.40627465864751844,2.0097607698962054,-0.9783065055608305,-1.0966816054540844,-0.708479122402535,0.27593409539201474,1.1953125
-1.2953327658190923,3.7114696179575737,2.5603173152438594,-6.239792310487938,-0.009249104815213662,-1.842131503344472,3.2102940813517464,2.9728272544225223,-1.8673793228200652,2.452561076570579,-5.548293451152499,-0.4293444084284754,1.866028444810926,0.45420674837382424,1.203125
0.016208221992379968,-1.3364937572969111,0.8990534745116959,-3.0982363670050455,-0.3491949088719506,-1.9274471283579553,5.281827763516737,3.4489493317153537,-2.5794982122579735,-1.2268219189167415,-5.561661635760744,2.0820325673100446,4.562492402700663,-0.21032553223033962,1.2109375
0.897458979097465,-4.681579278402985,-0.12276606524440115,0.6296218525260988,-0.5655758940059168,-1.0803195068619758,3.9500110281937846,2.6277374836317606,-3.702315598093929,-5.8223504464563165,-0.4766026413613013,4.631476403165172,4.786135980323323,-1.0647950814056846,1.21875
0.20348727784371667,-1.234731249349102,-0.9010527986849445,2.0455699257369524,-0.2129589734369714,0.03828532196436226,-0.6361938402584457,0.40860572921646204,-2.8635459794975224,-5.010025850256404,4.055425049515504,3.3303160966716194,1.7580302123298686,-0.9730397856587725,1.2265625
-0.27318561537415326,2.656701685890578,-3.095314083461045,3.1120082364568367,0.344619629626753,0.614015341993242,-4.076349239064505,-1.0512634433971892,0.5313322378833008,0.6973299018883041,3.411213609058974,-1.1342214993697792,-1.6130253966045576,-0.11899940985714019,1.234375
0.4508775029065382,0.6425476097595018,-3.652446485042728,3.305863410230573,0.3249004341368689,0.4281592468247124,-2.2474317443061826,-0.5856919355748482,2.190826510088993,4.270689789508504,-0.24526197046934595,-3.4928808389281496,-1.8438260934967363,0.45199275765865804,1.2421875
1.019667625024007,-3.6734846444215146,0.5039831256698445,0.25289077566526813,-0.23970951137751376,0.1167232603797418,2.229216013951029,0.4068141936688897,-0.2896466369691699,3.0675502962945935,-1.5365210541418812,-2.0484367593638777,-0.2592610048653868,0.4434884960808034,1.25
0.600782302839456,-4.210199655836278,4.522520964428621,-2.962706149836055,-0.5668373047196945,0.15842392050787157,3.7854764004395496,0.5804769121720357,-2.6800250912716903,1.394496795568705,0.2760876759197221,-0.6042513772587625,-0.642978034354285,0.3411239733099349,1.2578125
0.009579742949120642,-1.4190169838130557,2.741300553665059,-1.9726793512234457,-0.30365743555613245,0.19769473664086626,1.964572788314128,0.0732681137568806,-0.9936290373263358,1.325833576752226,0.811547228007541,-0.8313463020685554,-1.9235573255741565,0.3150430646892988,1.265625
-0.4186802883222895,1.5324962890704021,-0.8004808249606082,-0.029283114956100892,0.13292507359917183,-0.13841437081286587,0.18616909091214037,-0.5154334283486449,1.876759521596462,0.3991286660763205,-1.561549046741985,-0.27464507046693076,-0.5726384470538672,0.18294692519996503,1.2734375
-1.1812347151199434,4.069015321947315,-0.1820095369815021,-1.602709490067954,0.30373874760535674,-0.40276394480717415,-0.3793408544141082,-0.9792173290802433,1.8185258482690156,-0.8689112734986749,-2.671356135233005,0.9061689879386524,1.051275138828275,0.12221480376049589,1.28125
-1.6671698774651584,5.268241819538387,0.8381268073254199,-2.3728157167369006,0.24103459444516237,-0.04439117957641051,-0.7775511512142615,-1.469403860759192,0.8532977325292923,0.48192738571634064,-0.2778455771645752,-0.16824571782027403,-1.23767378740996,0.33706384641506715,1.2890625
-0.64042712818644,2.6662621199082355,-2.7230845681081557,2.277024407842478,0.18863032571912441,0.4997635186128768,-1.1503470167264396,-1.8116173534963724,2.296152621518163,1.9359007233469765,1.2668520202098716,-1.8540776092958824,-3.2940491565489314,0.34587463012151776,1.296875
1.12365175844434,-2.234554389823855,-5.507357710686614,6.125121156899608,0.18421901648493447,0.3392862590171729,-1.0541227130016524,-1.0936014246928691,3.199687923295831,-1.2555704351967898,-0.8958588573175312,0.2721550384071232,1.12001816565103,-0.3210242735231439,1.3046875
1.3344674699227825,-3.789874557914849,-1.4375177336276834,2.2632410136270975,0.04472166734554498,-0.45084841638179246,-0.48662020509222653,0.9010891639792911,-0.2998144910326563,-6.395863337875101,-2.123835122098776,4.6556572151718925,6.887759833608492,-1.0985254665751636,1.3125
-0.2633438785332651,-0.5119010653943974,4.118058194078554,-3.875797801934301,-0.2222944394274896,-0.8666551238908208,0.2911259201228427,2.374193515399088,-4.138739399203251,-7.0746987604379665,1.1730457726670367,5.5926637081909485,4.530547497341951,-1.1215724535382017,1.3203125
-1.2861255957430717,2.5531560414980774,3.5199791302006247,-3.6982443427584615,-0.23806289490821386,-0.4149559873868671,0.04273538579827201,1.7370714407844428,-2.3583601357680974,-3.3416530739843116,4.318154603772542,2.402856360281067,-2.7112678731077557,-0.5252288160820777,1.328125
-0.32839825180659116,1.713685290899248,-0.7086496620184418,0.8079228445542588,0.13770269832363938,0.335344224977743,-2.145737649125317,0.2248118925644927,1.69949898779299,0.8136568036675386,2.87359296835655,-1.182139140246977,-4.257558075140908,0.010081510952443284,1.3359375
1.080501781691606,-0.9605434652568015,-2.0679851155202145,2.668221884543584,0.33998957641559746,0.7149899561277739,-3.5000609304334938,-0.14424686201125841,0.8989687387592137,4.774927424978511,0.5095012157661027,-3.8545949743181045,-0.8880241300704059,0.42038839564197794,1.34375
1.1327307494125258,-2.432920905854986,-0.209858001358148,1.1067452661791166,-0.06623522158132981,0.7443983955043608,-0.6723520698040507,0.11200309978951675,-2.734603777014069,8.156112434780875,1.2468413455794833,-5.823501993950497,-1.4807046929915215,0.9164770392709729,1.3515625
0.3419254582918174,-2.521955018804399,1.685499608911925,-0.5279020192130084,-0.4924790329059306,0.7571199665344277,3.2261506775331164,-0.7036576827715764,-2.0825718866301397,7.297422239318705,1.893727919186272,-5.167804525122341,-4.836593222294119,1.1300752130984866,1.359375
0.13469566500840469,-1.9131056733990441,2.1558655632628954,-1.0488251238281812,-0.20838362074131916,0.6531986180230476,2.5114450807183846,-1.966186227138124,1.9393164556458324,1.9133687167724094,-1.2589847725342007,-1.386305431060374,-2.200696864731599,0.6758513407154558,1.3671875
0.4644902255095906,-0.8016369169612955,1.0739119623119275,-1.1020662473034029,0.3622242296922256,-0.012254120953349766,-0.7073719748075908,-1.366399980512274,3.024997612946857,-2.1275939577649647,-5.562069107978698,1.8270476045572053,4.920866452687275,0.008438751429911741,1.375
0.3172503767096246,0.20576190708227834,-0.20200514673395373,-1.4831723854237542,0.3442622403233247,-1.0511405574838626,-0.14471858405586405,1.1494932626381225,0.9121755543522401,-1.8690739743422315,-6.497919233872678,2.0560975523672935,6.498924944640125,-0.23267024981408257,1.3828125
-0.4731922446614175,0.9376551402649662,0.5038407167931682,-2.465910396824619,-0.10839448334845148,-1.3761953624288277,2.5404833445546493,2.554989880298298,-0.5848028914558341,-1.2613794089495574,-3.1174401632749777,1.5410414712843101,1.5172013718268507,-0.2048356170930782,1.390625
-1.1653527435647888,2.1960275575561266,1.468528401508171,-2.060301182353724,-0.23357249589271892,-0.489369430608183,1.2891543316600031,0.8682884780835058,-1.3958525553593824,-2.827884823779913,2.335338039356482,2.118322873948302,-1.7284540100033883,-0.3726081865121629,1.3984375
-1.2294526080718782,3.3888727035056885,-1.465350325878022,1.7013053606915736,-0.025681288230038606,0.4066207233340455,-1.7354425217429807,-1.675007848946864,-2.0360586404935566,-3.818674705854716,5.530526645127132,2.3338099356665607,-0.7650775200250066,-0.6093667450920313,1.40625
-0.7506659589166363,2.4578252825205547,-6.014946374229723,5.433055954704834,-0.014590625356937097,0.050801521249887245,-0.29508591839838233,-1.5989754673563077,-0.2122077492412722,-2.914871949028898,3.2293119897049216,1.5905542153668322,-0.38885548954919363,-0.5720062975417732,1.4140625
-0.16022096322057144,-0.024610195348723087,-5.043188895971005,3.7832429670599876,-0.17472622816188155,-0.8188525203262091,2.939271686729496,0.7958116572071462,2.466327269709921,-2.1454887624048995,-1.1611477842658957,1.3045957059084625,-1.3810512543040907,-0.3817620117921369,1.421875
0.15281363114807486,-0.8397110586252438,1.0232808231636146,-1.4212241177941336,-0.09985990346646292,-0.6355414536292376,1.1270368732926255,2.0262203539057033,0.41527859001075984,-0.9587863055417802,-1.1427607037165124,0.8277191903740826,-0.2843731588898556,-0.19176222441290056,1.4296875
0.3144607371473601,-0.062455124198371105,4.243272799710835,-3.3640672667210363,0.13132460425595882,0.48512569240460746,-3.1178314761159363,0.5233111697975092,-4.257181359321747,2.6736102746002994,1.8738318154166511,-1.586424371072942,1.912962921318326,0.22875534317961627,1.4375
0.7748499980480907,-1.3936911544935433,2.362141083503385,-0.9703219108734755,0.13549997161018965,1.0657841594163897,-2.326067267734701,-1.4046885182481088,-2.607322752677545,5.176737899197822,0.7263766416973659,-3.555501838429409,1.2951025827102243,0.7200003480500831,1.4453125
1.2932298098592425,-4.448974815704252,0.5808314348337102,0.9327733862448853,-0.02943993787430162,0.5948187700166095,1.6108843548960485,-1.148845521418507,4.9215400358712404,1.3588281068208838,-3.5302130981100013,-1.2778105490055487,-1.3509512761256515,0.4941171195420274,1.453125
0.998381177424276,-3.9045919477425226,0.8751074279851475,0.6474288260408941,0.004836161887448242,0.0973926905422145,0.847403063961337,0.4054455120854128,7.430049286029421,-4.706483865848831,-2.5001713975348294,2.6527060000823814,-2.428303864195853,-0.415090968371381,1.4609375
-0.046924646529078955,0.9173077893145494,0.48714379466176444,0.5725466978558328,0.23053063144580282,0.4377621138780169,-3.997288981542112,0.32951665319421586,1.5336496216683364,-3.730385605313077,3.789790991822824,1.9292460997058123,-1.7675934521746068,-0.681070301581388,1.46875
-0.6661064086400407,3.864933217093335,-0.7300693264697491,0.8897102759541861,0.27573120116091254,0.9466434872786975,-4.872213445225085,-1.4083246131571063,-4.138437967299154,3.7352449886725014,5.709674010898976,-2.9149753955551168,-0.9432431021352011,0.25032908649106483,1.4765625
-0.5053375566514849,2.417327558821378,-0.7163461001670643,-0.4081180504186614,0.043939182646357586,0.3082079044495557,0.02552435750465899,-1.3736242861884742,-4.209623880627321,7.7106836367433464,0.10100913002005203,-4.944645608601053,0.48513761104082637,1.0590805534848793,1.484375
-0.4648576932546932,1.080483774675303,-0.11002391445555434,-2.495458230351912,-0.15334790295857767,-1.1903183084557718,4.133735869053142,1.2507649347186702,-2.4313337274927886,4.44711816504708,-5.088712865676617,-2.0467509798245445,2.35756370889983,0.7041941767530981,1.4921875
-0.6709581279018061,1.4832045556236855,-0.1910462024276533,-2.3387670006929535,-0.1439549666258971,-1.4921353153741668,3.4663951324121576,2.1588697843736946,-1.4641170450637326,0.07405423949588265,-3.9057046059800635,0.8211753913172833,2.1855255681922197,0.014886910291709668,1.5
-0.093587964538491,-0.3730860121375513,0.026358400923803354,0.30842882753576106,-0.08648781026389774,0.09535906952294086,0.8038705560012747,-0.6300656260832194,0.6583877779123861,-1.3892375136846755,0.13827346734932616,0.9083008839262132,-0.27178704880526894,-0.09310023372063025,1.5078125
1.1277686712631876,-4.150285593689117,0.8601269396755259,2.278298844003097,-0.044084210372712096,1.3561679176893813,-0.9356803704604645,-2.378082439068358,3.4160321249498233,-2.374394628832174,1.5742202965291179,0.8722898868544506,-1.4654653654647152,-0.1332042728959892,1.515625
1.20923186567387,-3.702438455840106,0.8310667953704501,1.4837326191944533,0.07570265604585605,0.629820255613166,-1.8248261653914055,-0.19664945152026678,3.3320743553474337,-4.146065467935089,0.6831417161129227,2.266468482739931,-0.05973370832007579,-0.5772181426423799,1.5234375
-0.42822924151343134,1.5106769242922844,-0.3263572110034614,-0.2096798890400091,0.09765826758362543,-0.5812983538830665,-1.2758108142407933,1.4547509509520846,0.5020529179566494,-4.737588795221917,1.0116860132407717,3.2329202053990436,0.564953013484945,-0.8116716325557992,1.53125
-1.8103795288527962,4.328905098679165,-1.7656034767498106,0.06734936327285335,-0.21798453268311543,-0.8002549904919041,1.716442080701899,0.33897133406984364,-1.81334014983621,-3.830615181739001,2.754289953782836,2.8307846621566504,-1.2196733879282073,-0.5754262548398071,1.5390625
-1.1435378080023988,1.6261770423307869,-3.0694395563727954,1.4445628708239089,-0.5339595711880404,-1.115563546281381,4.436503707478916,1.4868138103796178,-2.752215613043992,-2.273897110410891,2.19743454026241,1.8280177153157382,-1.647418464936422,-0.4811256607458227,1.546875
0.5430477961924505,-1.613252920279775,-2.460623499356946,0.38274889935471046,-0.3309878437314585,-1.8644158474713386,3.2498578172435932,5.214160668262717,-3.278285927779575,0.6918679400072594,-1.842708878273567,0.12032459541696797,1.6147462748052523,-0.42675126841349237,1.5546875
0.8851369613460102,-1.2654392220253416,1.7995149221914086,-3.161949617909116,0.15836570354314575,-0.9530578833069835,-0.05753493538323844,3.12958657050954,-2.315271314147275,4.110040066457546,-4.830860071909392,-2.03309711582076,4.166965894725331,0.3641155883723337,1.5625
-0.3433841958579712,1.0120574216726852,5.8463366962719325,-4.504646761561637,0.3620655517116108,1.6557663743957836,-1.5866258120127856,-5.393411710383178,1.334180924133301,4.1528915119934195,-3.083294384618704,-2.5804100185202707,1.7810898615512303,1.3430866584624641,1.5703125
-0.8257415473198997,1.887755937163676,3.639578649378855,-1.03544327096869,0.3823111099252945,2.636378078570743,-2.4394928966682947,-8.333313325541491,5.143168842226881,1.1343972766888315,0.23874564884784089,-1.3896334805389694,-2.158086838761076,1.1165161072229723,1.578125
0.7923087799607329,-0.18496695755875112,-2.43917048412799,3.598744307766595,0.5319290784091859,1.1066310137858768,-4.66545517498293,-1.6036558449707643,5.569379271715552,1.1226263803327112,0.5738862081167542,-1.8418756139644823,-2.6968372490472308,0.13353559557663144,1.5859375
2.5159746230243094,-3.907327114646732,-4.034717176007403,4.713936741223727,0.4497987955882215,0.25626299988857576,-4.647948597669063,3.061707465798372,3.1284665099081104,5.541483043710695,-0.5684929595434887,-4.779119129591116,-1.8749303848384091,0.1404342110614311,1.59375
1.676098841631273,-4.765271222733828,-0.4832892903444905,2.500721703578292,-0.15206918450304424,1.0456805633854256,0.12460659043896952,-0.35520651866872655,0.4667474751344546,6.319937263461164,0.9666088816213282,-4.9605648260758946,-3.1658597746391113,0.7793824848412788,1.6015625
-1.110918301473133,0.10612822812455133,1.1378227154159206,-0.022996227081100884,-0.6477967334756419,0.46613196997190864,3.9472066408173183,-2.1941856978707515,-2.7184631309949845,-2.3648646639756694,4.589126880789255,1.6311974851853823,-2.7384793569981034,-0.07586083898663644,1.609375
-2.7877038149720144,5.822865231618548,-0.6020658207076752,-1.7091858004195861,-0.525505024897667,-2.025687990938915,2.440172125223961,2.6353767769532292,-7.3490279786122175,-13.107319989589355,5.851326239939065,9.939701325814648,3.572757457898103,-2.146802345705151,1.6171875
-1.9293874886598168,4.962970290393958,-0.42984048646324974,-2.8222690638787005,-0.2476244423827459,-2.860572166450017,0.6645260317958399,5.096660645658509,-9.446454564943586,-13.322718324620565,2.461838543552059,10.698501969396723,9.660526196237706,-2.4785407986139787,1.625
0.1649658723548279,-1.1755997065276311,1.8888740446262327,-2.5482828711330785,-0.1494300891034067,-0.8432566220451978,2.0425670965748783,0.9202098994710248,-4.278102849058776,-1.9160103895168963,-3.191540118178541,2.402941371792749,6.9566131828036015,-0.2712400156289479,1.6328125
1.689290672348251,-4.171371052042331,1.3028741108964124,-0.4092782745796341,0.2068406413975311,0.890542036605615,0.7790504758005986,-1.378591784271455,4.711646286024385,9.13431038017632,-6.1751588555029935,-6.490753627513286,-1.7134321233837007,1.6219932220536,1.640625
1.7416369852552123,-1.067172385483806,-1.8272225172265808,1.6081744546676808,0.788984392786661,0.6424303486748011,-4.941038965314225,1.7286533613030073,9.090542038503813,10.468592997747644,-3.850226835360664,-8.442967674949587,-7.264093446319871,1.3180269693954387,1.6484375
0.5147829779753734,2.323080839964499,-2.29050344513627,1.5458167588134946,0.7397841888481672,0.297202438465097,-6.211639043264073,2.4034417077538515,7.0950189886325505,5.783034822794699,0.6020408535643316,-5.293387536307706,-7.995824322565974,0.47977150640262045,1.65625
-0.5783457139239783,1.0289393878767723,0.1155035131495288,0.5998630031696407,-0.0641580249851178,0.9607158155104445,0.5683291633743353,-2.159052485314843,3.7700144854465445,3.109866187734987,2.045893508423747,-2.899198140468226,-7.246883705050816,0.7426275374215794,1.6640625
-0.36090266944416416,-2.528738520668027,1.2418246688201524,0.7184338302371126,-0.6447663153862265,1.2908750066816503,5.971354603523095,-4.851163010674333,0.8783191447316444,2.3190730764061054,0.7218941653502056,-1.753321758107866,-4.004214624802126,0.9990254915731697,1.671875
0.10304301614103306,-2.887807342145367,0.6740828812330169,0.8806023618137606,-0.5303563686670031,0.5333376696822234,3.9416280481996058,-2.827045399594471,-3.553469428826323,-1.7291536783172983,0.8084744129960513,1.5933207167384777,2.9804775204213594,0.01416394808232791,1.6796875
-0.853412871782519,1.199841768432969,0.7376893165613918,-0.7689739087456073,-0.23685843694908276,-0.5409675698510384,0.5438047132975968,-0.6767705027583604,-7.041118632071522,-8.225231491253306,2.2218346859304496,6.599129446090666,8.290622896275762,-1.2447516012539588,1.6875
-2.194508019356479,5.289986659177002,0.8865306550978949,-2.943291694069365,-0.06434463842454073,-1.456991329875084,0.6817021260957757,0.349603901718396,-4.779928161204994,-11.090160588085967,0.7292588636420998,8.775511077067172,7.3562892591119535,-1.5317615700743594,1.6953125
-1.562490467175709,4.410432045632138,-0.2311434053226095,-2.9322337045794518,0.13436491984458107,-2.047212200904886,1.243778585940783,2.4973185141483163,0.4965917027496413,-8.164931798265448,-3.6125621757940927,6.518472699070403,4.381252094738394,-1.1238979727484149,1.703125
0.6807280594588788,-1.0370374137758054,-1.254458614923778,-0.5687945972745715,0.16887201373556662,-1.5773178810466448,0.6099399142451084,3.662712161886895,1.1547103296688856,-2.4111810940632084,-5.363085876915042,2.214633225056383,4.295785770854987,-0.57211575567183,1.7109375
2.1100079665761475,-5.836513534767837,-1.018039297605766,2.1258914406639264,-0.15510749221240355,0.0939982004849587,0.9710742772191873,0.989920585650141,-2.712866340219194,3.70067547315436,-2.1774442449042706,-2.3158849623027757,3.9766588653652546,0.24581354809670972,1.71875
1.9945220704258064,-6.10924683529437,-0.23477951092004887,3.1278598583807207,-0.3110133650446017,1.6644097666925748,0.7781859927201183,-2.165787483677196,-3.061334677301407,8.789435387210784,1.7652112868157006,-6.433107182833091,-0.9671873365592433,1.158183556420391,1.7265625
1.3066808695932224,-2.666749525571078,1.3033635011652511,1.206233391242141,0.1469379292529335,2.0258036498052805,-2.7997106599434356,-1.7913556156664523,2.736520779393526,10.38425513413169,2.517502041691576,-8.302891236642905,-7.579514361880505,1.5075656957112804,1.734375
0.3446677351996758,1.596326738830411,3.41077608585851,-2.1962407664661137,0.6585721983871845,1.4940165562575176,-6.459547838411344,0.0765419397004103,7.263943603821236,7.4921015800915844,1.9001037275803223,-6.556190905666004,-10.169113452894223,1.1388289398556686,1.7421875
-0.8758215438536207,4.658456419001167,2.5396795168433233,-2.4971623416707946,0.571074743912411,0.7813694955948015,-6.006496999510155,0.35692426431930996,4.646702108948308,2.5634818014662266,3.5354502300879203,-2.7690251758127586,-7.8820071974027694,0.3729355395208414,1.75
-1.4002573882094957,5.333154996722186,-2.759317507125424,1.9412777293509338,0.21174496153370043,0.06437050993921402,-3.687492134995284,0.07760347829741612,-0.5541015593471521,-2.3041453267846475,5.968517361714401,0.9863363196756605,-3.2687799230382897,-0.611911850532596,1.7578125
-0.7423169932594043,3.2606285590789224,-6.662456730734374,5.44456885287437,0.1199458129195187,-0.7089971111566991,-2.199258077119805,0.8245703300507289,-1.0565860862146363,-6.976572744228402,4.0032950166104975,4.471010445565749,1.6877492101999938,-1.4661502891879152,1.765625
-0.002828475309831999,-0.09299339386192244,-4.095099337598339,2.7182542662815066,0.03860546013329169,-1.4889857141726608,1.094998684309796,1.848588213155862,1.6871829475110027,-9.462816435270877,-2.6899112375925402,6.8212205805610475,5.136829605107401,-1.509989107254482,1.7734375
-0.10507529500751085,-2.3951229370678377,1.0281956402749912,-2.5425000087962752,-0.42639115032787783,-1.8517994920314456,7.000013542295111,1.8100687732478284,0.830507404914967,-6.5369981598545595,-7.179842010097612,5.6847613154737235,5.304406907676477,-0.6142986858046794,1.78125
-0.4139326385604091,-3.001509507752609,3.03807014215948,-3.7082982888410485,-0.8754585605704833,-0.9776920899549895,9.777180001482622,-0.3289615792000983,-3.8292697430631426,0.08619659939893572,-4.731564626998364,1.3323861459932413,3.1471522230739963,0.49134115098678416,1.7890625
-0.07971942132333391,-2.8696174667993373,3.0008728865140926,-1.5423041057841385,-0.6904029125340306,0.9008155455811632,5.742075526934662,-3.817371942090869,-5.836294663544128,4.518590615972954,0.014978945794456525,-2.3585830512449406,1.9363993343475971,1.0840393877604193,1.796875
0.5523137755653489,-1.9592455928877057,3.0480741844141326,-0.8370997954849169,-0.022903775385437756,1.6822167319057293,-0.6458391653643805,-4.316671672780197,-3.370726149789258,4.9761997365490975,0.4830799019851799,-3.2404266336554857,2.6444983104948703,1.008456058501292,1.8046875
0.6352127681123615,0.418957856068768,1.2165688262486445,-1.451083964607463,0.44548806433815563,0.29840352114211566,-3.559505787230557,0.25326356644893455,-1.0018023492718573,4.897661467897169,-1.8346327091778825,-3.2222497149960274,2.337702381411998,0.5655313131029088,1.8125
0.12420702584411433,2.466042274824872,-1.7762347588376974,-0.5730336231848318,0.39658630893866065,-0.8931523925246189,-2.6373633242492325,3.5926105833914597,-0.08779109331724491,5.2706712901887105,-1.5055587083121298,-3.608972113375505,-1.0734371891306986,0.3003810044376283,1.8203125
-0.2661606877423591,1.3771552666342608,-1.049776939439481,0.6161096186739963,0.08582907734371872,0.13020573097245966,-0.6313276140012691,0.3919782453884619,2.3211247326951754,2.7726667937785487,1.0182562673901236,-2.4042534814440035,-4.724209886151085,0.3556082683208811,1.828125
-0.20472338988956462,-1.1950809008443202,2.2628283571246786,-0.11468896601260967,-0.10934478718644199,1.0565857240157537,0.5995021251788267,-2.7074440664041712,5.020379833403867,-3.454963767857773,1.4461780878147596,1.7053788525313058,-4.297417280729431,-0.008672255029052176,1.8359375
-0.19187081430918296,-0.6272169313204411,1.2149325982636578,-0.7590162951721426,-0.05166343448895009,-0.6180279366052476,0.25942749076330074,1.504784560775553,3.764282163834827,-9.113450722741298,0.11897725131566181,6.091791130003239,-0.37912808332158016,-1.2085510427672836,1.84375
-0.5007648818952463,2.4240272749776524,-3.4334745822647474,0.9916149295790075,0.11679462153047013,-2.260994780446745,-1.346743321283518,5.7579224456858595,0.2015878674655734,-9.93332532835494,0.6700412781586108,6.9947729660200135,2.345222743232984,-2.0212494975715756,1.8515625
-0.48165848287713303,2.3341531659602355,-3.5020184931132126,2.8855722711936456,0.16146934375965216,-0.45081935883949414,-2.4856692249486376,0.7596106775916097,-0.6865945287004233,-5.736993289038418,2.891085824895298,3.7395829853730844,1.7165168073652335,-1.143462401558317,1.859375
0.23375194527928553,-1.3141137681676176,1.1000565823962896,2.313893383823213,0.0450393001813236,2.409363606983439,-2.160072952817115,-6.327533069352706,0.10656718698508079,0.5121445562051212,3.6932313651490247,-0.9769496486293809,-0.1125545384815522,0.47539572615643444,1.8671875
0.817979304644006,-2.5932373700532296,2.158153630196574,0.7709796467998157,-0.019548400174848622,2.0428912751676362,-1.4993493515973586,-4.0854705878615984,-1.110591332427355,5.193935114454026,2.420466100884001,-4.014498456847327,-1.0491514641253472,0.9655840866592542,1.875
0.6163610556217489,-0.04009358785113047,-1.1530312559118188,0.1813669959168743,0.09534640106560978,-0.3205257687646387,-1.2446440933703995,2.5585655377879877,-2.3728116624818,6.602490132604187,0.09837588205870382,-4.533469347305204,-1.0003745212385,0.5090802930465748,1.8828125
0.2528094094720118,1.1862157604121912,-1.9868302781839604,-0.2601136456261303,0.19473024905842812,-0.867688199805732,-0.22558931823253245,2.731284623615623,-0.7219097001060918,6.227111373001966,-2.8067303203729477,-4.037311566872431,-0.26187096488169864,0.5703065648434238,1.890625
0.31137061612096006,-0.5141810681179828,-0.08486652045394366,-0.8521951002788657,0.047243986681006774,-0.07841608030625036,1.8337843772301616,-0.37729602918772687,0.5785167477544121,6.183189068263406,-4.280587544156183,-3.9347703852540232,0.13298579924385348,1.0302445397901654,1.8984375
0.31300874175258075,-0.9898541026885842,-0.5998903552697485,-0.500468068235939,-0.21341091386684283,-0.5071714955541435,2.8272004671307447,1.6089022338013457,-1.3720772097951721,6.0898699283732425,-2.0101744634065204,-3.9089981991113225,-1.501001739304118,0.7624392767194329,1.90625
-0.08365300262476003,0.7683687370981656,-1.548452985428721,-0.44639413011622314,-0.21962569579354105,-1.2440130505629148,1.5098577440391945,4.678816097891701,-2.2192166769837254,4.316689276351888,0.9327171615112848,-2.8860364970149126,-3.6817543924379508,0.12489609952285366,1.9140625
-0.4130706385101499,1.397963012060704,1.947909305145881,-2.575755543159957,0.09948882808264689,-0.30989682584872924,-0.42770800327379116,1.23389878967531,1.528519740028928,0.37936199273987203,-0.6129422446781483,-0.2576723113002583,-2.0942623147407167,0.10994991869217506,1.921875
-0.5713348657046742,0.5355479074310997,5.5683545542060084,-4.100075525447233,0.3201645258778092,0.9387841426732456,-0.8110102790856003,-4.526454337200839,4.858543146368164,-5.555023317124947,-3.8269763066988673,4.046284322494503,3.0630919033465696,0.06827106917640512,1.9296875
-0.9669009966123951,0.33679103912774155,2.9672240644139367,-1.2763994051213976,0.009039164774369352,0.5941052881685281,0.8216299650526457,-5.0653094791083255,2.347835943301662,-12.231435886131505,-1.3355763901026816,8.789643776392818,5.997178621735368,-0.9806241626284111,1.9375
-1.1717264847235422,-0.2885572080587035,-1.6180527928891073,3.0304479871417507,-0.6232316668299811,-0.21289216110798792,3.2740063935543096,-2.3848283625107043,-3.0060658482339893,-15.20943400824109,5.022096213719865,10.69341034814195,4.507527112835032,-2.0092257754850733,1.9453125
-0.2652826866955188,-2.7641166710665517,-1.67256123835225,3.585928145296326,-0.8193644452796186,-0.09894549234992524,3.783463401719226,-0.7868243207446326,-5.041986876540684,-10.311116117299116,6.1910204119867345,7.1881443552814925,2.5973435197479717,-1.5851540482123687,1.953125
1.242767939648201,-3.8873153503479227,-0.40316206238914243,1.6858857800729894,-0.22613471849847092,0.044399506975760825,0.16404011488131898,1.3752485876105534,-2.494690990217156,-0.3401051863550637,1.4757658928652508,0.18325375887381487,1.5374747875029566,-0.35825612678003493,1.9609375
1.6626753797932388,-1.0976351007110732,-2.0482953919250466,1.373752132171467,0.5343762223592132,-0.2019676844325131,-4.786375562943455,3.929435361771584,1.8205909871826953,7.172437451995352,-1.2717336706474252,-5.49231054571196,-2.0079805942541173,0.40915822979632765,1.96875
0.5901259869089021,2.1545144828068894,-2.461839176093202,1.3366182809900253,0.6552757863193353,0.3117382938058742,-5.174755533485281,2.0196934798581405,4.470179842402105,9.266365681808853,-0.16556911313583467,-7.351636191931699,-6.613308607073785,0.9536273454727764,1.9765625
-0.5046045846497144,2.4355788523379394,0.6185216838095567,-0.8807770620546984,0.25127657772406636,1.0667448472741903,-0.8949097654785929,-2.508328297001011,2.920383158088648,8.790245616734202,-0.5525712587752288,-6.51397621800624,-5.797304999224133,1.5589035204789017,1.984375
-0.5289965415737801,1.8597917846002578,1.226947433114921,-2.5883433892720165,0.062023026267570044,0.09322763244383253,1.611992820301229,-1.4349198112936337,-1.3814720868956594,7.427873031401328,-3.364716052512386,-4.554603697641027,0.24829992506324947,1.3169661718515608,1.9921875
-0.16806667942912984,2.658131988494122,-1.8748879290704874,-1.6783017380850678,0.24819031482287707,-1.6750828741075263,0.015992771089652944,3.7831111740684547,-2.7995504412143584,4.357565786264506,-4.378247705427685,-2.1494262432424875,3.428734541523226,0.23308602882640442,2.0
-0.3752676383212139,2.627434700790939,-1.2390704667217634,-1.2415338490530332,0.27029703644415876,-1.2302163581655776,-0.6933924367363685,2.870473097187865,0.6996835129513821,0.6619490698627245,-2.780894067044745,-0.13973709192889716,0.6907452754128718,-0.11601947149700267,2.0078125
-0.7028424192372688,0.16159422798757478,3.439207832875366,-2.24006937751317,-0.09071880449245909,0.8559862814878348,1.7428191566152276,-3.4846524613029852,3.3292631871886122,-1.5234195716654493,-0.8547568543857128,0.9680805564478844,-2.03523865118691,0.43919808928247694,2.015625
-0.2799699820328457,-2.089361332017908,2.9351762458905974,-0.6991897406056315,-0.4074627840511316,1.01151339280266,2.998388344158172,-3.6387810051533123,0.5098621417377703,-2.8563797260187,1.2402218823947322,1.929829971343878,-0.7779437198590902,0.12985959354436435,2.0234375
0.41006467368485905,-1.8257115278916982,-2.8963696330983635,2.9995779967147587,-0.3749105786022517,-0.8240540795925257,0.9852519822981819,2.901178230564225,-3.4636940205752285,-4.584732941612604,3.562288321440967,3.1310559961127713,1.1588288381837806,-1.1714830177212483,2.03125
0.32659498858569447,-0.5690117304882687,-3.1663474132800347,2.7481807635613364,-0.1893187415818955,-1.103620866166966,-0.9892888268984132,4.300254012290319,-3.2118959733051446,-5.10074828630387,4.234020995615838,3.368879037915583,0.789078255685485,-1.4324440011414625,2.0390625
-0.05401173751942584,-0.6635397072378855,3.403065050367307,-1.5353501999580024,-0.06480328078197606,0.7187294971268533,-1.563734942095312,-0.9712989344549786,-1.0086617191145228,-3.143324705353679,3.247969201535999,1.9997523795990018,-0.013033663532501,-0.3533262980127614,2.046875
0.5191314032664248,-2.2651110205745226,5.5004560141691465,-2.3130993286123163,0.024521037173313207,1.5619520553301403,-2.5078030434025895,-2.5797349273629466,-0.5616701047240922,-1.0224339645339426,2.6689033611075965,0.45382446493114664,0.39574950760035704,0.12121521928565841,2.0546875
1.4949665294921353,-3.6506020784498574,-0.21589154960818804,2.3473134230943375,0.09675036446713013,0.7259391261424398,-2.786376167396781,0.2511487395478962,0.534587706951561,-0.7934307063349766,1.8321896478368374,-0.007788349947807808,0.5172679896612499,-0.3490183262955505,2.0625
1.168364505142304,-2.714961348372186,-4.507704393778884,5.35488283625965,0.14093649639423753,0.406649500609975,-0.5631451740167013,-0.9834439681433994,4.200666390809623,-0.8415542837251285,-1.1851547230419992,-0.08393632245740502,-0.21493771267072878,-0.17993739181636703,2.0703125
-0.2102047186082529,0.6383867605499557,-3.074509390411005,2.8147541392617867,0.2244035304157049,0.5760533609005266,1.2520651801830354,-4.108240269121181,5.319440601927085,0.4415802107318105,-4.124496760921471,-0.5122536376817107,0.2030148136222208,0.5550755868695052,2.078125
-0.854426718372017,3.3060664572416925,-1.2515493822019232,-0.8370992458713953,0.2408594359887499,-0.5309317032428447,0.4041153784633224,-0.7291096999843243,0.32034778833364363,1.2565522462307528,-3.4398751967945818,-0.3836124586966162,2.170987006112733,0.3250276766912095,2.0859375
-0.7670207730687747,2.8431215668217686,-1.05827771490464,-1.8969498997054153,-0.07318554941391,-1.7674782326687866,1.1534873702113186,3.8242328367921297,-4.812398126630695,-0.1423631652252997,-0.9806192383194288,0.9829061077584405,3.1129754932523723,-0.4153552529926046,2.09375
-1.3298916809478505,1.5599737633355484,0.8479326532033744,-2.429328150787343,-0.48766246630882387,-0.9770387473364451,5.430656234424817,-0.06230647258625121,-3.627069037048311,-1.519607004829231,-1.275795748580027,2.004175640480372,1.8649551598073242,0.006954618724207231,2.1015625
-1.9582160846009415,2.625114836754152,3.4241894879862746,-4.245305833043394,-0.3313289801099379,0.20729856401778674,6.128017683317252,-4.738398729824764,0.4155782784204953,0.5680074832975087,-3.8201267602375664,0.4697675714975733,0.23430982233270747,1.0253380303283868,2.109375
-0.9384737399529555,3.9880643566298257,2.603710598699879,-5.041838813810412,0.3199326556625114,-0.6272405918103052,-0.35193673502834927,1.167954739330422,0.7220455738653853,5.504197760166595,-3.8633059252809683,-3.2756193744761055,-1.1407688598101895,0.9347099923224924,2.1171875
0.8960111681125789,1.7664563163485694,-0.052118160417943614,-2.755380962073742,0.48297633705093973,-1.5696388680608615,-5.1157744303085195,8.732778063933447,-1.6119725105110674,8.588677179944158,-0.06196892700531128,-6.016771472459398,-3.502643426296797,0.21784834722828958,2.125
1.3217675343960003,-2.5650391978407705,-0.4247379929697639,0.9558444052659486,-0.1014193416819111,-0.0369440778662464,-1.7572097953272998,4.268553204784824,-1.4494818733271078,6.198570777669609,3.511926601735822,-4.895328454095784,-5.275913331950263,0.24447897759247295,2.1328125
0.7485129953510739,-4.5304725165217,0.4127938650169642,3.3738329687088724,-0.41767876687446753,1.9523512563923064,1.7112383801667135,-4.567610142289695,1.3576008388611627,-0.17047001955534927,3.688225527577764,-0.6766544094463519,-3.2252906218144624,0.3383048560823867,2.140625
1.029173417097691,-3.8213008452813297,-0.32459492994493766,3.9596048530005916,0.019352575702255854,1.6376850757028572,-1.9613613228171185,-3.6958606771739646,3.274010254142189,-5.367973722089525,2.7539610720347216,2.816303731714013,0.23022452820836212,-0.5502280496734353,2.1484375
1.4994535667836772,-2.9526387920937482,-1.1276022335415277,3.629772833774171,0.3080715963486407,0.5999184978600016,-5.740197547056611,1.4977605158571217,3.172750009845075,-6.119669081782937,4.07305136499385,3.1060579034514992,-0.65183888323412,-1.292553850633584,2.15625
0.37908869362107384,-1.4384252861447369,-0.35604029584530494,2.8198141953538185,-0.031220500383330442,0.982416667602461,-2.669065673866798,-0.6743528190051779,2.252180676694629,-4.314952976969193,5.641612786050563,1.925318364775138,-3.797424004292088,-0.7182227918342892,2.1640625
-1.3281903553391976,2.205430320419062,-0.4956578449907563,1.5654789668253288,-0.12001462746210816,1.1078082186183893,0.9225070675937259,-5.15784945518735,1.0914255281616498,-3.5440503572219413,2.7327281532179293,2.1574938556634016,-1.133371196148995,-0.004423312603198518,2.171875
-1.3668756378800215,5.147238901806008,-2.6392712029754346,0.16335914584055464,0.4252563842307547,-0.6547374057013873,-0.8380608976067574,-2.1442779595136274,-0.5284685402885484,-3.4709928783255015,-3.6727612514607455,3.130740024141893,6.759526285646971,-0.3082598868663592,2.1796875
-0.18270833814033982,3.4898718245385765,-2.8280151613942377,-1.3751687130827064,0.5472628050281549,-2.1857375262486203,-1.492461481439806,3.4639349821853886,-3.0230493060572625,-1.0173908940774625,-7.027037201462456,2.0230652012816406,10.147657839580098,-0.5351692029882759,2.1875
0.18462561304821962,-0.9176329331145694,1.0570874856703605,-3.2851975234541584,-0.2809340603932039,-1.5687110045654,4.025133938552277,2.9941667617208494,-6.115615811405072,3.163688691588545,-4.743954841654915,-0.7566271696699188,5.974999314598581,0.2715049495234431,2.1953125
-0.3196642462768737,-2.9086249385477037,4.492651493581532,-4.5269830482007,-0.9476391804501596,-0.43760266254703206,8.432379637963699,-0.01904808795115754,-6.998603028912105,4.4041797493145,-1.393455052222718,-1.7888553924988253,1.08964154652846,0.920460273292217,2.203125
-0.23748821673305412,-1.867750187706419,3.3065099611991706,-3.2778675593111752,-0.5889744756641897,-0.43579214075520534,5.165693768402928,0.8592216817356721,-2.603386031902445,1.3496198890535869,-0.6640640006782533,-0.3398054582381417,-1.0463080168554404,0.3788095740789187,2.2109375
0.617773300470111,-1.3155335769078853,0.2572387400196752,-0.11866446497221035,0.11482301313610448,-0.4153395769559803,-1.0872981665016035,2.8384043436032083,4.360649669733274,-1.642617873733912,-0.43073793564330976,0.6160599628227078,-3.411884370206599,-0.3836502502333525,2.21875
1.0566048539011985,-1.6972605712084954,-0.3389017054921364,1.949153041636033,0.3624120856704186,0.6574780449319595,-4.211737132465508,1.2036535684829432,7.02837662023279,-1.13362034523055,1.6462316078975496,-0.5037081464360413,-5.723684610048512,-0.29597589801297836,2.2265625
0.37618590191618495,-0.008676328262625448,0.2560735563601391,1.9209518137729344,0.34786385184601476,1.6699078812618027,-4.45623657374216,-2.544625995447103,4.242350986366655,1.3669746831742433,3.321481617105532,-2.0918957666017253,-4.702889115579423,0.3015969216624336,2.234375
-0.844855491397479,3.4119938923929736,-1.184019909993779,1.8016611453144429,0.3479966718110997,1.6131274752412865,-2.742884913184007,-5.145322584012748,1.8220957041040362,3.4277159778090853,1.9157752372080434,-2.9358067854446936,-2.314930125804158,0.8262876554594039,2.2421875
-1.3338302179247552,4.285747827822035,-3.3275674806293543,2.1816793120162488,0.1826448544493855,0.7937956703810912,0.7520008014814388,-4.69860457080542,2.0684987637501013,4.600492378306502,-0.8558862705114367,-3.3675381190984344,-2.3516572590075167,1.0670055533309424,2.25
-0.40006205513574083,1.5741235748860898,-3.088952596781235,1.3041707566534648,-0.03607461274854107,-0.503336620191322,1.9459700312532633,0.5291737611068359,0.7643058787767795,4.110654851454893,-1.510439108556292,-2.8221489900719763,-2.4083792633079852,0.5370813152874688,2.2578125
1.009435228397537,-0.9897609593086588,-1.2429605384572602,-0.5334802213212071,0.04142299666249849,-1.803525895213865,-1.6267794166505756,7.418855387443994,-3.180120872368704,0.720492024264139,0.120559441366117,-0.25172200742852735,1.0892027741303956,-0.7715773083341465,2.265625
1.1831884673993216,-1.634502308220922,0.2382618368964189,-1.0583498374950722,0.09713126659217985,-1.6750247376442957,-3.252340319583378,7.049001502576445,-4.880412483833258,-3.925309788456161,1.0893422471361718,3.136753623357535,5.095885252070715,-1.4593328941690997,2.2734375
-0.10011630671940018,-2.252610333578402,2.201094704663826,-0.9093973303748123,-0.3976151582295772,0.07124274399248036,3.0511904191078356,-1.9430419652098523,-2.8366312563393423,-5.970149612640393,-0.22757747418531377,4.740957989444219,5.132113368924359,-0.5560474782489102,2.28125
-1.2433878099736246,-2.6136751230127957,4.479941639658798,-2.2285628445293018,-0.9284784441205842,1.1012790317808057,9.593986042285064,-7.6231223441664495,-1.3626132123220667,-4.312947218478723,-1.7479391786945477,3.832092855453407,2.45939323168378,0.5946096236458146,2.2890625
-1.063509909530416,-0.19262095438724566,3.5312437520293636,-2.976482722228853,-0.5171892845425117,0.20163746060901608,5.093955515284017,-2.7332484827535706,-1.5750464234974213,-1.9669222021903914,-0.4486234339704395,1.9538207617047334,0.3990907518358629,0.2951216749111624,2.296875
-0.11937336355390907,3.3069089152683104,-0.7783053801681449,-0.0397894302311324,0.5571279681855053,-0.39615371197706495,-6.516804914435904,3.1211649420805685,0.3265819326064006,-1.842582464532951,3.025866585178926,0.8121709074622382,-0.656100931765145,-0.7976735217865955,2.3046875
0.5389779096296182,2.933709905514659,-2.595510517102859,3.470385466725687,1.0113322662428397,0.8689472591212248,-11.081035748795504,0.605066311984659,4.37344402848086,-3.030000279155975,4.434509003155758,0.7237128908834938,-1.3172570374836299,-0.9349001177407649,2.3125
0.7011881244286086,-0.8215858492364807,0.24409576148805454,2.443950465210903,0.5095190813284673,1.7797789432826823,-5.3458580147926895,-3.4440574645014497,5.68216584764392,-1.9857463277857663,1.7757810257640727,0.25691092313563896,-1.7274486442665367,-0.07026781640985633,2.3203125
0.6354808856611258,-2.207089775936627,1.7635367713976755,-0.9500887379069147,-0.03060613895793549,0.4022408468142629,0.8295594779644797,-0.12308101958673785,2.761153772304078,2.956811735817584,-1.634581083183757,-2.270702958278669,-2.7347228076588648,0.6002912650520404,2.328125
0.46769818950747694,-0.21340111748354768,-1.3726489280688237,-1.179230872220794,-0.12198735009603871,-1.3442763136695863,2.2113381348130425,5.122562869200179,-1.0971437953152212,8.950301705507414,-2.5038224529932878,-5.928088556087188,-3.823960443462412,0.8314022678959517,2.3359375
0.3747504629457626,0.018245874161942382,-3.72432893312054,0.7054274844116312,-0.24156819068424648,-1.2866716237840121,3.55911345146781,3.8497272944046763,-3.971181318594474,11.156151076418348,-2.5828777561534646,-7.177565531376913,-1.7861533281925213,1.1037448000882786,2.34375
0.5273729936463779,-2.7659620620203906,-1.582594101646695,0.32422373184095854,-0.5223928894402597,-0.5994004493262455,6.4824906210895605,-0.18681104898666487,-5.641576201323779,7.324397802947566,-4.395678393639409,-3.960200358986042,3.9320729357722963,1.058951418523518,2.3515625
0.5114398748137902,-3.3175029939384686,0.22165339629518702,-0.9092926254230803,-0.41939705212131934,-0.8975889472740268,5.742712533010032,-0.25862187277362686,-4.318137730188585,-0.641045184040458,-5.658132179888384,1.7665917053745213,8.100131317422404,0.07386663860793083,2.359375
-0.26425633257762204,0.2961336715154217,-1.6609182801231344,0.6373249247529845,0.03447304598091577,-1.1024717592789042,1.160818150294451,0.43537579721321173,0.1494668247475789,-8.339342120914779,-3.0014089583223846,6.346453060637129,6.462827492162696,-1.154022842956861,2.3671875
-1.317705413041709,3.0044154719024485,-2.2366975970708327,2.5150848665622543,0.13242486413841845,0.05691976600173092,-1.14143650131384,-2.596194449056141,3.434713279032811,-11.627529158108068,2.1598394575245585,7.657447399996193,1.362729103045863,-1.4011475617286464,2.375
-1.408185815848206,1.966065892163798,1.959510909592663,0.5917955000246817,-0.09192204867588329,1.3409063549678577,-1.4524280481690883,-4.27896328266947,2.9961111052550398,-9.578879936632472,6.290704442749865,5.801896143367448,-3.237477700769782,-0.894431511763228,2.3828125
-0.4802735363396311,1.0405609170461978,5.539851320227147,-2.5444194574590404,0.10288738492007497,1.3066658084163354,-5.409157353196246,0.04144306196408839,2.267588130613892,-4.86284892017873,8.467513306292755,2.196012166433524,-6.976194149965448,-0.682372925479533,2.390625
0.04211896152051424,2.7902175817914876,3.4982048035505775,-1.9661313624211278,0.5992803351012961,0.8695197792427711,-9.74727192201345,3.4459141989746,3.5501127324974213,0.15295374967577594,8.342645685162053,-1.6789122878544684,-9.411430050629603,-0.4799506394273361,2.3984375
-0.4973666761580279,3.9715122486073553,-0.5818302307866706,0.810460699992388,0.5297951048872342,1.2212554105444593,-5.74430303331365,-1.0894599011498172,3.2347266239309884,5.539716688012063,4.116795299516589,-4.9442313972392675,-7.263806629914115,0.6986658221885004,2.40625
-0.8532147592388363,1.9506553066653074,-1.5301066625926696,0.9004734577934783,-0.055716599334080165,1.2837787654123738,3.6489834598883917,-6.578433837994868,-0.7385713571814808,10.185425178129172,-3.3358413317320363,-6.664641317495116,-0.32076238894666714,2.103206297215599,2.4140625
0.14961740298118184,-1.5523911203703709,-0.40976098237623515,-1.4421234825111195,-0.31466210937945627,-0.24956172968924073,7.3535347851585975,-2.924008328817123,-3.8959464541829187,10.385481340742816,-8.798407770353416,-5.699784708294459,5.43965144149843,1.9511879629074316,2.421875
1.7561790813037033,-4.797672362635738,-0.21098850472775774,-1.9959662735956962,-0.2094488801824547,-1.975068193647923,4.684205709384777,5.194424468060484,-2.843002772458872,5.214049544672002,-8.736370312949033,-2.3276325545966645,5.819958181075157,0.42106798307588195,2.4296875
2.34195945085733,-7.15030166324039,-0.38480566325908194,0.038713642399194566,-0.30492065627902554,-1.7431457471010683,3.3298885315044915,6.045817171072102,-0.7231701543193613,-1.1674076000143494,-5.312667910475914,1.395683860810498,4.260032277196627,-0.6315843354215178,2.4375
1.4272237420230118,-6.057798508655912,-0.026038195209002045,1.5070631471057279,-0.4023121198477513,-0.3554783332965978,3.394887392840214,0.5863969642364979,-0.6626105936642848,-5.0353536687701785,-2.24312377420093,3.8183697853094554,4.755501839347408,-0.7114013125741417,2.4453125
-0.10438755847663467,-0.2997634866210395,-0.5892295728211733,1.0318717010210827,-0.013319731724802825,-0.08529903333868663,0.0043334098620917815,-1.2388721726430207,-0.9414172998451756,-6.107955169101713,-0.09381931997252056,4.475346846498685,4.762017811687895,-0.7987919215901659,2.453125
-1.1597344855329097,5.258884384256226,-1.9970977394701697,0.422356464069119,0.4162889317843337,-0.6028889575798945,-4.290653666549674,1.2852017612612434,-0.27024040012563166,-4.489193526405047,2.6650227089495426,2.9524735559180644,0.7591911250754677,-0.9425892999906857,2.4609375
-1.3127141279629462,5.3848109004448395,-1.4436551747332536,0.48453149047453176,0.23292593933627556,-0.08063789981990949,-4.237446265664981,1.4664392768258052,-0.6817511351145532,-0.8007328519683806,6.23394657657738,-0.06912234583835589,-4.679424247535444,-0.4891833755198044,2.46875
-0.9083084310672505,2.1809395343879294,1.2429334584522393,-0.05392768434379831,-0.2105637438766603,0.8776470315829142,-1.8828054564110048,-0.24713430062822633,-2.26476207023994,1.1827005308398415,8.375671917963196,-1.5485089559111958,-6.743300204546442,0.003394383015198797,2.4765625
-0.5424147875619642,0.6769373510553346,2.2012699129473,-0.8598998499700155,-0.2332994866972867,0.5546559057696204,-1.1075524290839893,0.25537165900154524,-1.7358132693091186,-1.2692908303335761,6.286140492256359,0.4035677459192059,-4.349743976202802,-0.27916777205122034,2.484375
-0.40469229049904354,1.062011187023969,-0.17699559598450684,0.04699986670280929,0.10544909370298293,-0.20564519219266794,-0.6341629428248723,-0.20526048809430184,1.6635834888646004,-4.5291476150721826,-0.09032203953141954,3.0761636838895368,0.858261073817043,-0.5657327360380785,2.4921875
-0.2654889818856169,1.0136111159468923,-2.3988378701213176,1.681771581493858,0.3857945206802154,0.12059027406559877,0.7170658794929756,-4.1658092657282015,4.541752322515313,-3.4145448013412287,-6.5612818962515105,2.6841821660977447,5.598706257695572,0.06271489419462989,2.5
0.03694044587136847,0.4139373633087453,-1.4946877907972846,0.8345138774102546,0.4112781310265427,0.4715164873867033,1.0799988766189998,-4.701413575893284,4.4844355934139175,1.5352983263357656,-7.906381143611279,-0.6775267554375386,4.6567173361486836,0.853227058872327,2.5078125
0.5192259055259427,-0.7694466191865039,0.70154042543089,-1.450461285523368,0.10106903737833041,-0.1627358732050252,0.7271547584144213,1.2743015805344422,2.2211938317012887,6.260133131246237,-3.3450239462187543,-4.32633658137058,-2.6789078176886707,0.9235282056461895,2.515625
1.1960941636553277,-3.4796166507451156,1.1595616017143824,-0.700693363865831,-0.3606651978721563,-0.14481186584792494,1.2450290147545988,4.41595050351794,-0.6690189979641922,8.216318846135485,2.2589693208042325,-6.159468976488177,-7.7190088012310065,0.7366928003649951,2.5234375
1.6654338696789839,-5.616422883391282,0.30977027503081517,2.399116592053324,-0.43236214073794005,1.1368636991996584,0.8474436364909208,0.0366850274271697,-2.4304485780614122,5.800097694495892,3.794219632903403,-4.567363058241859,-3.5339850097609764,0.5896920818954804,2.53125
1.0437435335313996,-3.3263585514397422,0.4784811990666014,2.2020162595429884,-0.01929207332724608,1.3118862454136189,-1.538529020362571,-2.9137757676000953,-1.4918306104993537,-1.0194305900989302,1.8018470160033084,0.4807605455532485,3.0779986248644975,-0.08468083772127633,2.5390625
-0.670332179815771,2.0017334032038177,1.7553169102954491,-1.695510041833544,0.2174538590868915,-0.22755352852033986,-2.28042307674726,0.05650111551242516,0.9486972305860478,-6.974356684776021,0.7383670268128458,4.875016764834236,2.177024494593651,-0.9178078205388502,2.546875
-1.8220544129204663,4.343409051428899,2.215741945204648,-3.5213354978343454,-0.032211031698853,-0.8365531072154226,0.39342268403405434,1.3267337012822713,1.5287927443821032,-5.693473206178081,1.4882169876584141,4.016689446425749,-2.7479531005474467,-0.6576763200355334,2.5546875
-1.1644334870915494,1.8887139090711462,1.2977944498215914,-1.8628469322465981,-0.24463733114599343,-0.022171824812278855,2.8471596682320914,-1.3606289355664765,-0.5162603209103118,0.5951680571797895,0.1260342401158261,-0.148171851541074,-1.83627590027093,0.39872154694131595,2.5625
0.03052285544530678,-0.6859345430390936,0.3058336863143229,-1.260004256985937,-0.1513268618125814,-0.35814088506743025,3.281767855155477,-0.8226340315830103,-2.56247655871312,3.1686775839227748,-4.1321484687068235,-1.3419820172554202,3.8950265008962437,0.6294186819993143,2.5703125
-0.12026856738478324,0.044321807301718,-0.2614791814684912,-2.385231010319167,-0.1378082174414362,-1.7938538936770179,3.8547053243277225,2.639555652087636,-2.8884536039573905,-0.25432481508734556,-5.929244215235568,1.4365396318779253,5.893084296501331,-0.09917492798967062,2.578125
-0.8852879786827607,1.6244772096456805,-1.3322537848932547,-0.9610771195017934,-0.24153302204925864,-1.4903210219595582,3.7558020545515136,1.6050230660436833,-2.1582536700782042,-2.7540043529628075,-2.478680971391511,2.731843878837501,2.996161916146708,-0.41035317142039857,2.5859375
-0.18256272244207966,0.8591047412143445,-3.016470905862523,2.9984480834916036,0.009641044447896138,0.3300643428192227,-0.375539911032858,-1.6167574620229452,-1.1646773661258147,0.22157744280676123,1.5374896343270477,-0.29760651374446623,0.7358728287252151,-0.0364010972940051,2.59375
1.5129849268534086,-0.6662375332752511,-3.971972150200085,4.6757596271401,0.5637980916062049,0.7777891781640971,-6.666499651587704,0.6425413923875348,-0.3498318055298588,4.343923016367134,2.3428685488444296,-3.782091863754508,0.5670689993547774,0.009271388918028168,2.6015625
1.6650721948583806,0.27406689662758194,-3.1508890108688363,2.901472569969216,0.7685798295689867,-0.054379105361619634,-9.079813373058137,4.525096517436238,-0.27341750028179906,3.8821403547793136,2.677359857065715,-3.4961501964808472,-0.21561766786623593,-0.42569608517816115,2.609375
0.02455243344633938,2.3401820712190586,-0.7785362213120945,0.8110173041078804,0.41057464144934397,0.13266484813302287,-5.922482649997009,2.00206606567148,-0.2527877347777586,-0.5188915981518041,4.410695342134632,-0.27452466208463194,-1.8269557543842914,-0.5565562905551089,2.6171875
-0.8447801973533252,1.2532641971057128,1.9166120869769252,-0.22501068060296608,-0.04998747634871442,0.9762421730298115,-1.1753833858761995,-2.6333452740575636,1.4750185043614985,-4.4565998520552474,4.190920833380968,2.5588309379922127,-2.635088247794738,-0.34638919855879435,2.625
0.1118357979409863,-2.8296875949297307,3.3271327141238167,-0.7309083643700699,-0.23956341573415044,0.844031328644485,1.5001983174636344,-2.0240643085043235,4.799418012086529,-5.605449748352439,0.9729877757487603,3.3343909512911036,-3.1521658145768026,-0.30634452592080236,2.6328125
0.8206678427836697,-4.75158336524954,3.0143526534357497,-0.4612597661033812,-0.2424716877595467,0.6187795156784148,2.3034392140690723,-0.7965832856462581,6.942948240313052,-4.112610362596958,-1.122102084658022,2.1939277532944716,-4.285056303792158,-0.12533896097203284,2.640625
-0.21398461448280554,-2.25718562835058,2.350885281543091,-0.2789311144951888,-0.31383084903974595,1.2051073147740488,3.857751332107493,-4.341042591626602,5.137010350871748,-0.8248897472059119,-1.0259451676252078,0.17863525805702285,-4.128108342608942,0.6524498043156061,2.6484375
-1.4803002885728545,0.813023839847,2.018793092638897,-1.9870923850723148,-0.5247944081996602,0.6387333762708346,6.983614062028663,-5.490460597965967,-0.649112524739254,2.056823208956221,-2.366330632095571,-0.7608004741442116,-0.41726993977323135,1.1681509700889774,2.65625
-1.1216445674142745,0.9585667584277158,0.7869572780282095,-3.8105549963286798,-0.617122281508557,-1.8013768388344142,7.96043480173106,1.3879238359983415,-6.486152541002984,1.891851460452941,-4.7132667099404895,0.412069387957842,4.7443385776778895,0.4122663110894106,2.6640625
0.30154525319389525,-0.44781732708857114,-1.2622714049811148,-2.1365947728639263,-0.28448496669094947,-2.745563801978943,3.145584014768499,7.023497807986777,-6.920365096927133,0.12457064530831168,-3.3510589577653414,1.2769431730147993,5.94506035414967,-0.6687939165538599,2.671875
1.158019783892492,-0.7929667382737866,-2.0513824784509964,1.6938811213156575,0.30408350581962895,-0.37754602122410064,-3.949624723672438,3.2368017231999233,-1.790835637760448,1.9828085054552556,0.8445292619135037,-1.5440040343903387,1.6327347530278837,-0.350084152886578,2.6796875
1.0039141579662991,0.2654632113184216,-1.8259007689636921,3.056212847066592,0.6051694854054668,1.6991115328657191,-6.0546135093287985,-2.231884106964207,1.9900978780573653,7.928458419004946,1.6301910487135607,-6.427137451161244,-2.617419111474764,0.973578645514437,2.6875
0.23217255718263466,2.1682600000258505,-2.6337460361836307,1.393548865670024,0.4464543406813091,0.5487004647959803,-2.5677003228305924,-0.9551072055698709,0.07471667090494821,10.353057396423033,-1.5423293388135402,-7.337608991542145,-1.5269848572059326,1.3412356160095493,2.6953125
-0.8380061537843051,4.068042440832757,-2.8344372773756907,-0.3152077585941064,0.1954160614857106,-1.0467509831209358,0.24975398536995616,1.2392566646640422,-2.547027246512364,4.021356300791172,-2.4329056615297073,-2.1595404356842587,2.0250252949101815,0.37022568835007363,2.703125
-1.4379460160321147,3.8012042072068146,0.23098048235526342,-0.6932398191779805,0.11038707409349356,0.008136905756264993,-0.8585345374690475,-2.036050383584409,-0.48758534103361745,-5.3598208796325535,1.34812560945419,3.8842679216391858,2.038303129887634,-0.5488304954587435,2.7109375
-0.597672623118356,0.36102059109922546,3.065003228994029,0.1990023637170022,0.08783262200578008,1.587645215370277,-3.2182407494190435,-4.163061097910489,2.870101238014056,-9.233299126027273,5.180626544693733,5.609113058429848,-0.8445862921725178,-0.8982184259379777,2.71875
1.1318378136598148,-3.2717782937300215,1.2445550079890897,1.8457270566820163,0.0718403258043733,0.6805201369249594,-4.329014064837809,1.272553253415865,2.531166381426797,-7.626567002191234,5.230493162666334,4.242211596807037,-1.6622247751387402,-1.3535613703130764,2.7265625
1.8041291801697996,-3.4856811752459578,-1.2744057606282493,1.6671518857602348,0.12601189370432206,-1.2797159693456748,-4.0708871655525165,7.4826213127846515,0.625833208168577,-5.702758493472727,2.5409973676764537,3.378137430197307,-0.066964233887723,-1.7383785416791653,2.734375
0.6590308532873523,-0.9272312517541416,0.7618515306600406,-1.741961866897897,0.10277846436392463,-1.5578397479418022,-1.6381957848158928,6.0789105279233056,0.4269502888267465,-4.162100214782404,-0.5879903282083017,2.9678668544667293,0.7332838872333375,-1.1118520707573882,2.7421875
-0.9071190332679213,0.898687867960084,3.315039432268852,-4.24798399732019,-0.21976556643963116,-0.5554892035001197,3.7528590534927857,-0.32471081093108833,-0.1570667118184203,-0.5274333325807713,-3.1620757555815073,1.0950706504719976,0.7059600350744499,0.33515424205088695,2.75
-1.3568219415796017,0.19904046809582723,1.386090452253556,-2.193750878567137,-0.6632783358439591,0.1757766687587494,9.194857639687983,-5.031751486861477,-2.3896494898311613,4.118323130991934,-4.5471132785086,-1.721840838690841,1.382546753688459,1.4453644044887248,2.7578125
-0.6610761180032019,-1.8240384239186604,-0.7628693808788353,0.69063351668515,-0.7591646169692304,0.6436615574615733,9.773397872818688,-6.019871498448807,-2.620097254432361,6.2730961146189745,-4.194136353802685,-3.444320353960856,1.208028495313065,1.6913008885405432,2.765625
0.1653705577695969,-2.393277798372359,0.5656666754664477,0.34323276190137536,-0.3573814266719226,0.9093084555588392,4.649953014906732,-3.7836170707481065,0.25250119559415046,5.3003778674358415,-2.369493679010292,-3.48485116203824,-1.0676223050852065,1.2638145970713988,2.7734375
0.24662794625553447,0.25943625882257565,0.07672693966416191,0.05133783299934934,0.20355863331081053,0.39362113500209417,-1.6094141467406768,-0.062146472273793066,1.974661925469441,3.205687396115152,-0.11777406036467016,-2.5764806480284608,-2.498714173339793,0.4487643468495375,2.78125
-0.21078847941057471,3.75296518760676,-4.404101421555971,2.9228780192245853,0.5467303317043286,-0.20685959296500836,-4.938033981017144,1.264281447850593,1.1453105421423029,1.182853123748077,1.630503117023909,-1.3503595814467033,-1.0629733023065544,-0.2745413728851675,2.7890625
-0.006728314283456682,3.2917211609394994,-5.545175783173829,5.093728554664809,0.609482390705768,0.36469299111630377,-6.367986107718882,-0.21058542514499656,1.360291158323451,-0.8676039433997031,3.3740011912417036,-0.2460203053188221,-0.2716848575313043,-0.578909193387087,2.796875
1.1496159606299448,-0.988477499204954,-0.8076009107224016,3.54151559227691,0.5023799491688727,1.3403125708019548,-8.100512463762232,0.26709294150080104,3.2149582932016876,-2.736666169414993,6.199928547708744,0.4176869264357,-3.1975316648982735,-0.8019375911559019,2.8046875
1.5329542012738089,-3.020961536830003,2.616091935506866,0.9183314653019398,0.25101761279140394,1.0644661409850413,-7.563717935136797,3.064505232389442,2.716507773631358,-3.410721235089853,7.882942259365302,0.8118097926673992,-5.833000156244727,-1.027943103447278,2.8125
0.013327119324405633,-0.443041236769699,2.1785702429368463,-1.644102356299031,-0.16134893843833453,-0.32618263609325143,-0.8832265102439111,2.823845555971553,-1.134670064714831,-2.3152881749067005,3.4801835291955077,1.4059689020511537,-2.4011748782733933,-0.5890044426626543,2.8203125
-1.4990947377854424,1.3269396841162329,2.6107021082547623,-5.369626573515646,-0.5751189727859287,-1.6958696095993728,8.430823856921615,0.27700510821171803,-4.232171509723936,-0.716352191623818,-6.03993116347431,2.268501013423311,4.867905366710553,0.35304663280724224,2.828125
-0.8785465653708134,-0.9309120704056044,3.3546450541650907,-6.810111493262394,-0.6467173559420036,-2.429898127553108,11.151043901583643,1.4169034270117897,-3.559583222420609,-0.2275777295687649,-11.265786869872324,2.5177332749275445,7.785464009136588,0.5327223056642487,2.8359375
0.5880396778359018,-2.285586591425966,0.49279621937193413,-2.5762214700250174,-0.20233780301717835,-1.8245725650774063,4.506360649105484,3.750875507271735,-0.8460783162885664,0.34689531060392303,-6.9330593410120676,0.8239284426983853,4.180143397467177,-0.014839216606042212,2.84375
0.5725984128770855,0.6058116737685264,-1.9645435422958333,1.6686309025759443,0.3962058370203731,0.24933321385478546,-3.410761439922362,0.21982392331483278,0.2931109031236679,3.1946369199175813,-0.30227886971889695,-2.456235138966346,0.721190145682707,0.20908188636877365,2.8515625
-0.27654602644847825,2.7283940546949648,0.6671030042341953,0.17258006708705972,0.5133810866536915,1.8207621774262648,-4.436747065051437,-5.150378875681948,-1.1491919885581356,6.181877505800119,0.7807323756713648,-4.42807783934234,1.4317688056476938,1.1321613971203515,2.859375
-0.20089652159749294,0.4775679863069466,2.343362624389702,-1.396048884162274,0.06840148946521196,1.2622544042575963,-0.3882615764436439,-4.044760837891474,-2.172570006642773,4.739762985993294,-0.2809074160039413,-3.028229279928725,1.5768168710434294,1.030538826866325,2.8671875
0.06339525118767689,-1.0091381657103942,-2.514177055407041,3.0637407061437805,-0.26153965864490547,0.21742228066952635,1.5078313745552927,-0.5577247799779875,0.16730614735384905,-0.4670428445614464,2.27178863033621,-0.06531403581333238,-2.2985988958457595,-0.12598505293393325,2.875
-0.736508333679947,1.9954087123627529,-6.694313216518694,7.133133107533198,-0.045799949439928364,0.5657191802923129,-0.7077648412779983,-2.1145459295159066,3.588747429000348,-4.268839576721482,5.434050132741806,1.74454962638366,-5.20493470595683,-0.6916981664907645,2.8828125
-1.256785880448712,3.7648500834506526,-2.887239869365085,3.517075008826672,0.20993888728160265,0.9006547970485378,-2.622915949713755,-3.4562365937208357,3.3542644393334213,-5.1973722005202765,4.499441785531022,2.708399627030066,-2.9685352789318866,-0.563035196314794,2.890625
-0.12911121080806998,-0.11750072194101292,3.1278640174711367,-2.39713927554416,-0.0022223491559876115,-0.2827077140249563,-1.5390744393747862,1.7005022985102713,0.030524814242989015,-5.846761123754184,1.9022474195374746,4.017695264139996,0.4398915617661498,-0.8957288162436124,2.8984375
1.0058336445065763,-3.6570316360864825,3.6286623637245787,-2.9334213063421823,-0.24419547016559967,-1.2523440558909442,-0.26017820922328155,5.99636512010721,-1.334931901864781,-6.335164934423319,1.234175642841947,4.541732284340346,0.9721075027424441,-1.3503096756932442,2.90625
0.5538822323722661,-1.5410749786350455,0.9792803847742698,-0.3888069997890893,0.008994343193075663,-0.46809581145456614,-1.4516512669208201,2.6652585524170265,0.5402945032489904,-4.66524294635369,1.1661380092981042,3.0634996517215765,0.46060035291227003,-0.9144914119058425,2.9140625
0.09793856872625797,0.6569223697550177,-0.3239340134790632,0.7671154860639865,0.30883402011728855,0.4369995312684126,-2.602492743107641,-1.0120590497517616,2.2872063822266515,-1.246445227286465,0.022884508429548263,0.5326375423816622,0.20688157891526882,-0.12872857256924328,2.921875
1.0994854162190184,-2.4717634076965833,-1.3477176948285197,1.5968709844127689,0.06484546521850082,0.04013598151603825,-0.09418647362742522,1.0336028839244376,2.0860729978145858,2.9884708747387214,-1.662469135804701,-2.3572836421283023,-1.271790220191657,0.29520500948628475,2.9296875
1.713537973653545,-5.128945242648325,-2.2722185563757034,1.8606180357188262,-0.3342251868849552,-0.44278558888407665,4.352485354055136,2.3573348267271634,0.4425249135803102,8.631169353868222,-4.001042764007154,-5.904289155663023,-2.314981307279474,1.0354066296121904,2.9375
0.22205337193543573,-1.1422180643143809,0.134179462790389,-1.785081012716333,-0.2863485286566069,-0.08856718235664023,5.801722135738901,-1.0927163732175509,-2.4577254774988355,13.212859439766387,-6.042760973883788,-8.26562285951915,-0.37477451007819984,2.1557344356962407,2.9453125
-1.6161406119798094,4.295258290331447,4.367647930977943,-6.586568443297775,-0.042844054343948994,0.1994583168778406,3.4579649566724178,-3.1228261780504343,-4.7042893605315825,11.382564171471724,-4.499793894207816,-6.55109076443393,1.21773197526533,2.1952769587680465,2.953125
-1.656632999037013,4.169974430882331,4.040938448348458,-5.216202509626373,-0.05049177834241119,0.049983649105536994,1.1511240638749316,-1.3542909972936228,-2.7737237380090307,3.5638594480815797,-0.07372963890270448,-1.8289152368554646,-0.8700163291978514,0.8459874956822424,2.9609375
-0.593966981660369,0.9119058105302514,-1.2371409603320735,1.4559447874339475,-0.10207994470300037,0.08377736589603979,0.6036151650348072,-0.8019295066166715,1.8641547315823688,-3.437398866149188,1.9016046622395755,2.009873005893184,-2.2654092454923864,-0.3921074898351427,2.96875
0.17591302549049218,-0.5479104292023663,-4.075723538316812,4.754186476292374,0.07386689449259336,0.11238645069432832,-0.8780350824039052,-1.1151288083151905,2.923740856233994,-6.670439964015797,1.217578328300742,4.0609273811805595,0.9641230497091409,-0.9947294969423733,2.9765625
0.5797805960734953,-0.6869283366550959,-0.7743603755343501,1.8555104386453485,0.2522133168136898,-0.20796089614960037,-4.555448150876501,1.572478361848096,-0.4902300448748434,-9.08745132348811,2.9278848756727416,6.000605971769548,4.3043196629244775,-1.6876764763370107,2.984375
0.3934402658102387,-0.27685001186436364,3.093103772860111,-1.1622285830255188,0.2580738616345183,-0.06251836741280797,-6.659647345420503,2.713903966940663,-2.1151656198227395,-10.947755386995386,5.842504911841082,7.260713645802615,3.702824207916403,-2.0333441928605875,2.9921875
-0.6781965814593677,1.831823383210598,1.417539536183285,0.138080974438429,0.23179396101281144,0.6976492999179532,-3.8550121735577014,-2.319059694404345,0.3982772093069251,-8.829368860454442,3.735607395602393,5.809257745573127,2.555537870958424,-1.1256896839858104,3.0
-1.0746087450024184,2.884582224311707,-3.598722273392121,3.0106988827038625,0.17425229716140833,0.4510061127989102,0.7960597975701122,-4.972465516881294,1.842205251267005,-3.01615400585724,-1.8236789532424182,2.180116012621534,3.1400880171235452,0.010618723246393387,3.0078125
0.6000386749391816,-0.5451928593064701,-5.123286672948036,3.009692060711283,0.018074614457043833,-1.138114029516166,1.6613574059110656,2.2922631791793613,-0.6393754997606688,2.763514464595929,-3.4334113108718785,-1.610540275293354,2.1041029989579503,0.038423316572491706,3.015625
2.231867233896584,-4.068782271267662,-1.4344553658341932,0.1473197176030058,-0.027436140430549205,-1.5295038383817092,-1.0055459301852763,8.525860407757266,-2.5631318839456565,7.283272334205955,-0.9666773816816581,-5.028801334424784,-1.5981931520686983,0.026748723565040964,3.0234375
1.0865861429125119,-1.7639709704502666,2.3300923670808125,-1.7983517874652462,0.11252417649227651,0.6222756605494524,-1.5952358599873344,1.5684394923461782,0.21730756563987597,10.287182559747148,-0.06542078149362135,-7.455771852669774,-4.850237552051941,1.2954176742481687,3.03125
-1.3142250100235031,2.687666623905118,1.9489731885316344,-0.8645040861819113,0.08598246812738206,2.4036523736649245,1.8139302434130777,-8.432981246178274,4.8991788008128925,8.819705654633463,-1.2248029800663922,-6.567133033158536,-6.576892349808683,2.3144282158522933,3.0390625
-1.6365698275878036,2.326968119482288,-0.42310973814755787,0.2761693591905768,-0.25289884931763423,0.8519282265861189,4.943790774390979,-5.132680296974251,5.455518443597055,2.020791029851463,-1.247220640136617,-1.7259899248431716,-6.593634670166311,1.1343932561884156,3.046875
-0.25233128585760467,-1.268246444087795,-0.3349282707364441,-1.161589906545552,-0.5582218463356021,-1.9549332439753173,4.99312494228137,5.270898868153248,0.3202733484596834,-4.55950514523312,-0.42602538154206,3.4198158435712784,-2.604647733689521,-0.8820745467350838,3.0546875
0.17303612946599692,-2.4949751638055937,2.461710231796248,-3.3261235026356326,-0.5969183908688744,-1.9602935927752054,4.013321972440029,5.480373423322101,-5.447119278040679,-5.418796028042441,-0.20325946307583453,4.7364238478947325,3.7223159973526214,-1.135143318791177,3.0625
-0.3033893661509093,-1.5408740740369538,4.263255390981647,-3.0114652616190085,-0.43169146813029174,0.32173898050131683,2.808031606772808,-2.2620769236213047,-6.055330341270992,-2.2807587067459294,0.4472211869974496,2.5078863130129943,5.575567182023344,-0.031203517475201406,3.0703125
0.2932597864149026,-1.626346116681948,2.6570276584218133,-0.6110986249026837,-0.07394964678791731,1.080891638412474,-0.7400401908983728,-2.633492934787775,-1.9985659208916422,-0.44525814005175934,1.6509203579086955,0.3431759869814436,1.9811076160301502,0.130443449006116,3.078125
1.5940915428848634,-2.410798593984522,-0.7470581928443821,1.7648704254974439,0.34998459938311005,-0.021291856492140306,-5.043422281012642,3.3318785650616984,1.5116310479428958,-1.1917484855702558,1.619893264563144,0.16034100780202862,-0.18993335647109968,-0.7219285230217147,3.0859375
1.4296676654379215,-1.4596116342910461,-2.6882466266195424,3.1853843267227306,0.4859958896076068,-0.010838139921244463,-5.226085857929378,2.1848397758328053,2.1445131872548715,-1.4527867084341615,0.42377548503316115,0.3805128977375698,1.3080970455927585,-0.702712169782473,3.09375
-0.2821939696717289,1.754402126466364,-2.1589736105588218,2.61789390404323,0.3531601894779987,1.1078251840107247,-2.0995282492612857,-4.425966723186641,1.8117123344245607,0.6450591344831565,-0.3896269899405612,-0.7325468076495106,1.4306377587071228,0.3664893967370776,3.1015625
-1.4389983548607883,5.128483220939672,-1.129611915740063,-0.0784205950403524,0.35815250017842926,0.6041946421126602,-1.223298280488243,-3.6623162903996573,1.6658153012021666,2.842883800099614,-0.7594149167789521,-2.013751159340084,-1.060687935706792,0.7625816761327573,3.109375
-1.0839438715437815,5.425306564688908,-1.3652800595536179,-1.527564573257149,0.44628973422355606,-0.918529642212979,-2.4118224342828,2.2150757830900014,1.3565730141200918,2.2966432961553194,-1.1089435531539535,-1.546560031730024,-1.9194392518798102,0.13608130603874255,3.1171875
-0.2637560735434652,1.8831843556617878,-1.780821013887795,0.4852178466719266,0.21834840214002238,-0.46424102309572135,-0.9325741866465835,0.9462561526034965,1.4042589786021014,0.4427275369397938,-1.0642675382450895,-0.36310082619737205,-0.4752528022540069,-0.043311286391337835,3.125
0.23143541569826526,-1.8246945809694817,-0.4845823210719377,2.003597045980476,-0.12613165617261,1.1306140029216387,1.683307655992419,-4.121906616555396,1.2527729125367824,0.9763712729731744,-0.5793350915565545,-0.8487110253725776,0.16419264058739283,0.5362375824986851,3.1328125
0.654137001094237,-2.355568048568283,1.4685329584318556,-0.1884016885392913,-0.1315418104692738,0.6812611466885026,0.47806902339128016,-1.036791508568363,-1.2641659948591935,2.9932757495463025,0.2942406485347201,-2.076014712572034,-0.014406103095587187,0.49373362616158023,3.140625
0.7323064359124182,-1.034863444968824,1.136261062832892,-1.9328902271745956,-0.06881139734102179,-1.1459676969954253,-1.3842052435818244,5.62370152040563,-4.506306849057406,1.2623791592511542,1.4456952451862966,-0.5580878839531463,0.9187720996357432,-0.4873948536654346,3.1484375
-0.2954894694440559,0.0198498471732821,-1.3824176072102716,0.03772847987362341,-0.35665296151442294,-1.5794057319406027,2.211163354710575,3.8611723982258384,-3.678573848061596,-4.964990658859216,1.2060671619641299,3.9200470258812063,2.116105222992006,-1.1109253854439187,3.15625
-1.637184751470328,1.1655575666784943,-2.2451680695272485,1.0833966483462678,-0.6046829746124724,-1.101944837018394,6.963656445792818,-1.4223668678094474,0.08730324306169937,-9.303163873994178,-0.9655505119388521,7.008894402434781,1.9053994963418788,-0.9283641305819313,3.1640625
-1.4089640801345704,1.582192421510277,0.4594262205298018,-1.7736198537143972,-0.38407788509138424,-1.203174053071321,4.68869571754803,0.5147072515779102,0.5105554883000737,-7.125916024728433,-1.2470196521700743,5.474077631623958,0.6529575187517538,-0.732719875620964,3.171875
0.29001438999699053,-0.9147804853168083,3.351323123998936,-2.9803025909035408,-0.10873289281850039,-0.5064104500955934,-1.1895020065870419,3.6004066320084913,-2.1155682997546847,-1.363711682714621,2.2981937610655248,1.004690657724312,-0.8578401423251192,-0.5019686554308153,3.1796875
1.3918598854909876,-4.479410538743931,2.8732829003336096,0.6904930250251118,-0.1416737587024287,1.7636833247115156,-1.8514260190776723,-1.7722889319188209,-1.203028843489185,3.3245265589805824,3.9512861533727173,-2.9212494121688763,-2.092117577237044,0.4676209011651003,3.1875
1.3128090243632955,-4.920948007687198,0.9503408398169114,3.156153147078025,-0.04002491730189608,2.970032374732183,0.5474667700234497,-7.735446306455892,3.471885563328268,6.268914040299298,-0.43455998908295845,-5.094654203002986,-2.041593441436545,1.5874301389873258,3.1953125
1.3316114501225145,-2.6396809285665537,1.3490983111581005,0.30998275236723377,0.455051163738382,1.7192048295918676,-1.69829515350431,-4.018055836343211,5.668559944028125,7.691999443149287,-4.84841953053753,-5.769213977248017,-1.1375283387743487,1.5824516570309886,3.203125
1.3997522412207655,-0.6009337198307549,2.6652221772542655,-2.586107274798246,0.7692474464711053,0.33344514597134556,-5.943549468716127,2.2058690574247035,4.2741433151575645,6.0665426237966775,-3.411429293111297,-4.587981839607107,-1.2849234854115765,0.6974116359054703,3.2109375
0.1861425619491531,1.679201819912783,0.6597757998304414,-1.0655993780433228,0.5010324769999298,0.10257513313068263,-4.218122442118989,1.2732164933024206,2.7680999727127107,2.1126414443854395,-0.38231341346072095,-1.8537594689792642,-1.92909368328972,0.1627919602141546,3.21875
-1.6366667202164797,4.862966899158367,-3.6330374169179254,1.3256799190885948,0.03846554002470622,-0.5239676113740501,1.4631979870894696,-1.2579303464377316,0.32204878090380223,-0.2245374237660662,-0.30390070144510106,0.3045795754677031,-0.8192623320090915,0.08035926079904143,3.2265625
-1.9526242660497406,5.656075058687505,-4.88909925819039,0.9866405164181078,-0.23224831816722288,-1.7123186170800369,3.1499292435337765,1.7549875318983554,-4.687696692537208,-0.1795583537079081,0.6945112087352944,0.8362787301780109,0.8842631124479727,-0.30831466914913985,3.234375
-0.9038333476929856,2.6625431861587328,-2.434837799367355,0.10985461292097598,-0.37595533583147145,-1.7332666924022098,1.0818667093863004,4.904161326126902,-7.487380311186811,-1.6854767141995675,4.444726006847425,1.6790554079174318,0.7007771445633606,-0.9597370722984222,3.2421875
-0.3645075785668313,0.06545918422086423,-1.0227546335259288,0.7672718723379798,-0.39216841441963035,-0.932474606632225,0.942352862813546,2.9355444827429014,-4.146046528351079,-5.3603355657293426,4.41398342760448,3.819249235790072,0.46596010665850746,-1.1894056623193974,3.25
-0.39486395302738886,0.2674592431986735,-1.95870283804407,1.0261575937643328,-0.13687588536237677,-0.9911129041741388,2.062052679494845,0.9461580946165589,0.6483009857447012,-6.190806184729421,-1.2114484542185724,4.5381005520466315,2.287554666214876,-0.891100238922822,3.2578125
0.1338429232329892,0.24249243369105106,-1.088502495335978,-0.24003154178279876,0.18689049100922073,-0.9961240929520221,0.11229767227451674,1.7625980040681408,1.8438381832791595,-2.9028204536241895,-3.659740796649242,2.3034267085418367,2.774327896150513,-0.47330880289873295,3.265625
0.6041629630704798,-1.3181556410442803,2.5782620028480117,-0.9137498565180154,0.21385645954139368,0.7757694866138231,-2.8736068003450432,-0.6392923157344893,1.6468025486416973,-0.9148613438561186,0.7685301315974331,0.2794390338157685,-0.14788632276728766,-0.061571626105878526,3.2734375
0.07767328891906214,-1.9035660771891745,4.190495223411038,0.07780767744154037,0.017732388620006544,2.6708119005709086,-1.6805210508007713,-7.102239156264152,2.377262106420045,-1.8484853006476853,2.996946537889979,0.6180274045629042,-0.9466739068790379,0.45283165529885316,3.28125
-0.023721242879917094,-2.0570620752145983,1.8692996251252225,0.8143189599254017,-0.07732468692653444,2.0429093655619246,2.15492887290519,-8.2660820747056,1.5282594857295824,-0.3593639939630203,-2.273074870437982,0.36234389360035657,3.4220162827172045,0.8624207194712528,3.2890625
1.4676753173374577,-4.456527952884428,0.3102508212450043,-0.02983191769273261,-0.07375071844922428,0.006489734627398967,2.667021778013436,-0.7739097468103353,-1.2429601691594023,4.1048641197379725,-6.008642478467025,-2.1400846718701376,5.449086208355934,0.7203472392195868,3.296875
2.258890554044249,-5.751301335404699,1.9492588586701378,-1.2123349584115677,-0.1352775571367512,-0.572409744339157,-0.4115561980175475,5.438365913948036,-1.904844204135125,4.556013912731578,-0.8651962063535533,-3.114722329712777,-0.31601895839160105,0.07964485943998285,3.3046875
0.19048021244401012,-0.5096574554418913,2.2836533118290596,-1.3201283455708883,-0.09997489225857573,0.09002403888594546,-1.9373369935980183,3.0063723667960467,0.5384274740730915,0.25768319292658143,4.77133812008722,-0.8516162776563847,-6.159608903426345,-0.2607929622838641,3.3125
-2.2533478340556683,6.961331742510683,-1.4083847482456924,-0.6454519169135874,0.24515741171504077,-0.1227829401127903,-0.6056141103138657,-1.7013291884968296,2.8665650267214473,-0.6068420429209745,0.9753129337948024,0.20655644848696192,-4.094703915307527,0.18559241690789446,3.3203125
-1.5697023802150885,6.9242959676409015,-4.180937277805101,-0.12394903650579218,0.5726459688763956,-1.0742889554140997,-0.2900014631186475,-0.2592654674855681,3.373569201991931,3.369009413244392,-5.630697997161845,-1.9572308236618627,0.2375716636698813,0.6138149918698756,3.328125
0.8640927083258773,-0.058340343990522875,-1.917000591450634,0.1460374924906094,0.3195030591596419,-1.0629655163082152,-1.922652176218192,4.637820194643608,1.7589612400385208,3.7245076315887147,-2.477193340016633,-2.6945388688347918,-1.3567640285820965,0.04353996211880094,3.3359375
