AF3,AF4,F3,F4,F7,F8,FC5,FC6,O1,O2,P7,P8,T7,T8,time
-0.17998353514753326,-1.027822291972309,0.6755031955535001,0.8480913084852008,-0.653441353689505,-1.6719767337920108,1.8655599558374474,0.1909858948014819,-0.15758973124005415,-0.09170392320428124,0.12841968490203265,0.0527332948945379,-0.066799436235664,0.09051040117365118,0.0
0.994124176199766,-1.2216105206185242,-0.7152038694343539,1.4351562875197486,0.1715682473516514,-0.4255552750682583,0.11321967315046623,0.01716981717366466,0.08567597035001946,-0.1188724055267769,0.15030302405525733,0.34962884931408844,-0.3397578874970891,-0.4923423477456102,0.0078125
0.24228205338650222,0.49013499182862497,-0.5173606957769032,-0.34370113486779386,0.43493939562790407,0.9979108436363491,-1.1583030144826028,-0.12002566114897405,0.11193739635989415,0.040411088380227854,-0.06368661441184274,0.01212394991817245,-0.004398832763280076,-0.12029606594095062,0.015625
0.2947387230531885,0.7983292266902373,-0.7200510272341833,-0.5979802935335798,0.6309446280107842,1.4993616418057376,-1.7174535274827163,-0.17772453119994822,0.1592998950601687,0.06767610190314301,-0.10269290273221522,-0.005466302898857575,0.016272106774848687,-0.14657932353111908,0.0234375
2.2525967984381348,-1.0132087046153901,-2.393343979495621,1.6957492776342382,1.266306050494929,1.4986753940645692,-2.400185058643363,-0.23510982287833895,0.3946482379838695,-0.1105753199124157,0.12109821672314453,0.6259368880846365,-0.5881808711831513,-1.1177078637345346,0.03125
2.524352580272041,-1.6784138533074429,-2.4447486141100576,2.3803433281835193,1.1482919529335152,0.9193744333340894,-1.8705967685654878,-0.17825689242576473,0.3801289884886501,-0.17262795226992414,0.20430165267491818,0.7534454127783761,-0.7145041523678438,-1.252988802717237,0.0390625
-0.6198069965842733,-0.19099413567647372,0.8628228368720697,-0.04841289435938282,-0.5806129212750608,-1.0681523760483256,1.368650871009953,0.1363717674867263,-0.16053968855575337,-0.013556909666551315,0.02400790298399644,-0.12786839407771966,0.11192647562223124,0.3072439798298707,0.046875
-3.3856925974675858,0.6692066144001219,3.9700885105135053,-1.7924132637225842,-2.3265780946133745,-3.4452543428516793,4.89585530716595,0.4835210437951415,-0.6882155536521761,0.08691443750937032,-0.07818349103218071,-0.8634351655569334,0.7938242348992406,1.6821375256706792,0.0546875
-2.5345330294615067,0.053800480249904165,3.169304984791922,-0.9501917711386099,-1.9659504937941326,-3.2062812849510687,4.341718666786463,0.4318662358435641,-0.566729814231754,0.025161612094653167,-0.002657625338476345,-0.6061648420286412,0.5486177400027538,1.2614092332720905,0.0625
-0.013449434179804851,0.17297053157723621,-0.05859121677858861,-0.15873791725777422,0.07678899163247213,0.22560212888749992,-0.23662191920484846,-0.02610288883938588,0.01797761800156248,0.014184265485213558,-0.023326428704230986,-0.019784094812556673,0.01884682893051677,0.007297942776072252,0.0703125
1.0659053981624254,1.1975058265756633,-1.8691498220976186,-0.6753016701234716,1.4395721557445285,3.0602905554176623,-3.6689480949076194,-0.37502412228072957,0.3807891674545763,0.09596204397866825,-0.15472278812007587,0.1420796435739334,-0.10911516247898051,-0.5325449087718751,0.078125
0.7170290734230631,0.9664408741966168,-1.3284357985927513,-0.5938394153666147,1.049713533916517,2.2845879245517775,-2.711592957650594,-0.2780208215801031,0.2751852454702766,0.07839642437150791,-0.12485440991008648,0.08050858092302131,-0.057303948539809885,-0.3585387585289566,0.0859375
0.3070874956882638,-0.21780375341346267,-0.2904610853406465,0.3045391235180773,0.1331008152386037,0.09165459706514612,-0.20466551430311075,-0.020568333691576575,0.04543437953933922,-0.023340488975741418,0.0251275299464843,0.09193389648798078,-0.08927495720633064,-0.15128791026515717,0.09375
-0.02374883345897835,-0.005402478251180306,0.034052876864057696,0.0006405954412695934,-0.021872354354664787,-0.04086273700765508,0.053995357793236644,0.003983258516058876,-0.005321278175838422,-0.0015980178505295062,-0.0008164129663100504,-0.005662201650761398,0.0030615999313995425,0.012679020516753726,0.1015625
-0.4600119803487002,1.2136242588024657,0.047163469419057164,-1.2282345030054789,0.2459649655700391,1.1039583150426238,-1.0279464813510264,-0.1113661561635518,0.036591753885143956,0.11053705740932658,-0.15312887941539996,-0.22050295905434347,0.2204549509882368,0.22580353404993178,0.109375
-0.5066092883276482,1.0036299532312112,0.19711919703453398,-1.0621091911782352,0.10493159128880464,0.7508657293723026,-0.6313096478999854,-0.07049348560252723,0.0020180370968016803,0.09235205184316325,-0.12647233896575463,-0.21263890053726564,0.20990612481993295,0.24928089343232437,0.1171875
-0.056295115195601396,-0.4358475708428933,0.2634356926848887,0.36329519526487586,-0.2625454873445907,-0.684986125520012,0.7596998496054788,0.07703905034271874,-0.06222243424600784,-0.03939586507297706,0.05365474993417625,0.025264104635122183,-0.03231139376805651,0.029996833916747484,0.125
0.3383689642610021,-0.9680817484898948,0.0012130741844784158,0.9735145061075651,-0.21912568010819852,-0.921429194234072,0.877122128106253,0.09194949567973232,-0.03424216509981081,-0.09026536122582651,0.11965932935835118,0.16802343079303805,-0.17197399779748915,-0.16448184875795266,0.1328125
0.7120887689370341,-0.7560450263047246,-0.565096566713965,0.9239755997175915,0.18358303006566726,-0.13707477354280798,-0.09963325822939738,-0.0068667420105805775,0.07576698606227061,-0.07508482472669015,0.09216647304983656,0.2394419901528868,-0.23251056814289814,-0.3527235023693585,0.140625
1.4703918929875939,-1.3841716903240722,-1.2478874071044324,1.7487143964785183,0.4686717832439141,-0.030388536230613678,-0.48033479194324785,-0.04113031346570028,0.17606756981049768,-0.13769990496111695,0.16961691702829113,0.4784422967547592,-0.45977817298297596,-0.7303234147801041,0.1484375
1.7386967677521175,-1.895175146067813,-1.3604330513649536,2.290528774780407,0.422728825910302,-0.3997699638734139,-0.17544978999376018,-0.00761732930921116,0.17745638148794676,-0.1850450446694769,0.23326565160045298,0.5873127815190323,-0.5680549944923479,-0.8613284862109658,0.15625
0.06095436323983354,-0.22150022024795288,0.02223857852095337,0.2148955083075373,-0.0632480661449339,-0.232421235648232,0.23097141753711348,0.022976178044699737,-0.01102714215090734,-0.021221663354422066,0.02616249297526141,0.03286372350031056,-0.03629895319762713,-0.027862770796040846,0.1640625
-2.6593951105992515,2.216444355460454,2.3788110280863686,-2.9000044831091953,-0.983656619970909,-0.34025709901548173,1.2968722666333568,0.11483432151005799,-0.34650445835599314,0.21885413710206322,-0.2746978092408938,-0.8362962396718874,0.7956970409859003,1.3195987877870146,0.171875
-3.293555475017102,1.9253825719046278,3.300724557386426,-2.8651618456963686,-1.6247916552746453,-1.564544771379379,2.8369177866896544,0.2703256556620167,-0.5225454407293962,0.19772468726742595,-0.2365333890370483,-0.9572017816029974,0.9015644415364363,1.6326176390225917,0.1796875
-0.8563317925911237,-0.7977934855222302,1.424088154639887,0.40251528939385184,-1.0687528869339973,-2.2215605568517143,2.694188314885108,0.27232184876063414,-0.2836534419675531,-0.065659406746017,0.10090813951143048,-0.12745311598273487,0.10108680274269738,0.42514853122833957,0.1875
1.6118799577932443,-1.8756840343200614,-1.2072289788344777,2.2274413607067465,0.3302763168603265,-0.5400044766769053,0.021184410833545702,0.011859888263776507,0.15022654846793126,-0.1820889260026078,0.23099614120985038,0.5549303668942509,-0.538169011090926,-0.797407926296861,0.1953125
1.468740211637368,0.024496589000755582,-1.8561819649923077,0.50000255441528,1.1651800850431207,1.9321801273933714,-2.5929937466375477,-0.26050010686840075,0.33553778529233436,-0.011153867562017493,-0.008069939243051485,0.34342483616340524,-0.31388530712495005,-0.7274048664448938,0.203125
0.3427820904862988,1.3608570641352955,-1.0258569285945052,-1.0757110312552896,0.9493538816543234,2.347733823281793,-2.648712914381598,-0.27403775595997365,0.2347553635252253,0.11720206810223532,-0.1737957591230571,-0.04634259442299806,0.06358882437853677,-0.1710266695857229,0.2109375
0.8427030308727947,-0.1460495578062748,-0.9982362499967297,0.4339073203961378,0.591953983080356,0.8875298001571045,-1.2499779240194733,-0.12538884274274528,0.17558693622295135,-0.021869442026498428,0.015064379200804669,0.21360703271010784,-0.1977168545534895,-0.4193310816041877,0.21875
1.8194891486588007,-1.5114883848911111,-1.629356163951734,1.9842841401523441,0.6775324578842519,0.23927166066683028,-0.8914823848613018,-0.08145821937555206,0.23985957386097495,-0.15195324869029186,0.18505187569573203,0.5723998138841263,-0.5469104591128618,-0.9030830176028743,0.2265625
0.684194459804077,0.25633118019901907,-0.9724829145288842,0.018443514686040288,0.6667944106342889,1.2437088230109872,-1.5771130490713479,-0.16047726088695558,0.18557940780035798,0.015583612530801809,-0.035039067716034114,0.13884719649725524,-0.12304364026404263,-0.3404421651335361,0.234375
-1.5234632115836277,2.6896211074821745,0.7400028160110242,-2.9128054607523666,0.14717877335209364,1.7948187446125958,-1.4013025342460128,-0.15743898068019105,-0.03462688504600701,0.2514523158336847,-0.3367169363734781,-0.6108476240059563,0.5994633570635707,0.7534942716292684,0.2421875
-1.83890155975334,2.0182538633632965,1.4285481691835762,-2.4301106587190056,-0.43470896656634034,0.44860730894464446,0.15868546833622074,0.0023450596881621714,-0.18284761651265727,0.19414060525096935,-0.2515278106254083,-0.6233892672885721,0.5994507164883442,0.9104722968841745,0.25
-0.741765512438675,-0.2714459790519153,1.0500621452350363,-0.01911289863963539,-0.7158636663925116,-1.3379399499840814,1.7015766070528855,0.17007637220179347,-0.1974197465081018,-0.01956883176765195,0.034487737373509145,-0.1500016808854702,0.13052411698061364,0.36793924139943696,0.2578125
-1.0249283749884384,-0.33984566263292537,1.4386943964675856,-0.061321640399442046,-0.9739617790704437,-1.8020227394734534,2.3014867729887634,0.2303999151374356,-0.2695971032466802,-0.02327999677352123,0.04374877642197225,-0.20986600269138656,0.18380924653125544,0.5092728478531903,0.265625
-2.2052699403766263,0.9268000332578883,2.3715678950506716,-1.6010760883307615,-1.2705329488990411,-1.5569528029010136,2.449313849446558,0.23763651947306436,-0.3917103065831589,0.10001007363027684,-0.11333618699672056,-0.607996314599,0.5664232502604367,1.0954767482613623,0.2734375
-1.0477630916988334,-0.303387415289094,1.4538080229504697,-0.10630295075403179,-0.9760772103736645,-1.7819487853968783,2.287442999191122,0.2288490279042773,-0.2714972225072352,-0.019129656777870156,0.03882976915815954,-0.22202375771353455,0.1934262273517374,0.5233520656886462,0.28125
2.4948048153005127,-3.5403079669564974,-1.588066343978162,4.0077859460915555,0.1917049208654818,-1.7299932048830262,0.9953805077350195,0.1191415624978031,0.15846396256692982,-0.33784022563919774,0.43860985531149005,0.9164411847138239,-0.8968105554463017,-1.2324597173778171,0.2890625
4.424878624176527,-4.423392711808309,-3.632025712090671,5.474230865222557,1.269155125458122,-0.46730081601288265,-1.0388309251129781,-0.07875515638483194,0.49447193261785716,-0.433338347299163,0.5456303950686339,1.457141100325709,-1.402256452524332,-2.191706053820448,0.296875
2.4090059507962165,-1.612908023766683,-2.3268491323595804,2.2816031779419066,1.0899840286509341,0.8611374174829562,-1.7676275278261162,-0.16833113368569802,0.3615817045351875,-0.16584191436359969,0.19621353736095717,0.7209182475642292,-0.6839058732636499,-1.1951775386229115,0.3046875
-0.9921479945616234,1.7477601865370849,0.48288991942391163,-1.8897742854529727,0.09475917534222354,1.164397088133702,-0.9078152395452512,-0.1025390471352829,-0.022449408417217504,0.1628493738378066,-0.21942583681496225,-0.3963568222810078,0.3892272333654332,0.4903557704134016,0.3125
-1.8261218384689768,2.791744747261831,1.076941207739808,-3.108211562809925,-0.04062927889291253,1.544582307017184,-1.0257623928744946,-0.12056182432917273,-0.0917670667459134,0.26316902436588036,-0.34896661172910826,-0.6916707567955404,0.6751524982929343,0.9039377609367967,0.3203125
0.25505910184823705,1.624240017063523,-1.032050728427581,-1.340795433039452,1.0130175701931483,2.604344642085291,-2.8938603669999647,-0.30014823726805784,0.2455366951302916,0.14124745978532532,-0.20647294254385004,-0.09036037791139127,0.1087502438517846,-0.12903441581130287,0.328125
1.6340209001072676,0.21741348085068604,-2.154327768997442,0.3902286462766494,1.3966520013805548,2.4228593069928874,-3.180424857885644,-0.3203545504985428,0.3968443904161297,0.003906941497579699,-0.032320418725349735,0.36748172437471477,-0.3310671986467315,-0.8132974258207075,0.3359375
-0.4549547057394976,0.5049515692901533,0.3488071873861971,-0.604044076461121,-0.1019044822319666,0.12189678711445955,0.027917714121854217,-0.001678700244601938,-0.043027675704150545,0.04730984278420448,-0.0638927857129585,-0.15410247136809185,0.14769191412257404,0.22434824885147142,0.34375
-3.7049064804592424,2.1373881673887114,3.727544162166904,-3.19756704054321,-1.8439908599774575,-1.8028668338942497,3.237404372893092,0.3090641000696845,-0.59195523855396,0.22050844325453414,-0.26232285657305227,-1.0758722712550606,1.0125649718697596,1.8378880586699478,0.3515625
-3.604519561850996,2.2369784840463205,3.5592218522408485,-3.249474441786652,-1.7164768921501652,-1.5354372899059117,2.9147239903959012,0.2762528795822724,-0.5580409365926174,0.2284171333310773,-0.27519308115639285,-1.0610985020103298,1.0003421896356604,1.7881978513886547,0.359375
-0.1788935457681373,-0.41141373675613996,0.40541965484727954,0.3028770185391109,-0.34483374796924826,-0.8073592330275692,0.9336653900324727,0.0942730098125399,-0.08638681081298823,-0.03683578676086341,0.05066749037098146,-0.00376475245302386,-0.005701343604297054,0.08947994364338283,0.3671875
2.1203758698532447,-2.779686729240634,-1.4528228447243154,3.2062269243393358,0.2802106465723272,-1.146003532718207,0.49564767206336974,0.06469216320183296,0.16198776562220177,-0.2672077615893342,0.3437991917098782,0.7593918023236328,-0.7395439437392285,-1.0491264420677915,0.375
1.4788150370838709,-2.2207176012107754,-0.8881353912394434,2.482835721129853,0.05291608698389463,-1.1964011338494016,0.7748081949194985,0.08921089113557013,0.08020489652751389,-0.21156427833656494,0.27478291950757733,0.5541129902302039,-0.5436726283704458,-0.7298644110427969,0.3828125
0.6144957551291375,-0.6240333884704872,-0.49780926255684427,0.7685327906404817,0.1700008294444168,-0.08122690495319185,-0.12467640162399436,-0.010166473953288605,0.06779091399219557,-0.06193876044804708,0.07559015957092587,0.201857584177297,-0.19645575240564864,-0.3026735531760894,0.390625
1.0792437159241348,-0.5008079628597093,-1.1389090265640753,0.8289662945064368,0.5994699698539288,0.6958406615482358,-1.125193551226118,-0.1108135339343704,0.18810723341425348,-0.05533877348048983,0.05915717306266647,0.30280443492648074,-0.28557498837855133,-0.5357202498057038,0.3984375
1.2373360849021167,-0.7918157087472908,-1.2132364394826274,1.1434364421632632,0.5808706297292916,0.496428467117997,-0.9664074588379938,-0.09321842360086591,0.19121301291151813,-0.08282305858590784,0.09563330650237073,0.36822267334483044,-0.3492206776316775,-0.6153201288543385,0.40625
0.4020950391682005,0.0167601872280484,-0.5144925264696215,0.1302380786429859,0.32657540341983726,0.545914976979063,-0.7277152482317122,-0.07420525240357047,0.09440039561074187,-0.0032582661102921527,-0.004360399485320348,0.0936530471268589,-0.08599926735561475,-0.20016931810320965,0.4140625
-0.28988434635537347,0.7923549521263141,0.020781145766903562,-0.8036982550224709,0.1666736000340311,0.732089386722723,-0.6857929541035349,-0.07462661307770575,0.025781043781284523,0.07222517797491813,-0.10069892333381424,-0.14423777967446796,0.14249184614677537,0.1449987855200592,0.421875
-0.8114432843690685,0.5946610584784529,0.763838855404002,-0.8142547379405498,-0.342009086165754,-0.21989559293236813,0.5222429358825471,0.047186533523200465,-0.11485133459072167,0.05883672867037674,-0.07468658378439486,-0.24886856142818573,0.23402359074359924,0.40437144579017964,0.4296875
-1.4906469521154728,0.5040333822734249,1.6538333834984953,-0.9717005178423506,-0.9176561451166512,-1.2215432383598288,1.8380338138580379,0.1790626811193592,-0.27778188804203585,0.055829593737250494,-0.0615397402330141,-0.39878522354214185,0.36997359664892526,0.7390962703529429,0.4375
-1.1223391042956457,0.9097147322895662,1.0100324443188484,-1.1965226116523149,-0.4235862118289834,-0.17440903407466343,0.5806603023511909,0.05103469117131743,-0.1472337402109115,0.08861114091062805,-0.1132926110198266,-0.3480626583101818,0.3317442528059322,0.5538054431406366,0.4453125
0.3595149182087398,0.8734918626983917,-0.8359776344358268,-0.6401726611858278,0.7208519577258634,1.6898079840060165,-1.9452451574362815,-0.2009379373255246,0.18319308107112842,0.07334319975112502,-0.11219049385591578,0.004442359753275934,0.00980083355600468,-0.1804001133465643,0.453125
0.7202012213396426,0.4737292403601249,-1.1106927885805746,-0.16180668530548464,0.8016980849042632,1.592842862206402,-1.966336326908513,-0.2005819276500688,0.21791023132572446,0.03519079662831851,-0.06289464400234285,0.12463958873769816,-0.1078324407158583,-0.3561829356667769,0.4609375
-0.16603911676655284,0.21199435626092356,0.1186186880941993,-0.24409954981720605,-0.02525822067913157,0.0794408139951725,-0.02628465603083681,-0.005290356005941359,-0.012610902989327082,0.01917322627543103,-0.027952790838567103,-0.06082495492039105,0.05628701308617872,0.08420868428358391,0.46875
0.27690242554944144,-0.578716700962862,-0.09635236836928242,0.6142007096924805,-0.06945385262326452,-0.4514204064050283,0.39083664275485436,0.04102984828754445,-0.0023342420729990376,-0.05566347115484704,0.07081654732763917,0.11949664665823807,-0.11991818504510815,-0.13726487409875324,0.4765625
1.713744821726491,-1.628186264538135,-1.446256378269723,2.050082705296308,0.5366786224860105,-0.05969092947407423,-0.5328130283447126,-0.044944886553689285,0.20265143520797138,-0.1615478147460268,0.19981372073039114,0.558267869641478,-0.536421697436859,-0.8504664670228331,0.484375
1.0250437720555163,-0.9689220748627236,-0.8664180904188038,1.2204286680122711,0.3235327987929451,-0.028359792743491787,-0.3260680273437475,-0.028200721381052455,0.12214444896153863,-0.09655327078024767,0.11818854713242341,0.3330983859320156,-0.32141007631540963,-0.507815574985688,0.4921875
-1.2125092370751616,1.0465126476536697,1.0675898381212507,-1.3532880621896677,-0.4291690216618242,-0.10250818350979542,0.5346423659420898,0.04571170226879376,-0.15307200791611408,0.10237674431530236,-0.13068823586363384,-0.3851360838099942,0.36562641672008106,0.6017270202332293,0.5
-1.481735043464139,1.200637038330458,1.3378122798669678,-1.5827334575625749,-0.5635649936668604,-0.235355508877824,0.7717584649447466,0.0684333518749033,-0.19629713485088937,0.11827253565178975,-0.14938120964814847,-0.4633389251893339,0.4402684873935143,0.7343629434375543,0.5078125
-0.1877460930580214,-0.9121145056882594,0.6351859876359952,0.741128765548406,-0.6023522928904151,-1.5204525535046898,1.7056542189383537,0.1743136530759002,-0.14617343817333137,-0.08126813193521971,0.11390539658857847,0.04006744675609368,-0.05292367716567577,0.09406929882741379,0.515625
-0.42887045635403315,-1.8204021294136583,1.339175275291986,1.4542188484341252,-1.2467883417005916,-3.1058631840619015,3.49889176762894,0.35886592355590446,-0.30525542873678396,-0.16012514993214905,0.22880518194260455,0.06796718157050134,-0.09462896041801887,0.21627573840127468,0.5234375
-1.4295375672516684,-0.3913045483110296,1.973927741295261,-0.1637895370973964,-1.3196782298532537,-2.399495814035285,3.086581880580829,0.3091931408742124,-0.36764399209988025,-0.023909434542588138,0.05099189987621915,-0.3021477010490433,0.26517667071110773,0.7125915721668625,0.53125
-0.39459646650699204,0.6276577256425887,0.22337269925896483,-0.6947470944783417,0.00369415557110258,0.3682596683352121,-0.2578483399438501,-0.03090038737706676,-0.016300737410398048,0.05834369685896724,-0.07968412342448641,-0.15293764511725724,0.1469632547826385,0.1968879231780123,0.5390625
1.4478312199910888,0.25516037060923813,-1.9349001181050909,0.28968623615919714,1.2668035775805435,2.232172015949504,-2.9093930150681797,-0.29352988577924743,0.3581138803103314,0.00924510014344218,-0.0368894230942706,0.3176604871667076,-0.28608851354137477,-0.7191916524516957,0.546875
1.165833340016723,0.5513519013478809,-1.7110747956636916,-0.06924386836264758,1.1940215837875912,2.2824656154865313,-2.865016559314917,-0.2909079300008835,0.32875580119342,0.0375362312768369,-0.07350989885066246,0.22490641844768533,-0.1954296066333078,-0.5810686324742084,0.5546875
-0.3329061894932563,1.8239097545039136,-0.3817546271286068,-1.7214025067910816,0.6521981020434133,2.1248079421685935,-2.1725558348251757,-0.22933664585612537,0.13603206640258278,0.1635440322775674,-0.2303486055448274,-0.24667645637340865,0.2553789490055682,0.16117224975969435,0.5625
-0.35572561223965615,2.0033702505631004,-0.4298856807797476,-1.8880364302394486,0.7231832646777412,2.345543763850889,-2.402794519421852,-0.25334954630381706,0.15117425987502559,0.18009686011375686,-0.25289315828302494,-0.2692117176807423,0.27808714983236543,0.17335512183693713,0.5703125
0.9840931212613293,0.5403078966757237,-1.4739800091778335,-0.12483134074768339,1.0441188736788174,2.0295411266501424,-2.529351083345053,-0.2572273666534696,0.28580106388058935,0.03863596471557211,-0.07170161675747487,0.1824958525709361,-0.15852882575481556,-0.4888431007497169,0.578125
1.9045081970062236,-1.3484111056604722,-1.805851350783213,1.8661010867342853,0.8238863398971986,0.5763194170287679,-1.2840970211468508,-0.12160828181977669,0.2770853949076526,-0.13762053486929196,0.16406332364126572,0.5753167636866727,-0.5479533842195403,-0.9434603199497554,0.5859375
1.7107318361897874,-2.889808886784649,-0.8883718569599032,3.1576368564518473,-0.09777438146225352,-1.831593389079888,1.3781513857889987,0.15344387613363086,0.0564073064083647,-0.2735588399030959,0.3586213183181933,0.6726025215309579,-0.6625265670854722,-0.8456001433161583,0.59375
0.3899123142323021,-3.1343868742291323,0.8813863639802473,2.9049539999117178,-1.2582580609107448,-3.883625698932403,4.050331987754951,0.4217633798107086,-0.27064047816120285,-0.28412199817969713,0.3923487063787867,0.38230000948532716,-0.4034789721915467,-0.18863743296778748,0.6015625
-1.6847049149396864,-0.9378674878923076,2.531926826784135,0.23087609516185129,-1.792092290197033,-3.4939409524901888,4.354647908220228,0.43904079825735204,-0.48791335019737775,-0.07071309554486627,0.12034294808438709,-0.3124984269425386,0.2649166547535406,0.8394706863274713,0.609375
-2.9680028537986027,2.199091813096098,2.7730255396391787,-2.9904169402581964,-1.232925597727356,-0.7616479997468996,1.8578470133167748,0.17096172111012325,-0.41766156540104565,0.2196065753230882,-0.2717699772585798,-0.906124819104491,0.858854543909825,1.4716045482001368,0.6171875
-2.257991601307419,2.9719811545501758,1.53937170139254,-3.4193178320936832,-0.2878114597215001,1.2411241284250956,-0.5487484602918368,-0.0739888778906655,-0.1679522018165412,0.2824208591313515,-0.3706112899634881,-0.8091921366815992,0.7853958227616934,1.1165377003263768,0.625
-0.6628018394981382,1.2612139943490341,0.2810756598800734,-1.346750316308585,0.1102914675870427,0.9095720020464775,-0.7478335931123299,-0.08365245122370905,-0.003987944172535859,0.11671655028249273,-0.15881671902393546,-0.27432891797073095,0.2701680813431611,0.3272258028302342,0.6328125
0.06481263909601191,0.06791149226440123,-0.10998896221080112,-0.03888935429610908,0.08390535525123063,0.17759535949639804,-0.21195136093423395,-0.023015203635548306,0.022851532534619905,0.004481754128227484,-0.01035013229386717,0.006982470137875638,-0.006976782613362656,-0.030722496292148016,0.640625
0.12012236587374357,0.2672740174149696,-0.2665120809883685,-0.19300279666826964,0.22711845819058876,0.5275939962626135,-0.6083195740963151,-0.0637997351923444,0.058448833628376974,0.02159853730306791,-0.03560561868431122,0.0023086087417900085,0.000249201470206813,-0.05853098990700048,0.6484375
0.7469212926519687,0.024647031739261114,-0.9520528959438596,0.24882506405236768,0.6016425994736098,1.0023493167180062,-1.3398016210487382,-0.13540724566809242,0.1735253862441018,-0.005825025914189915,-0.006244611176415559,0.17549100616399033,-0.16047330010665295,-0.3718414197072901,0.65625
1.8795139557984628,-1.0208968799730587,-1.9219963534844071,1.5746963059858659,0.9717890617044874,1.0073108909866615,-1.7412256283490692,-0.16923954007537445,0.3104108673211595,-0.10876485928161328,0.12308047046998312,0.5414205537861012,-0.5102571641197622,-0.9344098868067369,0.6640625
2.2164996566960395,-1.4262892270104042,-2.1662562762107758,2.047778600104237,1.0323311619423468,0.8739370092633997,-1.714522030400362,-0.16411329881723277,0.3394420548404713,-0.1473328773084787,0.17330611161969467,0.657160888178177,-0.6230539694385084,-1.0995410254716849,0.671875
1.0961328807280457,-1.0124060724534105,-0.9328517605361715,1.2803049314158887,0.35473319207624354,-0.001392064059535756,-0.3790614997725803,-0.03318821384447263,0.13226497518574976,-0.10048911100691785,0.1234767947535069,0.35168821805573985,-0.3395887225918711,-0.540723536458003,0.6796875
-0.586876344050382,-0.7217318050645141,1.0585495754035767,0.42643126479163496,-0.8236717787834642,-1.773835471049475,2.1187357635465704,0.21448667643688663,-0.2153805398655881,-0.06044818684018086,0.09061751118833394,-0.07341608473624713,0.051644228652678,0.2951377212074845,0.6875
-1.396274066577657,-0.5109770797455515,1.9807203725170064,-0.043110708193375556,-1.3517862820434412,-2.5227127607123316,3.2077307280854983,0.3218996871164825,-0.37343724786308835,-0.03533905514991156,0.06611409443197744,-0.28273189730811427,0.24679600961944628,0.6942672012792928,0.6953125
-0.9924075732909613,0.18696768994368795,1.16426447442041,-0.513363069337029,-0.6839402436294311,-1.020213444358949,1.4472596070505197,0.141885517442259,-0.20137267182262117,0.023297738354008203,-0.022549400391484627,-0.2509839666049015,0.23091153991420021,0.49098487559188325,0.703125
-0.25323716027573334,1.1192118891618217,-0.1718404659437729,-1.0749388602778476,0.36121593921492656,1.240080293822462,-1.246415016236732,-0.1326310557011288,0.07244882147986552,0.10057347546248098,-0.14177185773106826,-0.16352802810776879,0.16686091181404877,0.12392016798316455,0.7109375
0.1549057555379263,1.5918471304734407,-0.8900109600565151,-1.3478848425447447,0.9168419427630905,2.428252301534763,-2.6695684731486367,-0.277501768596808,0.21868213386041654,0.13956119751718565,-0.20242643559731707,-0.1120350691996615,0.1270436636813823,-0.07773330947134233,0.71875
0.3188293279747484,1.2162447927797995,-0.933580532609766,-0.9555523867764896,0.859696739871324,2.1159318933106093,-2.3910304029266674,-0.2474310530151573,0.21315583783037267,0.10435728234552141,-0.15546487055834918,-0.03819515640621064,0.05339576398685957,-0.159475850547003,0.7265625
0.23180149477754527,0.28754587810533666,-0.4200835783304943,-0.16504045251429197,0.32918845221910886,0.7050153401900701,-0.8404335448100633,-0.08707358996627844,0.08739166601826208,0.021808931821566083,-0.03814749709957012,0.028497869381396018,-0.02240011794443155,-0.1167965016480993,0.734375
-0.19460261675746954,-0.18301663290305795,0.3232004578999485,0.09598166237129856,-0.24181767785666125,-0.5059751848702483,0.6141193478849241,0.06097359151820271,-0.06334458739543218,-0.016487891081096374,0.022084553635502064,-0.028329008212718332,0.021344395976185853,0.09580054160983716,0.7421875
-0.48708389026960736,0.1668544889105075,0.5403807136849357,-0.3206225304817076,-0.2987329710629632,-0.39588476295446007,0.5980977610462908,0.05729909100569693,-0.08990583577471328,0.017668696740857786,-0.021484725443659397,-0.1308979148543381,0.11973758606517577,0.24241428436489806,0.75
-0.3851501398143185,0.11240506084912867,0.43656177301219534,-0.23731732928509539,-0.24646123010710583,-0.34069308623002065,0.5029179409027912,0.04813053587321151,-0.07339165628994526,0.012275992214732549,-0.015010755172043975,-0.10311941645756464,0.09280240154506952,0.19304070754153776,0.7578125
-0.4548810087636901,-0.9329457004976778,0.9811014391578347,0.6613058671558634,-0.823287497401084,-1.8946914003982978,2.2020190375807767,0.22403018876166308,-0.2092715813680865,-0.0804816128919941,0.11678168470414754,-0.02300814241749369,0.0024553716499192296,0.2286780765372343,0.765625
-0.6132610348925291,-1.3372217430081692,1.3565111491484048,0.9633532722046246,-1.1491361521284722,-2.665548011573502,3.0884160351806718,0.31493240730414246,-0.29130148618058976,-0.11559388880085054,0.1682131545904714,-0.02148706820271829,-0.004582107892823992,0.30639349584747877,0.7734375
0.20469795473042957,-0.32052636980386917,-0.11813421403682708,0.35976988176894775,0.0025744382336766185,-0.18323459104006945,0.12761337968442765,0.013191328255124537,0.010990331044469127,-0.03205458257539246,0.038601132644145476,0.07965134210772484,-0.07836094070188206,-0.10246702614244652,0.78125
1.5928512813986593,0.10009887123674245,-2.0477498489492736,0.48323492912968236,1.3033854461799859,2.2007745340697555,-2.92652779075066,-0.2942756062211556,0.3733075142116905,-0.00596539600571486,-0.017346391843598572,0.36884145172648486,-0.3348145229182993,-0.7917852116057782,0.7890625
1.5172332312433652,-0.9886831501584841,-1.4736671227911349,1.4132270706039656,0.6979508153009417,0.5760638059933103,-1.148736611504217,-0.11022121483754989,0.2303717277447021,-0.10192004089326345,0.11981601199707444,0.44977480650445356,-0.42832874363014545,-0.750635726852495,0.796875
-0.09223664528748834,-1.229643287267502,0.6567453371208187,1.0494020730523193,-0.6878086110231533,-1.843229783530062,2.0209835895495267,0.20772050641897782,-0.1616136168238967,-0.10987649592059806,0.1535802536719667,0.09062931228282103,-0.10586065506421977,0.04938860808475438,0.8046875
-0.9145247853728032,0.5220295804900857,0.9208525761475551,-0.7862362293381848,-0.45587091872095103,-0.4499522086911247,0.8057991715146887,0.07588052483865912,-0.1453286438089995,0.05262178102767546,-0.06517382603432464,-0.2643409119351193,0.24827518131341528,0.4529839778605717,0.8125
-0.42203143135181215,1.841599152013927,-0.2783914455781909,-1.7698107798456229,0.5926834431883037,2.0371079896597033,-2.0477024259983643,-0.21692982046718634,0.11846478460151337,0.16580775363638114,-0.23237447258763214,-0.26872988395772995,0.275429516523747,0.20515147133618944,0.8203125
-0.4440333721523766,1.1954530800519607,0.03549421734949907,-1.2071425132662386,0.25000845626475404,1.099792273754831,-1.0296625891898261,-0.11137145586770711,0.03832952349277701,0.10881846513136909,-0.15104743947767532,-0.21561573263682382,0.21488879949869807,0.21902516345191736,0.828125
-0.9547066173942191,0.20773347324128183,1.113746293411001,-0.52164982551575,-0.6483349063218529,-0.9481529855601394,1.3570303280229599,0.13285194376391787,-0.19193183298962818,0.025528160549798833,-0.025699466866420682,-0.24697540879026303,0.2254585135671028,0.47626160969618275,0.8359375
-0.06018263488543406,-0.02895533652377102,0.08950959934942516,0.0034949032561280464,-0.062427800791052146,-0.11974554590124102,0.15220523083321172,0.013912800808592994,-0.016384210385555334,-0.0032919034023958316,0.002133581245878411,-0.012922447693579964,0.009300666259191199,0.031155630348673496,0.84375
1.5256771575077528,-0.3152048836697495,-1.7849140485132688,0.8223603552685552,1.0446194866360725,1.5363583397630223,-2.187311874665921,-0.2180081624883349,0.3107403327738305,-0.04258534813695833,0.03484209046651947,0.39043185072857145,-0.3612387093170517,-0.7585112034322822,0.8515625
1.1768353310214386,-0.5165647510887551,-1.2576691838953675,0.878092819437199,0.6702569548267336,0.8028917416634311,-1.2756038611654261,-0.125743037018924,0.20879487939549607,-0.05757647136884414,0.061049314804130304,0.3264240590116064,-0.306845864866039,-0.584873382021076,0.859375
-0.5685140336961135,0.2107973119492667,0.6233486904347971,-0.383840388046033,-0.34060479018313333,-0.4408985178781976,0.6746663411099038,0.06467177423805874,-0.10332419456595442,0.02222619407747457,-0.026772964934757507,-0.1549539128001575,0.14217641642454315,0.2826464364904147,0.8671875
-0.8652576145103184,0.8562371298524457,0.7149006180152838,-1.0586903679816568,-0.2518942070877832,0.07827584315305236,0.21897384836567196,0.015308870296220117,-0.09639607760394613,0.0822256363788572,-0.10743605945340134,-0.28439010001031795,0.2708822265670999,0.4291204008202102,0.875
0.19294725158625928,0.12449760793623788,-0.2982636094862569,-0.03806902276340233,0.21600828286869922,0.4259308944915889,-0.5254518256103724,-0.05464873792681647,0.05957443101867903,0.00788866044815047,-0.017521367778905995,0.03509860121022348,-0.03124790168737821,-0.09671273969790053,0.8828125
0.30534359294446,-0.8454814571730955,-0.015028879580638794,0.8542365294711728,-0.1803649134262828,-0.7864703408710672,0.7421931710469594,0.07773977830116681,-0.026534183809815374,-0.07939507621315163,0.104435358682683,0.1509698841927826,-0.15301540352400117,-0.15083477384892593,0.890625
-0.4231141878672603,-0.5982550125780879,0.7960937254788328,0.3750531868502618,-0.6319621875139543,-1.3866086201413201,1.6441440564362202,0.16632584272769974,-0.16382371081513364,-0.05088988604614876,0.07478796575829633,-0.04607045263925319,0.029676512451605214,0.21248668068815124,0.8984375
-0.403981021123168,0.025814352530329487,0.49973615562068957,-0.16608975842991489,-0.3058753327222325,-0.4897783644622492,0.6709769410943296,0.06541117941611865,-0.0879747775369943,0.004559708088163776,-0.003951203547287227,-0.09922972234810663,0.08848091223775495,0.20245732986732431,0.90625
-0.10406071077074554,-0.08013920480255174,0.1659410603965622,0.03851602467446689,-0.12040326786644005,-0.2467360617034269,0.30329457757801237,0.029322970330044877,-0.03137251549936856,-0.007819656119709115,0.008826062181312468,-0.016397483972984704,0.012066740771376564,0.05168194784446189,0.9140625
-0.46576512420601557,-0.29727359684384486,0.713902421422271,0.10225188614845462,-0.5112262395572726,-1.0156870561825824,1.2577198322358834,0.1259237187926371,-0.13757563745511855,-0.024328625452219366,0.03710146619594374,-0.0811808738861787,0.06769366723915748,0.23032230543396937,0.921875
-0.47478684485984624,-0.06209321395105248,0.6243981336854079,-0.11223029767125307,-0.40277291526442094,-0.700202781936013,0.921676295040921,0.09097379964641691,-0.11327689597240273,-0.0029477987979666612,0.007424447368928827,-0.10702432667465886,0.094564363588116,0.2360041501520291,0.9296875
0.3794371067297374,0.04807804068940877,-0.49531731238816074,0.09073809740625663,0.3208686348106547,0.5554753938928781,-0.7288798496855688,-0.07448122259554393,0.09178208329384484,9.008507614846082e-05,-0.008506022679564077,0.08312353501761444,-0.07731293432893221,-0.18612728955744656,0.9375
0.5984962020479085,-0.139123153620894,-0.6898388355464612,0.33475837262979946,0.4003758279583051,0.5775238485703984,-0.829433265369601,-0.08341018299477707,0.12014912104968548,-0.018582291964449445,0.014644897571037964,0.1532344518030782,-0.14403509663789815,-0.29510055892576265,0.9453125
-0.022025761001954487,-0.1701877384439256,0.10022654744302355,0.14529734435547312,-0.09949693808636713,-0.26445959841899647,0.29373559022363244,0.02888099659074813,-0.02275011551037366,-0.01666011921016091,0.020184864700920353,0.011716055211440856,-0.01460690024211924,0.01027954215315525,0.953125
0.36030325884224157,-0.20585329467177074,-0.36688717383314945,0.3137225492168689,0.18401968761748977,0.18189908144769518,-0.320735759522123,-0.032299582375584494,0.059921012666833084,-0.02321648414270773,0.023895817674169133,0.1062851625284656,-0.10036406770010875,-0.18091430528050792,0.9609375
1.6220514289219807,-0.4139723872893283,-1.8602527225140049,0.9430763780981946,1.0689511244343917,1.5200051897711486,-2.202576159018436,-0.2189361520028372,0.3206044489492797,-0.05191989730582819,0.047030343656086514,0.42233297379322265,-0.3920701047485452,-0.8052853279444772,0.96875
1.4029725947954523,-0.06200917789897941,-1.7359072535440803,0.5532793127254706,1.070598230262627,1.7267657163846368,-2.3490322548584306,-0.2356051624235375,0.3107809649859952,-0.018296498314913253,0.0029043421324053916,0.3358054177855249,-0.30890564808571536,-0.6946854986291277,0.9765625
-0.39837754776077794,1.0327543230204295,0.04959567809732736,-1.0494985113779047,0.20350540151974614,0.930385102351871,-0.8629719806672811,-0.09375018153544211,0.0294829133462058,0.09415058334274326,-0.13088621438364592,-0.19163435400461123,0.18918530667950278,0.1975681912643478,0.984375
-1.3727047814212023,1.6202832578543145,1.0152047225015273,-1.9102996857884857,-0.26603845851152813,0.4948686634468708,-0.05388959197955666,-0.016514807408291424,-0.12256013403060274,0.15409974350913946,-0.2023691599485863,-0.4744796140047069,0.4578374434025601,0.6780126925032233,0.9921875
-0.9097134772391691,0.9171089741684929,0.7411240053353759,-1.126476050277729,-0.2537228889110493,0.10874159534703438,0.2014427541434704,0.013163982340018452,-0.09855587339745897,0.08744535708679907,-0.11467076583682687,-0.2986034174948027,0.28672037092519137,0.44865790558263563,1.0
-0.6042110822979835,-0.1881986169247491,0.8440568654868911,-0.04724280491520374,-0.5683698137769858,-1.0462359091390492,1.3402823519113014,0.13352331938696924,-0.15720487817656595,-0.0130810863962129,0.023692050763786044,-0.12521822592480408,0.10894712596510775,0.300899032046615,1.0078125
-0.9724932959815351,-0.5372936685111112,1.4616038379612462,0.12744658321369282,-1.0335491464519013,-2.0124649771541137,2.5100029188925626,0.2524408115823964,-0.2811772049573051,-0.04063714860079712,0.06827740041555816,-0.18199386931115258,0.1531805786330926,0.4860541468811615,1.015625
-1.163210081943016,-9.647739570339168e-05,1.4641864737845827,-0.41299546127800746,-0.914030026579293,-1.5054230505401613,2.0298218039536247,0.20125124672029546,-0.2623822405207224,0.008669262379841723,0.0010478163913979148,-0.2769586079865824,0.2494028795027278,0.5788566033392412,1.0234375
-0.7406124737997071,0.5243906315489244,0.7003079747666957,-0.7233713830435883,-0.31829027965783746,-0.22213274945353573,0.4993153012989116,0.0452430111721902,-0.10595742041829469,0.051372574090378535,-0.06589440807905474,-0.22383889359578524,0.21182258781780583,0.36609358684919185,1.03125
0.3802256734650826,-0.27774301853090555,-0.3585438796541456,0.3828178700600573,0.16211500785130478,0.10547401201632371,-0.24515140523140116,-0.024278530145471367,0.055668116171893864,-0.029656316068595836,0.032538113933401135,0.11671794229151732,-0.11155012751121064,-0.18939741204300328,1.0390625
1.8506140184199324,-2.2725962628107976,-1.3324277126719812,2.6629516596010667,0.31971502432578,-0.7870613826139843,0.20325781833019516,0.03249792697287966,0.15872049420556297,-0.2193835524300836,0.28039268504969295,0.6484342788460972,-0.6309687505357998,-0.9144995047043364,1.046875
2.151031419014288,-2.8668967804089616,-1.4479734697702276,3.291609966379492,0.2574313554654764,-1.2330626155689683,0.579507213685751,0.07364497119831322,0.15786653617847632,-0.27448769642572973,0.3546966028798022,0.7731305005397288,-0.7554186456847878,-1.0613352981962463,1.0546875
0.7036903803257002,-0.5560074145468706,-0.6401382091491048,0.7398208006747503,0.27529262574023533,0.13024246740842574,-0.3839232075203384,-0.03644321440451573,0.09617920565098473,-0.05662566208442506,0.0671626422860328,0.2170666702446754,-0.20889140228289838,-0.3474425763618405,1.0625
-0.24226648410636814,1.6843326335502138,-0.4347213463214564,-1.568290170497593,0.6540037380273858,2.046670207942505,-2.1195083210648855,-0.2232129577055379,0.14058530135087677,0.15033080090445203,-0.21276371469871116,-0.21229467801324384,0.22161332879700243,0.11623235376732209,1.0703125
0.7051573260794329,0.794569166537396,-1.2382112141834716,-0.44441822047184854,0.9550482901214316,2.0281485820698815,-2.431101539047554,-0.2489858578825174,0.25308487082924774,0.06289404681647146,-0.10295163651696061,0.09501054712832135,-0.07308232369241521,-0.3534144073261652,1.078125
0.9914297157286911,-0.6173705174138358,-0.9766721324376807,0.9007059978092032,0.47187441608253994,0.41821268424791125,-0.7957515004932317,-0.077187490927917,0.15466655589838343,-0.06479999801983333,0.07407401775905066,0.29192597201069354,-0.27764390131440836,-0.4912212870738794,1.0859375
-1.1680419269788116,1.2065165387008299,0.9441494495668962,-1.4774842235447723,-0.31639323484929427,0.1751438744479599,0.22078738086264085,0.01340457412073115,-0.1252326197968865,0.11632456098451095,-0.15082962813295125,-0.38945771830972875,0.3726083492811379,0.5798346672973955,1.09375
-2.7795566413672304,3.660364507762413,1.8944235237765905,-4.213501471027169,-0.3552681108113913,1.5287023974688316,-0.6756176458964668,-0.09083983035008054,-0.20741255039050163,0.34827146030997475,-0.45626974087024563,-0.9974636777301321,0.9682654684562205,1.375018919391794,1.1015625
-1.356536193600318,2.079503014561381,0.7927991413279297,-2.3130696985909482,-0.024271655324938822,1.1602769847104109,-0.7759826535259269,-0.09142144559194086,-0.0662945792471187,0.1950255532120252,-0.260445216923333,-0.5133575768745858,0.5015055290112979,0.66934480653247,1.109375
0.48457655069799244,-1.5139815844056266,0.051503252851367025,1.508282997789447,-0.3736356762307026,-1.490496317523551,1.438277110065978,0.15122685637022373,-0.06291672327573132,-0.14052507400408318,0.18794009224085623,0.2544767775459706,-0.25909738620704664,-0.23834227073877878,1.1171875
0.22042626440548668,-2.0637830646539923,0.628145102205205,1.8988960225311362,-0.8579489369127372,-2.605789406290828,2.7328901832976307,0.28383299889416913,-0.1864556502715844,-0.18697140914157517,0.2578613178670394,0.24209719876067692,-0.25830606627839503,-0.10476277185423039,1.125
-0.13239251965039747,-0.6031225593754207,0.4320653057275678,0.4885482826267273,-0.40466466335445733,-1.0167379723798051,1.143022849031662,0.11633984035834906,-0.09812404362047748,-0.053983441291700636,0.07480233544433831,0.02430607798474462,-0.03498381701641939,0.06750720643037185,1.1328125
1.0767280733673585,-1.2927545572379686,-0.7895228095985112,1.5270371938573923,0.20247682543526832,-0.4153413072043859,0.07229551594267651,0.013540322483274777,0.09667024062745566,-0.12587177400487926,0.15888528730572365,0.37537707049189173,-0.3651414581013104,-0.5331181069572353,1.140625
1.4919947138542453,-2.7623286618068965,-0.6672987339606711,2.965742316945496,-0.20708956871640613,-1.9369007095872395,1.5679458531548087,0.17168526850398683,0.021144794030630788,-0.26007786025734947,0.3428996584698698,0.6085741909056289,-0.6024149279652874,-0.7360711512704932,1.1484375
-0.2698671880254468,-0.9475190344639421,0.7576121759060136,0.736482595402576,-0.6874511536677455,-1.6789616056171106,1.9060722887425492,0.19457921905479497,-0.16977809319990297,-0.08312585826143107,0.11833535096001294,0.02179159148473344,-0.038382284749652947,0.13774575937464595,1.15625
-1.5640075038406533,2.5647146006000057,0.8465529055030898,-2.815527120504287,0.05191972640181019,1.5651262329949243,-1.1388558124719756,-0.13052732112898172,-0.058423858286670384,0.24055894270632552,-0.3208631185924754,-0.6088807424434445,0.5956565184773405,0.7739429686367137,1.1640625
-0.53944063115142,2.972467672991321,-0.6259334499955056,-2.8046700640816686,1.0652768747072265,3.467003020069581,-3.547646052462357,-0.3735266012150906,0.2217438612482471,0.2676523204859049,-0.3743191768138674,-0.40140818449908844,0.41531464867575535,0.26144936893371135,1.171875
0.9177502214128843,0.48781023599597634,-1.3730432364986285,-0.0971867597200086,0.9705527454003703,1.8762593008016288,-2.342246682796022,-0.2382769430318994,0.26642295392829396,0.03378244237786364,-0.06464911035823116,0.17446012440379402,-0.15036036817722523,-0.45943779203376456,1.1796875
0.8990130309584098,-0.6981109006444504,-0.826418963376629,0.9352131523653066,0.36013389063463647,0.18820748819966757,-0.5152923181092988,-0.04870475598963155,0.12485514176133725,-0.07125007220208279,0.08461102966584369,0.27774083586147646,-0.26554779421039826,-0.44601532068089567,1.1875
0.05445724447973918,0.3186477742452402,-0.2050110998929112,-0.26471652728651757,0.20085934554079277,0.514517441795837,-0.5712634444409918,-0.060351361520640745,0.04942506243414939,0.026962307957539067,-0.04178678045806887,-0.018560140603037643,0.020054356868169795,-0.02548659928649231,1.1953125
-0.36122567679176354,0.6043864845275868,0.19225349986944523,-0.6618607856400579,0.016988434542299254,0.3767420900572985,-0.2780718985234967,-0.032800294423324806,-0.0117957714384282,0.055794040396857016,-0.07703472136444896,-0.1430966634882927,0.1379805114062413,0.18046310094438853,1.203125
-0.05761689776142419,-1.036655420312084,0.5254968660353222,0.8963012088300073,-0.5619469950003084,-1.5250675852539002,1.664945860192663,0.17099864270906998,-0.13088891298737246,-0.0935284903353279,0.12902085124139143,0.0828255937739313,-0.09476643032800487,0.030074204412661513,1.2109375
0.5425339161994236,-2.2981475296283698,0.32213379766340683,2.222190663331157,-0.7199301399280033,-2.514485611364991,2.5220814747497884,0.26411157398603496,-0.1398051708978476,-0.21116658756040446,0.28679058821048814,0.34266398841681855,-0.3519965772052371,-0.2669860735999769,1.21875
0.5956195970844547,-1.2763320939412246,-0.18917191886800436,1.3388784918792844,-0.1696892652188701,-1.0183050089824293,0.8916684224156439,0.09521192121894469,-0.011034400241397003,-0.12012020657032571,0.15803285804230738,0.2591496317953176,-0.2590430461069103,-0.2932744853364433,1.2265625
-0.13953005964607434,0.7006315524034488,-0.12828932666893836,-0.6654852118322007,0.2391098777331285,0.797270882545241,-0.808872460343947,-0.0863816305323069,0.04931669916399956,0.06265199066077705,-0.08953401579698594,-0.09987971795834027,0.10018464174262878,0.07052370340633218,1.234375
-0.5471859389872945,1.2842199621778996,0.1263204025864195,-1.3235131681563646,0.2123599906468946,1.0904005797423715,-0.983655151028771,-0.10731280600239068,0.02472172100695086,0.11784583099328913,-0.16225015480693822,-0.2501655366909653,0.24681573189441128,0.2710927200502626,1.2421875
-0.05239259764458822,0.5065995539007856,-0.1591075738340451,-0.46110697314272786,0.21542789394626247,0.645483927373028,-0.6771568300497793,-0.07208497534518161,0.04825508583073495,0.04381050683283822,-0.0652282588156766,-0.05882698073534028,0.060893821374885596,0.02407796333945027,1.25
0.06629351951829607,0.03979118669153011,-0.103217787112275,-0.008006067205646346,0.07515998576081814,0.1444601784016008,-0.1777884843361241,-0.019450207240436272,0.021483881949921447,0.001135972162421076,-0.006490744822474838,0.013643804632863844,-0.012282216068193852,-0.034520892453024206,1.2578125
-0.8134712413924413,0.12871147923374324,0.968409572899041,-0.40081332793299473,-0.5744821105159963,-0.8729990417353228,1.2264516445563742,0.12026140257055194,-0.16819825324450927,0.017004345992759823,-0.015775602766320583,-0.20435645446824532,0.1861801002706257,0.4044669497054925,1.265625
-1.2332195823003405,-0.02670537028859254,1.565895196376776,-0.4145560292154495,-0.983252771494639,-1.634925691013329,2.193963867839604,0.21782734677074989,-0.2815073125550269,0.007090707105600015,0.004627188332683019,-0.291310082975543,0.26125863224022455,0.6145653887539569,1.2734375
-0.5157495959525766,0.1039509317937547,0.6033982571982021,-0.2747897395202275,-0.35246270627549553,-0.5213575093039872,0.7432486817155617,0.07215408038860553,-0.10363700809850208,0.012412707712009223,-0.013330610397818007,-0.13309911548009112,0.12062828397310726,0.2564927778142128,1.28125
0.07615778871664022,1.021356202123876,-0.5460714990402628,-0.8710121558285482,0.5734800505402167,1.5318210970836381,-1.6761447242014151,-0.1749718059159046,0.13657485710292225,0.0885877609158031,-0.1300641007947221,-0.07555215793435428,0.08604620575590109,-0.041270207802852885,1.2890625
0.13002980136505798,1.0343687486550281,-0.6194351283147221,-0.8607614505250837,0.6226867809043382,1.6200326306666404,-1.79043263769416,-0.1864426560890399,0.15042407723767282,0.0891536038134759,-0.13195506664992762,-0.06300198683751841,0.0748840208507368,-0.06804482451471508,1.296875
0.495633674372027,-0.7438679721996716,-0.29744745479067314,0.8362084682908258,0.01916784011923674,-0.3996663156352287,0.25840172155703184,0.028857437779762404,0.02795237748593031,-0.07187788297335584,0.09093313820581413,0.1864217515503426,-0.18431075114169163,-0.24443758927387055,1.3046875
0.8716985612549458,-1.7411320331753288,-0.3307643199835635,1.8450202154050896,-0.18646603224569663,-1.3130610156409426,1.1124191728104789,0.12012344946949567,-0.002584759874132412,-0.16337493484160273,0.21567766499886287,0.3656476117381996,-0.36533553728316703,-0.42776402501673616,1.3125
0.5935844296926057,-0.3312857136724121,-0.5988554157148028,0.5008503905701738,0.2993137399286388,0.3009674613028481,-0.5289141176857947,-0.052274599582944045,0.0965243309304111,-0.03550377833992553,0.03896330668629895,0.16957609474053742,-0.16170487447848075,-0.2926345546404578,1.3203125
0.6022906582551923,0.7632328078121324,-1.0928102699079705,-0.4586445262293973,0.8560123820483306,1.8485162627997995,-2.2001570787936533,-0.2257644613112236,0.22534108174773043,0.061384481186390394,-0.09875957743785592,0.07230954483047572,-0.05314112296607687,-0.3008972579396999,1.328125
1.2772117575653235,-0.32933192495957675,-1.4651876810894087,0.7478762949142166,0.8424087082285407,1.1942594377809883,-1.731764889140974,-0.17242938474022582,0.2531196611947239,-0.04190540485899526,0.037255892006438446,0.33394642271362457,-0.3100908074942286,-0.6350454491402364,1.3359375
0.9311958753210595,-0.9354832856622634,-0.7617039659202853,1.1595515569274377,0.265757126378775,-0.104810902103751,-0.21104221638895368,-0.016893078147759966,0.10451200002019226,-0.09267539814813543,0.11422281052229145,0.3068156103176397,-0.2971160452636298,-0.46068027056716726,1.34375
-0.6713739844396853,0.4911526344131171,0.632078602696501,-0.6692471285973955,-0.28301460521591265,-0.1834114561424533,0.4336379399351551,0.03894753391679398,-0.09488128405249047,0.04822154828927906,-0.06196184528943206,-0.205601461362535,0.19278688201035246,0.33420198716536637,1.3515625
-1.1935925320987395,0.9438070220988691,1.0883422080171108,-1.2542774358608104,-0.465836994948687,-0.2226536475982751,0.6579462675415518,0.05859568757676511,-0.16060413446729244,0.09273384939126718,-0.11784965254306053,-0.3702603752901931,0.3509791866892384,0.5919053860073685,1.359375
-0.2557486858133793,-0.9337961270622315,0.7274020359153909,0.7343371165474938,-0.6645860889945518,-1.6345666917749044,1.8515596016791462,0.18900367090505707,-0.16347812678447782,-0.082723229086534,0.11654670959337443,0.026435570347334063,-0.04130958496017742,0.12784287037633899,1.3671875
-0.29293081763988044,-1.6997961256715965,1.1116194165105577,1.3958354910013466,-1.077636314152812,-2.757404748335882,3.074943920885666,0.3157796895778006,-0.260270523807502,-0.1504541788806388,0.21323741961111722,0.08768019429648574,-0.11063652766527275,0.14824492761217092,1.375
-1.5743131786431883,0.3286037132136528,1.839694532724971,-0.847006897365699,-1.0736186461288124,-1.5797914138397875,2.2536764332970045,0.22167135260423354,-0.3177708137372675,0.04137267439331707,-0.039208450773696966,-0.40435933209735325,0.3706735864183121,0.7827589524743082,1.3828125
-1.6320105002288399,1.9189614456164779,1.214983219059212,-2.267232588049455,-0.32319300328986106,0.5738555796259249,-0.04778826550308649,-0.017654051584465754,-0.14759847883017,0.18339491629235738,-0.23935884936770624,-0.5641209892165192,0.5433956310192617,0.8081467223883448,1.390625
-0.11095148336814585,1.0249758672232168,-0.311917001602736,-0.9386619249931158,0.4287352323653257,1.2961120636579686,-1.3579886442296003,-0.14316316824733777,0.09480572924357938,0.09059305342458647,-0.13027673208499083,-0.11968484568786354,0.12506316549147994,0.05223231276876722,1.3984375
0.9190725376626422,-0.15752436876057463,-1.0906960950202607,0.4659025686770419,0.6469374029261417,0.9737504773237577,-1.369423610740566,-0.1372596527454374,0.1917161800615098,-0.023307819046184255,0.016253710978412744,0.23282806313810853,-0.2152542992258125,-0.4572707169411008,1.40625
0.910547947902356,0.051758069098100275,-1.1671661182585897,0.27562036487631325,0.7408039098997077,1.2495791982107096,-1.6621244341919599,-0.1677450786625294,0.21255860373257968,-0.0041414453822581285,-0.010107753643295565,0.2091443961271006,-0.19076684440769578,-0.45111395677753025,1.4140625
0.738658794690393,0.4820559665324381,-1.136941730924516,-0.16214594337117058,0.8192151432491341,1.6259522814061054,-2.0075170302155083,-0.20479848543832152,0.2227308958247586,0.035683119346192546,-0.06388019573774197,0.128329222235373,-0.11033590777071085,-0.36562591190328797,1.421875
0.39036743315556327,0.21218986759215572,-0.5836952219343736,-0.043278076115904715,0.4137236287533135,0.8010438748005763,-0.9981676273136817,-0.10239805684020224,0.11393626467157278,0.014099250227776468,-0.029005491318982387,0.07304815334467364,-0.06403141164431686,-0.19426513683964278,1.4296875
0.016388778072189095,-0.27842055964162155,0.09843163889796526,0.257132648083438,-0.12260281946880343,-0.36540000031126724,0.3887719400453673,0.039019948693417454,-0.026233921288022433,-0.02676597971605034,0.03373504959560804,0.031290448597357814,-0.03379003239262537,-0.009592238538060346,1.4375
0.46895802147994187,-0.6801736069457817,-0.29335323173330613,0.7686001381189447,0.030904661284013597,-0.3436748860811263,0.20798947621931102,0.023393322483338464,0.02950122730606014,-0.06609030460190461,0.08326962592480922,0.17423566659960754,-0.17122750856648997,-0.23255838774728999,1.4453125
0.8822675602796365,-0.7459692683656854,-0.7809023751592084,0.9704084545650574,0.3200126091948998,0.0951354327736142,-0.40865446161793423,-0.037739335755831195,0.11454678043023164,-0.07500825305485276,0.09041415765371769,0.2762492432074725,-0.26632332287388627,-0.43523476286962465,1.453125
-0.40533149536652413,-0.124618949133801,0.5670829627806572,-0.034241806860699164,-0.3814053657316576,-0.7009864259815983,0.8983948630928684,0.08906841242436159,-0.10535956341159741,-0.008866895313411135,0.014944315578035725,-0.08573502389455384,0.07322402561085045,0.20352654095153025,1.4609375
-1.9324055428876874,0.3260077365838564,2.287931068397947,-0.9713697915387115,-1.3539900998629886,-2.0428792164475413,2.877212816877021,0.2839117671860417,-0.3983030185303653,0.043674866528571575,-0.03820560888889584,-0.486887478489814,0.44663589704750534,0.9590915276738037,1.46875
-0.9226692784915074,-0.474925123667389,1.3668226611934595,0.09466193606934072,-0.9597053189546642,-1.8567900404254278,2.3246019670329483,0.2334721607986401,-0.26155370442507264,-0.03638142970579859,0.0605929570792958,-0.17282251806705226,0.14799733790141104,0.45761410072104647,1.4765625
1.4053289537283964,-1.3881748737093422,-1.1603463412921688,1.7251103408872215,0.41190359950403904,-0.12516024457871394,-0.3537760758011907,-0.02848772241905643,0.15966415844365908,-0.1369540465432762,0.1702618088132394,0.46124837889231785,-0.44485717775204703,-0.695710092203312,1.484375
1.6488456072536937,-0.6865320786976379,-1.7723033147464582,1.1906504738009518,0.952460539139514,1.1715229903901665,-1.8366832128569002,-0.18069615853334853,0.2948283930070076,-0.07602227092465093,0.08105255624845677,0.4518825827738647,-0.4254276225906636,-0.815878301440028,1.4921875
0.15133303375000637,0.7301657964862589,-0.510071755074738,-0.5898677872300496,0.48453454217366515,1.2195199687505958,-1.3664828850019912,-0.14221212927257132,0.11909767116150319,0.06269929415745254,-0.09404547985811645,-0.03360242585547469,0.040413083632275644,-0.07493829192939969,1.5
-0.2539225031606939,0.9837795384111815,-0.11392189359330426,-0.9539318138024703,0.29486676935524425,1.0521717816900718,-1.044746424241051,-0.1116645817449941,0.057305467842678516,0.08816068308731106,-0.1247973595608549,-0.15074387051268323,0.15270165104827427,0.12361941102335965,1.5078125
0.3279252552015538,0.4900161264164805,-0.6297750522012887,-0.3095595213628595,0.5056402030664474,1.1127220117190755,-1.3125824017625298,-0.13549481243255848,0.13239616159695908,0.039031415961775916,-0.06372361765586046,0.0340833595347726,-0.023004892887657735,-0.16537185279368882,1.515625
-0.18521112328907735,0.6014579184146106,-0.030163509202954377,-0.592168474969053,0.1560466802095723,0.6021575012375668,-0.5829123533838029,-0.06326238699218752,0.02845415094894146,0.053671032301280806,-0.07674006986118172,-0.09915695505053367,0.09906519945822713,0.09115448628288782,1.5234375
-1.4293984356329827,1.0392805972277068,1.3455878635304561,-1.4240735242997307,-0.6048579233106757,-0.3962141061442408,0.9274357909089249,0.08497605544795754,-0.20342584969834845,0.10363933224316939,-0.12929219590464663,-0.43654485275739013,0.4120859255228872,0.7102562181153396,1.53125
-1.61087143449177,0.9555416424583753,1.6096041670731291,-1.4151688545335486,-0.7890288873576039,-0.7476228573628865,1.3697339696861537,0.1296119936413214,-0.25401752559067886,0.09762859523978254,-0.1182925664701281,-0.4716588368590891,0.44306342930437487,0.7997638748340867,1.5390625
-0.8783036553671733,0.2290012664080241,1.0039804320874577,-0.5110994726950554,-0.5744837930787553,-0.8153779481333499,1.187046438551691,0.11567759298173498,-0.17104588341996033,0.02619525631285306,-0.028235737099327696,-0.22855158719161053,0.2109673657162117,0.43493536036654523,1.546875
-0.31785372338528467,-1.1935240825460391,0.9221454144474547,0.9438123096822069,-0.8439754924318376,-2.0816093536492235,2.3555423316508235,0.2409228637141045,-0.20735979463024976,-0.10550885088893885,0.14969818267529283,0.03712755239809017,-0.055072313222680615,0.15866916609378387,1.5546875
0.19446779451449295,-2.5627927268593957,0.8800128220593291,2.3302917332720434,-1.1270288611950692,-3.33781190344706,3.53035155763734,0.36651545132072816,-0.2493559153304306,-0.23141266306948188,0.3208583880525784,0.2835705350704045,-0.30413901376255786,-0.0913782021428049,1.5625
0.9041693731414835,-1.7169025451068878,-0.3823480404495823,1.8338220899811697,-0.1481201987448133,-1.2365672372878125,1.018698042419792,0.11063445549179532,0.007810489718703427,-0.1615593935064197,0.21270689667999748,0.37128284247294907,-0.3697872687451599,-0.4440142011703346,1.5703125
1.2326478429474859,1.4370207406337276,-2.1804179440673654,-0.8284349890374995,1.6876458413491433,3.607185154488812,-4.315856939338824,-0.4410342331427663,0.4451010077761049,0.11647045646292824,-0.18507720712359113,0.1577078634653982,-0.11995410668110183,-0.6142270121413174,1.578125
1.095373145861486,3.020010016957337,-2.7053926478011894,-2.2691079316087133,2.3741131562291944,5.65076751275887,-6.471138293734335,-0.6657800240790038,0.597122121749156,0.25807440385929287,-0.38406172386604553,-0.01917032145822357,0.06929116715423118,-0.5511876748814721,1.5859375
0.9750584987440436,0.7937740726739938,-1.5784217086643275,-0.34882501101924984,1.1671261792493919,2.3780431801612703,-2.902650203571845,-0.2960751454633872,0.3140780512603254,0.060693386108765096,-0.10360817016197213,0.1587085759722246,-0.13143908019311462,-0.48727818364759284,1.59375
0.6499724421146122,-1.6654804938470615,-0.08744802277334705,1.7009404055503508,-0.32116585697205824,-1.4913536202420197,1.3816474263801664,0.14650828516243186,-0.043427005851320734,-0.15509698922835283,0.20661000970290982,0.30744689979023215,-0.31055802459449816,-0.3189216831613196,1.6015625
-0.10762390475253304,-0.9057015056731559,0.535227572484482,0.7607087323096191,-0.5391019524465588,-1.4108675381463553,1.560064670979402,0.15977010345961495,-0.12826268845064503,-0.08075196959717965,0.11259559327360778,0.056632595543425084,-0.06993427264232377,0.05728165790140307,1.609375
-0.5120030372008546,0.5752065044161957,0.3923240139355365,-0.6871221859913111,-0.11449836539530489,0.1426825521316373,0.02641532576682284,-0.002263765029435221,-0.048769250825125975,0.05414289575895215,-0.07290756011369923,-0.1751420392759643,0.1670805055959997,0.2539741440884109,1.6171875
-0.23334414841529785,-0.5625709720696566,0.5374233944166412,0.4152229259116613,-0.46173750329998076,-1.0867530303915034,1.2535893771645943,0.1270884706981514,-0.11573128563018796,-0.04998000200795817,0.0697983984245642,-0.0029132549484473355,-0.008426839641983538,0.11602694507751408,1.625
-0.2670146886981008,-2.1677450475301128,1.2852933601735579,1.8166181658014118,-1.2919881952982146,-3.380497836739267,3.737980214469298,0.3848022732856201,-0.30837022977811707,-0.19245589170936508,0.27204818939808245,0.1369486961485995,-0.16359616278872335,0.13642684726623733,1.6328125
-0.9850132083396458,-0.7490390158309925,1.57052343553508,0.3111177954789259,-1.1493644749230838,-2.3263627882053357,2.8530364326616704,0.28796625846118473,-0.3083788076707273,-0.059630824264653,0.09509586590123657,-0.16493008578937376,0.134679363369257,0.49189814733356324,1.640625
-1.3214254649944241,2.0478611855637157,0.7670024159966755,-2.270615182478834,-0.014252996647960202,1.1570657123298802,-0.7846539864978282,-0.09202069783376571,-0.062406990884835596,0.19225795753126423,-0.2562499004271778,-0.5022058137339069,0.48986951758661085,0.6532206834232245,1.6484375
-0.6889932930079322,2.255939481976316,-0.12379846575006977,-2.2279713377240644,0.5895419629512171,2.27119073268165,-2.2071320179996388,-0.2353333710335203,0.10542733909775785,0.20519037540220117,-0.2838400995875425,-0.3705281705137599,0.3747721654582656,0.3370489030757897,1.65625
0.3042387044731875,-0.04464026157666075,-0.3652919361998077,0.1492710378861513,0.21928627961820688,0.33389977955471095,-0.4652694959520676,-0.04764132845546015,0.06524843369132108,-0.007955469654444146,0.0035683722102166004,0.07646612404365245,-0.07109863541365596,-0.1516136269274758,1.6640625
1.0000210122639837,-1.418175253298472,-0.6349392963150733,1.6036815255724848,0.07628657141738657,-0.6941694507994081,0.4011996530558969,0.04712045616020922,0.06372123436785135,-0.1358008544620027,0.17485298104657876,0.3664121091211028,-0.3593404632126594,-0.49249423080318194,1.671875
0.9004140677751933,-0.42560070507508163,-0.9433455681443751,0.6953492620401931,0.4936931388271188,0.5656661168421238,-0.9218016410053708,-0.09091870073929462,0.15528848787894675,-0.046606712551280224,0.050013974257537855,0.2512419678354758,-0.23805719269563208,-0.44441325822294,1.6796875
-0.14599451067145672,0.8694315452154331,-0.19754068520677182,-0.8134075801414209,0.3214508905688606,1.0292192654304297,-1.0572170912115566,-0.11222278297903376,0.06841659867748072,0.07710911657955524,-0.11065961583919642,-0.11421727616787174,0.11719907668127168,0.07076354830101189,1.6875
-0.9099959922152843,0.47051311449328415,0.9361367025932218,-0.7327484082969306,-0.47674751937313525,-0.5150933680380356,0.8734877061741637,0.08292749283537941,-0.1497914855553377,0.04779545578722207,-0.05860075648647905,-0.25734499524608645,0.24104837864230305,0.4494001828769383,1.6953125
-0.14891878886658116,-0.5251854826410277,0.4167737664259043,0.41158881427736266,-0.37791287476443836,-0.9265891518441017,1.0520383204321984,0.10674048573639087,-0.09262630494303548,-0.04701956435523067,0.06505314420787356,0.013342563146731814,-0.022739519481742635,0.0744989337787419,1.703125
0.764576219233753,0.1850564960046234,-1.041240632873282,0.10788889610776724,0.6930839288999734,1.247229878329387,-1.609227204280946,-0.16321314506554685,0.1950367411154205,0.008903527624883889,-0.02659276423342563,0.16211929202525108,-0.14647837185227416,-0.3784501299509527,1.7109375
-0.09921647313289088,1.9244278715005552,-0.7175880390942198,-1.7302262595309528,0.884280542652069,2.5660078622992555,-2.729514685831737,-0.2855049698764622,0.19971402088812332,0.17102498463901447,-0.24372456486082827,-0.20288150614632727,0.2156937989182937,0.04715906341070805,1.71875
-1.2145930793334987,1.5740439253116396,0.8364320377094757,-1.8149733384864695,-0.16538644920545284,0.6345366735289631,-0.25890499157077274,-0.03675588641721304,-0.0922785252604199,0.1487702471240563,-0.19689838726084222,-0.43258164354791057,0.4195125261426308,0.5996075172991681,1.7265625
-0.05182725152782899,-1.130932157797313,0.5583495336874257,0.981992076274386,-0.6032623904228752,-1.648814863166036,1.7966432095965974,0.18468003814185968,-0.14001093105812015,-0.10215893310473165,0.1412742089043523,0.09379151199258212,-0.1053310607022933,0.026028294014420826,1.734375
1.8481344572406446,-2.702010106186039,-1.1411800541285906,3.0388978635286175,0.10276340942243688,-1.3925878071283468,0.8578337018906398,0.10039071638673641,0.10864101603443146,-0.2577146152978045,0.33466545421335486,0.6875050945459035,-0.6731162861556049,-0.9131387130859432,1.7421875
1.4720272272243005,-1.6697743616357361,-1.1184165410532008,1.9937384119346635,0.32165197913842875,-0.4346649789781775,-0.04380918249806327,0.004236299128010698,0.14165737900578143,-0.16210723337286748,0.2052051369271333,0.5010439680193267,-0.48712039321427647,-0.7261510252504564,1.75
-0.03161643076379477,-0.6154009337300034,0.310281934819079,0.5319086596714734,-0.3320837794104879,-0.9025015849192566,0.9843799833913414,0.10059411612056979,-0.07703529618311554,-0.05564537643423833,0.07581737137661454,0.047719842011819905,-0.056970952905281334,0.018417679227517438,1.7578125
0.09752773213257929,-0.7997572558063228,0.22633809546085995,0.7434608489081054,-0.3206655297455125,-0.9922487797748325,1.0361181183403319,0.1068102554396028,-0.06820957578360591,-0.07377103093348014,0.09909781800710837,0.09760000291480875,-0.10413678166906899,-0.04759442402565777,1.765625
0.6640101333089019,-0.15322454833943522,-0.76980458119183,0.3756002048195041,0.44804782653806363,0.6459236874992335,-0.926438970481046,-0.09306527738497228,0.13450977102422929,-0.02117079574570119,0.016610333623057475,0.1732285875946784,-0.16065739023667877,-0.3309382542224215,1.7734375
-0.7207041060916007,1.6077762157141904,0.20307217790635534,-1.671113924077449,0.23810594665732063,1.3189935091410594,-1.1684237440204943,-0.12773971567722134,0.022968940016565374,0.1479047645157983,-0.2022579391935149,-0.31904074857071324,0.3163247082709416,0.3555424603549029,1.78125
-2.2905311391819856,1.7019836445308945,2.138788621266918,-2.3144067987930086,-0.9504178723227537,-0.581693268358733,1.4276020446854971,0.13096411270005856,-0.3221395688905947,0.17008996078237293,-0.21086399419436086,-0.7017991311119753,0.6642639049431888,1.1370799271706282,1.7890625
-1.2473971956432859,-0.1858701104354387,1.6526417652350014,-0.27879133709050885,-1.073918104771379,-1.8760617202654972,2.4586460396123835,0.2451962335689217,-0.30305721705028954,-0.007058879011421428,0.02461115649074435,-0.2801363902429049,0.24864125406026777,0.6215881168927766,1.796875
0.7864397463454313,-0.8873056312634579,-0.6017353672478654,1.0658062036396119,0.1760016879061031,-0.22509859988948921,-0.030317248602461024,0.0007995401934064473,0.07728994810998484,-0.08733661675022263,0.10861707862272783,0.2687028914394509,-0.2604480664158808,-0.389934181541811,1.8046875
0.666132927460288,0.548031564215188,-1.0807169351146235,-0.2400297059160422,0.800369466424946,1.63167283995292,-1.9900090682849616,-0.20347744810608304,0.21561091925827827,0.04133136135140733,-0.0718610673857962,0.10894950623545487,-0.08968898826163604,-0.3337339131694853,1.8125
-0.8358804692040573,1.601807116965643,0.3491348837270879,-1.7050060632330681,0.14574048550049037,1.1638137321486792,-0.9620266066958613,-0.1070726919981311,-0.0034766164637012437,0.14834343982780093,-0.201348073088093,-0.3453643418307568,0.34025427817769516,0.41217806154246095,1.8203125
-1.0413683482033893,1.2129758235490713,0.7807451862761045,-1.4398481169312465,-0.21213382831675212,0.3506166620909865,-0.013073812578733256,-0.009961789878810271,-0.09540165724692681,0.11588746377098218,-0.15189179397883046,-0.3599654556752627,0.34585769351042767,0.5168091931471678,1.828125
-0.01582803435250646,0.8382248761746399,-0.34574354148147135,-0.7465925560518468,0.4064343587000914,1.1518576324749423,-1.233469298682344,-0.12963288431697093,0.0935919681898436,0.07364389066716877,-0.1068228709603095,-0.08245228717295554,0.0878294500532186,0.007462563103990088,1.8359375
0.5839835730375179,0.7260758550386175,-1.0546839782054385,-0.43152706895055315,0.8241505753029704,1.774135652468883,-2.113938816561443,-0.21692709998795803,0.21727539381166816,0.05803092922539844,-0.09404343494213893,0.07149537294745442,-0.05311012698689573,-0.2924034832783675,1.84375
0.6959434857182539,-0.21238522308149096,-0.7859220978933632,0.4390002528192528,0.4445182872577353,0.6071295953920216,-0.8965260755678991,-0.08971975277423613,0.13517514619554352,-0.026669657003956383,0.02369884181214316,0.18542022297817895,-0.17322904882356488,-0.34689070837460084,1.8515625
0.9152208436975044,-1.4379534958028104,-0.5218868751224927,1.597235777092268,0.002353852870069666,-0.8284929137293557,0.5742044785228508,0.06452738835365453,0.04322018988965377,-0.13732220435804504,0.177434683245423,0.34961939295054406,-0.34476610699701166,-0.45180791869935155,1.859375
0.784975783589924,-1.6453643137026315,-0.2639319361227087,1.7311258783239867,-0.20628521702314456,-1.29150167802429,1.1196804880242561,0.12024778432930867,-0.010938061478195678,-0.1543978621626077,0.20386157354131765,0.33693868353216777,-0.33737972292557694,-0.38512843792917395,1.8671875
0.15716100192265822,-1.4432568219809827,0.4361369820665875,1.3276222548450192,-0.5982904496785695,-1.8193521159337607,1.907849758875392,0.19771597673260252,-0.12965507645923302,-0.13121641971985584,0.1797839183710101,0.16984980955391885,-0.18164742019977398,-0.07424181779428049,1.875
0.06388335131818235,-1.907432099813415,0.7537372169477455,1.7031425068664356,-0.9016704487550046,-2.5861827169656317,2.7662442514237355,0.28619316684563295,-0.2035966188114422,-0.17196175945198588,0.23837684556742847,0.19119186475828517,-0.20845449261120932,-0.028437209093922437,1.8828125
0.7471145775240233,-2.0484312172784542,-0.04347202840201064,2.0715739902424755,-0.43548873513496283,-1.900631437646216,1.7889868528674138,0.18946034185153365,-0.0653335704720997,-0.19018513749712487,0.2546607317449412,0.36563896735027773,-0.3694184204941175,-0.3673801599631729,1.890625
0.8612162725392047,-0.5630574400005862,-0.8347019963084819,0.8057341698800042,0.395002280139777,0.3230841432037701,-0.6470354393604093,-0.06266366172150073,0.13087958508415415,-0.058694847431816716,0.06751752147546045,0.2550632518056586,-0.24372181841349447,-0.4257552474617602,1.8984375
-0.20904491405540157,1.473121703285732,-0.3807462540095206,-1.3669636243497867,0.5726847215093743,1.7909045536576433,-1.8560407161691415,-0.19557258282173137,0.12327542763776804,0.13156991097570767,-0.1863807707012235,-0.18547920742222077,0.1919481991246883,0.10161058982155677,1.90625
-1.1330849361389992,2.0790043170465853,0.5123811334949109,-2.2302982895784504,0.15228773994804948,1.4494290131815946,-1.1665045261137095,-0.13036330556913117,-0.015288242884478555,0.19316492539708804,-0.26056160107999465,-0.45900613764992465,0.4520147454763006,0.5578553152345578,1.9140625
-0.8643736636509233,1.2978115329155056,0.5157512293688047,-1.4500148774620985,-0.027139409836605576,0.7039161745670478,-0.45641329954445575,-0.054803592104417154,-0.0445225332045296,0.12151282022595515,-0.1627974828390133,-0.3239032470624159,0.31629742778336234,0.4259899218007758,1.921875
-0.47814615865122256,0.8189341621009117,0.24380808203058413,-0.893072692654657,0.03328376796335607,0.5271349107392099,-0.39926255780670244,-0.04622786104486455,-0.013396003623522548,0.0759570956764022,-0.10349036647160179,-0.19024544501585436,0.18570064305577147,0.23732375962191263,1.9296875
-1.2609519122136537,1.3646432150703305,0.99224263269136,-1.6505093678721343,-0.3109677502278879,0.2751088323899713,0.14591983681226758,0.0049647428815755915,-0.12821858245172826,0.13111852853944853,-0.17063895209978794,-0.4264550414580316,0.4088374822805919,0.6262084844531631,1.9375
-2.0632033751453185,1.8438268324048595,1.7886659349524157,-2.3541678262207046,-0.6991216453576593,-0.08796579276770465,0.8161542465102459,0.06901916142090475,-0.25367316338903717,0.1800925420733591,-0.2291526782631136,-0.6588503521198174,0.6288204188294342,1.021831675781508,1.9453125
-0.7568077697755534,1.1382528188765875,0.45046908250107964,-1.2663018179113728,-0.02213824341420461,0.6184007153343245,-0.40174677738071296,-0.04839938776865926,-0.03829331876301686,0.10594804341344397,-0.14297545697302755,-0.28305717733031865,0.27616224375692716,0.37205456658902974,1.953125
1.906501583064754,-0.2621464130453816,-2.2856945035228344,0.9125639995012008,1.3698399005630544,2.1013993325550295,-2.9289824619522715,-0.29237457040118775,0.40290925026938956,-0.040981528206777355,0.027489770513187,0.47569065801485616,-0.43787818047129873,-0.9474571159444799,1.9609375
2.6505013870161522,-1.1184680154800533,-2.8432102259855863,1.9284158536162102,1.523808650506473,1.8612966819539691,-2.9292783436241656,-0.2872325377982007,0.4719232106558606,-0.12316521024785095,0.1333968571577094,0.7291508308728517,-0.6843142667977534,-1.3130764449901464,1.96875
0.5758667478139002,-1.2718553245534787,-0.1658329372219648,1.3250213263518384,-0.18305648200991528,-1.0367349655619467,0.9177965068245936,0.0978665167250553,-0.015046538870838205,-0.11945712113728041,0.15715235175699668,0.252623600453066,-0.2541812990587187,-0.2821267667187393,1.9765625
-1.3089682071432585,-1.3609663122545514,2.241826099855424,0.7350375699386968,-1.7065482726557746,-3.5968332176980793,4.334385954656911,0.43953121435194614,-0.4509932515523867,-0.11193003664799794,0.1727706028843837,-0.18309789088657413,0.1413948206676936,0.65207034936496,1.984375
-0.7469836970980263,-1.3814190259027743,1.5434953372192575,0.9538396962601802,-1.2751197280350237,-2.89874430741508,3.3864378303985694,0.34494994287944764,-0.3261450305906065,-0.11851276979872194,0.17432594934942516,-0.04728577184214146,0.01835373066281488,0.3720591440775428,1.9921875
0.7716265800229684,-1.1727746985669611,-0.4552715635177498,1.308420503759824,0.019815915355139886,-0.645558061347157,0.42874350717075693,0.04837772631793073,0.040543520276280755,-0.11220898245554513,0.1445173576502522,0.29111839503475906,-0.286503882074631,-0.38056707667642276,2.0
1.1955913096517214,-1.2629795338381884,-0.9473475868555268,1.5374483445620835,0.3065458978837102,-0.2248666351023432,-0.17306853016640347,-0.011115885771867156,0.1255827116276554,-0.12346265648662139,0.15462544403495865,0.39778326519341517,-0.3863900043691071,-0.5889713119696411,2.0078125
0.8217647350207913,-1.4058374595165009,-0.41711849335467455,1.5326135944543968,-0.05635223752506502,-0.9057913591087768,0.6901504227898793,0.07594403022156793,0.0252550786598342,-0.13337560491214281,0.1734938824282803,0.323017233788999,-0.3207115767144513,-0.40418456778943723,2.015625
0.489992510005922,-0.19974569759515018,-0.5317905750202117,0.3555451081205557,0.2886478360712036,0.3569850552711028,-0.5553565158156325,-0.05571009520946187,0.08982395569818609,-0.023732132196207262,0.02270947863057028,0.13525011902263703,-0.1274999123083033,-0.2443489955251122,2.0234375
-0.0341320094353272,1.9422190011718943,-0.8108323749177007,-1.7176018131146367,0.9473310845721169,2.67818107810476,-2.8735239410684787,-0.30005710403690883,0.21755594102814038,0.17142898651813343,-0.2456940524877961,-0.18601841400049585,0.2023838360098491,0.011576096428368007,2.03125
-0.679370060239534,2.4360354435832727,-0.21251079208588347,-2.3853571612435034,0.6848457417518733,2.5327938336142233,-2.491171364311221,-0.2648010836075869,0.12759764161559775,0.22137708728042219,-0.3066421924223159,-0.3861152939772416,0.39158534807183865,0.3333229136323248,2.0390625
-0.7718606153540097,1.0757905635743368,0.501272685806009,-1.2230176175870906,-0.06909186329979129,0.5074387995776132,-0.2759930517475348,-0.03542413457955292,-0.050259393428697355,0.10140774378010241,-0.13534489593613702,-0.2841475142357739,0.2740869743791032,0.3832682495895719,2.046875
-0.5760882553770706,0.7529576552593369,0.3947800730835848,-0.8687439154136525,-0.0758570229530067,0.30966353259269846,-0.13109063202634574,-0.01905320743396203,-0.04288268843809256,0.07080575463993614,-0.09507665754113168,-0.2076501529327145,0.19971606023196184,0.28553858636005525,2.0546875
-0.8095327069933431,1.819640531749476,0.21894849410257014,-1.887928232973558,0.27548014823648465,1.502756391458475,-1.3356712288692583,-0.14576418217200082,0.027548641409150573,0.16724307078636425,-0.2287715238225493,-0.3595840575119721,0.3578677677202462,0.3976559548372701,2.0625
-1.0012639111951573,1.1154919606245837,0.7690268030584748,-1.3325596279323795,-0.22659060414067128,0.26871217811044573,0.06051769851396935,-0.002092968600499974,-0.09651874879041708,0.1059493616852869,-0.13971631901808568,-0.33877031996598606,0.3266769059084515,0.49412078138445675,2.0703125
-0.4128956526377577,-1.60364054955025,1.2231980604728783,1.270772582707742,-1.1249039355574484,-2.7798951017100038,3.140650568764218,0.321834492670154,-0.2765608611698238,-0.14076280413800832,0.20130723931892616,0.05092697264592096,-0.07617959124185365,0.20871793833583283,2.078125
0.3648469575299134,-2.4926414764662326,0.6368593760792581,2.325496374574251,-0.9603758685928607,-3.0213938062811265,3.1306384846449107,0.32616670247255625,-0.20361481962879927,-0.22600857967627358,0.31158580471413766,0.3155826139930264,-0.33283662578406625,-0.17445483946916507,2.0859375
0.492215281110006,-0.543569802837329,-0.3784039051120245,0.6513449206770183,0.11398062698785184,-0.12730315104118978,-0.03192768734876692,-0.0013721408584823134,0.0493620206534911,-0.053660575682841084,0.06599294090783395,0.16541746801515553,-0.16170020790988532,-0.2419893110920253,2.09375
0.2728782132478579,0.7900088691316389,-0.6903871730445612,-0.5984447398815528,0.6109673362728052,1.4597709481690484,-1.6665194895755118,-0.1726266388684082,0.15407795122740583,0.06635596430402822,-0.10140146426029689,-0.008306379908520732,0.02022511656047861,-0.1374975718729429,2.1015625
0.2065366039222588,0.11652308362460026,-0.31304914675677653,-0.02546354467040442,0.22378479764533177,0.43303578655516733,-0.5379665641434107,-0.05587229677250754,0.062169077302744034,0.006807133118604993,-0.0164835951405314,0.039196041387100235,-0.034849148327828476,-0.10394004311727532,2.109375
0.08204726483152125,-0.1897141178938558,-0.019437447430017803,0.19904287639985183,-0.02904223759908646,-0.15903572799131196,0.1437300704003102,0.014079837496645035,-0.0018938671538517953,-0.018920373211234895,0.022274099360936828,0.03722475279868482,-0.03916213051079763,-0.04002605760389654,2.1171875
-0.14175289272360891,0.4920715805938232,-0.0348230724701802,-0.48326859151040596,0.13397408732562377,0.5039027017090243,-0.49191555339270365,-0.053478912737036755,0.025197306928637486,0.04393769167004291,-0.06319596134104201,-0.07979947717275665,0.07878848691070567,0.07102531637799295,2.125
0.02962546506247122,0.017606862805517844,-0.0454748336987624,-0.0036106144309523956,0.03306365702204593,0.06370261648445927,-0.07754308100680173,-0.009303592759644711,0.00986636799222115,-0.00013749311542503526,-0.003918530722344067,0.00502621188600397,-0.005932870490273105,-0.014406626129844478,2.1328125
0.6794767237010365,-1.6659168542093536,-0.1285329441819895,1.7120608894041847,-0.29568289657129226,-1.4497617910072975,1.326249184294769,0.14092877535645776,-0.03610564847768753,-0.15583757965414613,0.20663425943153033,0.3152144739840512,-0.3164291474887631,-0.33564152129826896,2.140625
1.269431469298913,-2.091216825699848,-0.6824958514534464,2.296298165892433,-0.046032375876513064,-1.2842188768319622,0.9423895898902435,0.10516126619090549,0.04801716221996521,-0.1984474267595932,0.2589112193064695,0.4936178293503409,-0.48622561467702746,-0.6272275633196859,2.1484375
1.3884686706913656,-0.7475648575357693,-1.4176068818670704,1.1554039812636774,0.7170099747879588,0.7472092685601476,-1.288013089947767,-0.12557629351810626,0.22890983574252963,-0.07960615265071834,0.08944780997737731,0.396789729392281,-0.3757473711936436,-0.6873534294480408,2.15625
0.9236781972371407,0.4153364867081119,-1.3437970175141813,-0.03209813550615398,0.9346806228972341,1.7759927485890146,-2.2353722483194116,-0.22713689159643266,0.25809694881443096,0.027601959535579753,-0.05590579672746791,0.18003550553972858,-0.15863877843055774,-0.4592422004761962,2.1640625
-0.13282758983703136,0.660038152593855,-0.125407039844724,-0.6236437637272482,0.2296054552256553,0.7568300327695743,-0.7692096043683231,-0.08221046987435573,0.04799743560531944,0.05817590149203225,-0.08420998286054872,-0.0915342861645164,0.0933213372687411,0.0634869489518044,2.171875
-1.359849523062469,1.112340500860288,1.2216012565265841,-1.4631687246434382,-0.5100868994437918,-0.19814290782905103,0.6889525383934931,0.06069206968935374,-0.17826602488977492,0.10929906443862165,-0.138319988287981,-0.42468527379483767,0.4043292291061638,0.6729640090194078,2.1796875
-1.9982854152208767,2.118213612563475,1.5893248319576223,-2.5799538230580015,-0.5132328819083755,0.3781121272396133,0.2921668267968087,0.015070808407140809,-0.20837001109989617,0.20476303563875048,-0.2636240524947516,-0.6707474845299891,0.6445846712376807,0.9909005269432485,2.1875
-1.8797516955877691,2.5366153615103,1.2577879701647676,-2.904016787704416,-0.21124317532000408,1.1156628254892689,-0.5441380643751423,-0.07093743173637836,-0.1333745046270139,0.24079406416591242,-0.3166802243512414,-0.6811781907511731,0.6607075748989764,0.9316379040435065,2.1953125
-1.4274907635505578,1.4930622287828377,1.1415936776483002,-1.8190661767171088,-0.3736252682495347,0.24459277963174017,0.23553335693151722,0.013145668326045907,-0.14974838266115864,0.14340730507929428,-0.18626120335942128,-0.4752915183887911,0.4561617012936866,0.706294696911945,2.203125
-0.5584221539557771,-0.5415402858602105,0.9374604042399457,0.28324664948935346,-0.7061893960598239,-1.4774737115107264,1.7878980103674393,0.18032453706436335,-0.1866235508146248,-0.04532013483646241,0.06805955927403753,-0.08044358365036042,0.06278686683055688,0.27678499836406234,2.2109375
0.9786612261127433,-2.128504319533331,-0.29790326039502,2.2250313704094666,-0.29448917430474364,-1.7152632298345247,1.5088056175014082,0.16196817027682475,-0.022286420912340937,-0.19925189283803116,0.2643940275167031,0.4283521261510158,-0.42769466319915284,-0.48211823015128075,2.21875
2.0374705102351567,-1.9273475418429018,-1.7157852004955116,2.422949757701975,0.6361292081966172,-0.06687318168338457,-0.6368562275726439,-0.05347536868580107,0.23975461603076229,-0.18996101241039853,0.23656874674549308,0.6586137393124142,-0.6345463446996059,-1.0065536105768458,2.2265625
1.1234328839551075,-0.21970433810462575,-1.3170389706646057,0.5955317411197841,0.7739215073756135,1.1457905717697592,-1.6258768038353164,-0.1624685955475045,0.230033673298325,-0.030360008309080314,0.023572684273354134,0.2852265505584611,-0.26548765847564465,-0.5568137528138172,2.234375
-0.5810538791729777,0.7956183205117839,0.37838208669469425,-0.9030638139283458,-0.05480227230391328,0.3676275500057865,-0.19309498757414154,-0.02551557547695677,-0.03787324851921855,0.07400707334124905,-0.10034679642790278,-0.20989571728605658,0.2033350300913282,0.28539957787216147,2.2421875
-0.3358539440713432,-0.3494788876414252,0.5722174103702812,0.19186015212830923,-0.43515708163145034,-0.9198206797150453,1.1098269610167455,0.11141553732557798,-0.11419391667413929,-0.03017055012769327,0.043367651281943885,-0.04538094230951962,0.0346789919984368,0.16540198472544712,2.25
1.41309722962884,-1.985691081674357,-0.9069670918564062,2.2523343067944546,0.11812147180109954,-0.95365283262838,0.5371498668171862,0.0640537814586345,0.09241286490432295,-0.1902882410450338,0.2453867323591446,0.5181980555235426,-0.5066374412059318,-0.6979001714525166,2.2578125
1.4091819047062173,-1.586492061063873,-1.074521891559641,1.8978475424591845,0.31312303820463533,-0.40168872041544734,-0.05671799559999669,0.002432270866139445,0.1368980076312678,-0.15428251934892295,0.19496645514683403,0.47849631921262026,-0.4648490172730339,-0.6946225997290628,2.265625
-0.5371141925609902,0.2887764790038311,0.5507102332018216,-0.4447427870627083,-0.27733922665350563,-0.29083232891810445,0.5017175088657037,0.04700144291151808,-0.08741393044741934,0.02910380553574055,-0.036806799835398335,-0.15541673812724305,0.14375498975526546,0.2679613036060047,2.2734375
-1.1309976964030237,1.1978668518246354,0.8964565349009793,-1.4540305670883014,-0.28733871043461695,0.2168952860268007,0.1613365699951052,0.007525359421450157,-0.11650453106084799,0.11464369044626291,-0.14975182595310493,-0.37810288307004886,0.363119290919957,0.5589362955076185,2.28125
0.034081282412063714,1.1046339172878323,-0.529029903927038,-0.9568441444984148,0.581846738706805,1.5934693300386131,-1.7282363354785126,-0.18065507358343968,0.1365480616085447,0.096350150332536,-0.14047974622960063,-0.09261304744688695,0.10270458028756661,-0.0203830323100265,2.2890625
-0.12607340880538084,1.5709431407818806,-0.5293240840839439,-1.4269814846578588,0.6870823665452894,2.036841559982196,-2.149699082928045,-0.2255182579971194,0.153284726770916,0.1396829517865323,-0.19892927605159844,-0.17517250491284142,0.18478299596355763,0.060183365869345966,2.296875
-1.4740699865455604,1.6452859977069112,1.1363123792354897,-1.9742823360778734,-0.3369970490501038,0.3949690207626831,0.09029981452944001,-0.0022473690093378013,-0.14388905768718066,0.15816377311026095,-0.20541901057861964,-0.5034097022769354,0.48304950861842166,0.7315346066465102,2.3046875
-0.5103470366158096,-0.4767035662741112,0.8524046541269525,0.23920267334502132,-0.6398122221428157,-1.3294261539918764,1.6125023501085154,0.1624340391658766,-0.16968798324997872,-0.03918514241182375,0.05966182417014258,-0.07875407507717298,0.06071779816684029,0.25580104084847427,2.3125
2.0766893210041806,-2.5766136203014947,-1.4858134568125616,3.013398777718174,0.34620197606365494,-0.920447484149537,0.26874909970698835,0.040767058603788334,0.17516485615278585,-0.24876640763327532,0.3184452630703763,0.7306277390822451,-0.709594813557967,-1.0281870670363231,2.3203125
1.6685407189405463,-1.0821970410596486,-1.6284133274180315,1.553656139468702,0.774000661190658,0.6462958544065723,-1.277992516139519,-0.12262358154887967,0.25523189739651625,-0.11249195157653671,0.13122155358714457,0.4973946835623061,-0.47103331435111345,-0.8292038386886683,2.328125
-1.4885152566082254,2.083622857642448,0.9591543023823277,-2.360857393008717,-0.12624071760217634,0.9936499810384479,-0.5508258422301219,-0.06890119748953778,-0.09569198158787111,0.19663157328674896,-0.2604745265915295,-0.5443695552741722,0.5295655804520562,0.7352322941874467,2.3359375
-2.140040014028125,1.8708764012775352,1.8750785355997994,-2.4091761989414886,-0.7473336524301173,-0.15041714838383954,0.9103555545113858,0.07829923074053674,-0.268548701498401,0.18370983699101723,-0.23237772548676874,-0.6812501486571313,0.6490944354616155,1.0615235400010554,2.34375
0.4664073187361497,-1.2730296865401902,-0.027538127030721202,1.2863271779930314,-0.27045619014549865,-1.180800145771951,1.1119573475772868,0.11720739311877731,-0.04024547666842134,-0.11847565159609547,0.15760741347222704,0.22668100038757483,-0.23040496943332214,-0.22776356327858638,2.3515625
1.4633214076701504,-2.158564773978005,-0.8968444210692198,2.42248878483998,0.07293317754292263,-1.127518814031463,0.7061905432629191,0.08196565109950028,0.08443291110370878,-0.2062586119269798,0.2669476460934037,0.5464430746545401,-0.5354618846313246,-0.7232523159564503,2.359375
-0.5708676131734347,0.1993654124106371,0.6293262631443117,-0.3769353495933878,-0.34617081992435994,-0.45642360691438116,0.6921503080956644,0.06648401250484276,-0.10438921571284139,0.02088497028538861,-0.025274163882735942,-0.1526250310100648,0.1409535629490595,0.28251094557601586,2.3671875
-1.7367997613310746,1.5950496578132818,1.4882922244245271,-2.0211584866848655,-0.567054271299043,-0.014410096180126675,0.6229300270939715,0.051264171860572645,-0.2084560513066245,0.15542549426817157,-0.19835155716543323,-0.558969194571116,0.5337449521634621,0.8607756974248519,2.375
-0.4982807897845172,0.4631317539769465,0.4276203368670228,-0.5840109627557234,-0.1610199568038252,0.00046065572828633654,0.17514535444213095,0.01333306040658532,-0.058878796060498936,0.04430905641026293,-0.05866568979588629,-0.16184832463350965,0.1527908002399448,0.2485853334242574,2.3828125
0.41999023319581436,-0.3354214365145479,-0.3810467112842778,0.4456082732905485,0.16336078287399738,0.0738579370420875,-0.22475402859738394,-0.02185328031422671,0.057598598972958014,-0.03481550973163564,0.039798726119341966,0.13014242489425032,-0.12575793804811775,-0.20746245998026663,2.390625
0.07301973777866808,0.2708991190988797,-0.21342851692285283,-0.212098307024379,0.19569748198475787,0.4775966954086408,-0.5391272890319608,-0.056919778772070835,0.04932253497191706,0.02195368128294201,-0.035667075836346145,-0.007537408246641209,0.010709396440815025,-0.037820878187262985,2.3984375
0.4372086496481165,0.050195241863593316,-0.5733139371871108,0.11295961816828637,0.3700407437906988,0.6368278526043009,-0.8372998874322374,-0.08538965711003159,0.10587872609888582,-0.000639048219536313,-0.008659039809162673,0.09825180370642093,-0.08967418054026391,-0.21774692906605825,2.40625
1.5908706544729365,-1.429433839566635,-1.3732418625125888,1.8296345553390185,0.5348031004178829,0.05299421880188918,-0.6103613736626678,-0.053847304636368484,0.19621547549752055,-0.14210208813210334,0.17487934164611002,0.5076298775413663,-0.488625442992076,-0.7866783043310188,2.4140625
1.538080188079689,-1.7843244748867635,-1.1525155843613313,2.1261289447900773,0.3173763573504885,-0.5100676687702365,0.013956396767884485,0.010642135883298431,0.14400802400834672,-0.17349326079970717,0.21954501381193994,0.5291994326167215,-0.5145593696183676,-0.7603751668479445,2.421875
0.4496906425722512,-0.3473181629520439,-0.4169287165766486,0.47219574444708484,0.18366976997672807,0.1000145133805245,-0.26469967849543613,-0.02580328959396268,0.06391472842316114,-0.036440700084112036,0.04122277071589775,0.14008356175811035,-0.1346782361101756,-0.22422117426773697,2.4296875
0.2954738394835407,0.8463039367213089,-0.7462431276802405,-0.6386263050014402,0.6589372612413505,1.572304960764966,-1.7970603980672073,-0.18599056490723798,0.1660461907328604,0.07149543195409548,-0.10848714400880877,-0.007638713515315969,0.02122540792055913,-0.14960011356380495,2.4375
0.8477275809956324,0.8408150068599197,-1.43453505437335,-0.4408215729008022,1.0866566531049648,2.273765965058278,-2.7445050282223926,-0.28054998874648923,0.28923226233995775,0.0667631083032239,-0.10912811145366152,0.12147993205316716,-0.09689168969329358,-0.4214985869247963,2.4453125
0.04898103062012841,0.7206823175728548,-0.37477609542310997,-0.6178518542057281,0.3975377155589067,1.0698118756088397,-1.1680736524921373,-0.1223796598634191,0.09438422329069515,0.06271898513032623,-0.09246583995454014,-0.05668036234532889,0.06190958359425026,-0.023574895213591514,2.453125
-2.0456948807541417,0.7875523093328264,2.229006590855168,-1.4183889939457766,-1.2126365158433379,-1.5432641955523787,2.378306419613794,0.23134984531776392,-0.37093261917509973,0.08581914636716416,-0.09616138909020243,-0.5566350893602955,0.5175276049990567,1.0149034338529435,2.4609375
-2.97099000738988,0.1948745694022707,3.6513021611039758,-1.2251911591472335,-2.2344120543469286,-3.56841460481014,4.8836586041086365,0.48505959210849514,-0.6478482303756881,0.04056633116417194,-0.019231577395679877,-0.7198037943696913,0.6560425600898587,1.4743491153812887,2.46875
-1.6241776079130676,-0.60064543451321,2.308194763010309,-0.04877160722832741,-1.5760379001463647,-2.9434226901390836,3.7408945712074626,0.37572914724527995,-0.43536323914172237,-0.041284261352552115,0.07789659041503204,-0.32918961939121916,0.28687029974022854,0.8086447536019329,2.4765625
0.1516448424555571,-0.19563593447114688,-0.10083768185662126,0.22413529774233545,0.019326932526778015,-0.08186771816930961,0.03748489261533115,0.003527051657868871,0.012068900059284815,-0.01970359111667935,0.022659229369517402,0.0517056466575017,-0.052981597862791684,-0.07210698052749721,2.484375
0.48754176944263733,0.845271659333464,-0.9819881788746588,-0.5707830987037068,0.8051311012042593,1.8131766158120257,-2.122928653243057,-0.21845054983124296,0.208138174589677,0.07008212195843161,-0.10921100536284108,0.03573721820040485,-0.020074977481594446,-0.24214095572082137,2.4921875
0.10860741901583448,0.5262175122629024,-0.37008736880872817,-0.42065314283324,0.35141548489592966,0.8810773985121039,-0.9868422825956917,-0.10315389061166627,0.08683672243767447,0.044317923507241244,-0.06793991305824386,-0.02186875439797828,0.027950424848887073,-0.05650418555560222,2.5
0.48709740327977413,-0.8128741363334153,-0.2602103519290992,0.8940948403117903,-0.020046992577481264,-0.5042664481577714,0.37462050088992327,0.04077236089056608,0.018709024980406046,-0.07835209702116325,0.09996947632454385,0.19247665954401308,-0.189534376871333,-0.24283742683458817,2.5078125
0.9982971765120021,-0.6442861158246546,-0.9739423639130732,0.9247398646311329,0.4632299467704677,0.3893570953258781,-0.7660326523651222,-0.07412416686329548,0.15289393939522583,-0.06721747355002688,0.07744397634100003,0.2960206522596454,-0.28149186806491844,-0.4947449809770151,2.515625
0.5146784942463714,1.0488874421510117,-1.1054789984839608,-0.7403507924471017,0.9281936108333244,2.133067335207314,-2.4767889040811166,-0.2550448762536487,0.2376408979035034,0.08810790212255946,-0.13482211742061365,0.022837522369173125,-0.00489355419409106,-0.25570668014325987,2.5234375
0.2844861330407153,1.072769349375367,-0.8281581589312967,-0.8410966351250025,0.76117641372889,1.870876512441028,-2.1148767761786713,-0.2190235215641617,0.1888755508866193,0.09195622086162887,-0.13721144239279287,-0.03350026067998654,0.04676874006739816,-0.1423975225252283,2.53125
1.535423503700274,-1.340316449080522,-1.346870511632905,1.7328795200020144,0.5401104697477791,0.11187202796393726,-0.6559258775884266,-0.058906240556774465,0.19521730097777085,-0.13414771454133154,0.16401566877327312,0.48808230895969307,-0.46810240085779237,-0.7615303485491041,2.5390625
1.931860256386239,-2.420597824950654,-1.3713701916421341,2.8253557578577504,0.31091475992507506,-0.8892837901400871,0.28537056461309185,0.04154171984686468,0.16060415029964187,-0.23388044114288653,0.2991344530328643,0.6829725745692484,-0.6635577996373342,-0.956608232241157,2.546875
-0.6867190043672746,-0.14781093541176277,0.9304696325305366,-0.11258142420155674,-0.6134285724394587,-1.0966934026324882,1.4232306590454726,0.1415845864360474,-0.17137796597320917,-0.008792589088163697,0.01862682571421696,-0.14878172642699714,0.13072545231434432,0.3422835534264143,2.5546875
-3.0601413657039425,1.7416793954436418,3.090456750608074,-2.6253193876746095,-1.5356951810621622,-1.522309086620664,2.7102770980315625,0.2588216317641203,-0.4917553503991511,0.18010522689467964,-0.21409334787072354,-0.8877609454463201,0.8339667094475809,1.5196756628158699,2.5625
-1.1129499234964875,-0.06402371657997163,1.430117170359188,-0.3412222816211084,-0.9071762851571433,-1.530752860959804,2.039974580800859,0.20266469482378455,-0.2585490411740895,0.0026711561131303376,0.00897902233146225,-0.25959696218698924,0.2323674681194945,0.554699364742598,2.5703125
2.4299922543447807,-2.4817972958945043,-1.9717253795451974,3.053242072056226,0.671115696255489,-0.3300958610084157,-0.49054699419419756,-0.03561570765228995,0.26601159306453637,-0.2432518667969143,0.30561499619200194,0.8054774724019471,-0.7757496791577184,-1.2036289816837704,2.578125
2.0603780116210286,-1.1507931607001334,-2.091668425888109,1.751793306539504,1.0477003452903468,1.058025897403088,-1.8583533097137865,-0.18017509461531012,0.33603133029598947,-0.12181739243615411,0.13891028705778352,0.5966120917484626,-0.5621805196922319,-1.023616056481265,2.5859375
-1.2507884001228389,2.1476395747079766,0.6313748119893599,-2.3336494912211934,0.09299808202334744,1.3919342070887333,-1.0631239336107463,-0.12045557227891675,-0.03443015906136223,0.2004431593038341,-0.2690365341064244,-0.49379252427919706,0.4848638013967293,0.6170656338642323,2.59375
-2.3168489312135434,2.706745265579271,1.7312919193566256,-3.208855817444575,-0.4683868320775664,0.7914868524394847,-0.04318980159429428,-0.02192344571127897,-0.21245065605270955,0.2597659507890251,-0.3371545331709121,-0.8004085286532836,0.7719350636243596,1.1480295495936605,2.6015625
-0.6869320370168364,0.5681718927349012,0.6176760373947842,-0.7457095640345502,-0.25718481719315656,-0.09572898796666485,0.3449837550804979,0.029611803234704026,-0.08975988587109802,0.05532938097904937,-0.07162753762422326,-0.21703260805359784,0.2046501463268426,0.3421106246273421,2.609375
0.14093293412687535,-0.5776535280535197,0.07482539618800688,0.5608754254291051,-0.1767417841269562,-0.6255861961946189,0.6266068256720988,0.06456268962480637,-0.0332692129667007,-0.05427412605141703,0.07082803185943837,0.08672746929184423,-0.0905256824354405,-0.06924289449103534,2.6171875
-0.3487141229152586,0.20325224490231555,0.34763486843973573,-0.2987593460261843,-0.1695236041502016,-0.16365698020182082,0.29886934925931335,0.027175926833206715,-0.05369199572455832,0.01932161328340131,-0.02620669567357524,-0.10046793583608998,0.09346227533853177,0.17163595116944141,2.625
-0.3527073356905676,0.8331018576072245,0.07982041258256722,-0.8554063654832518,0.14040158608123943,0.709586184488384,-0.6404792498417102,-0.07035934765464227,0.017264422083661368,0.07583235981181857,-0.10536746835570833,-0.16063729098047208,0.15863700388700874,0.17395335575938653,2.6328125
-0.18742224384747982,0.481837948816871,0.02757125033564335,-0.4891026279538241,0.09324579683383886,0.4292734786787564,-0.3954936183025999,-0.043779317480665304,0.013803428705284324,0.04327881133606558,-0.06162115726662349,-0.0898751489096803,0.08778775496944582,0.09368972883085958,2.640625
-0.44796979267882614,-0.11511268441442031,0.6134614397383624,-0.05673494567020662,-0.40772128982996464,-0.7393337650253641,0.9543003500825485,0.09455906228552974,-0.11315134781687919,-0.008021550630612911,0.013948189383385356,-0.09562233753330437,0.08299168360588437,0.2229816257283943,2.6484375
0.40021969111478717,-0.8948505650133988,-0.11564580604693735,0.9324056176350082,-0.12867394888936767,-0.7297738775958604,0.6474345981461446,0.0685471930062103,-0.010274339026631885,-0.08483287380016763,0.11025558034924722,0.17813159022124855,-0.17850488398557587,-0.1985803933532341,2.65625
2.250899936249746,-1.8315660391567345,-2.031163514494996,2.4162211414649355,0.8552555188091415,0.34887002126884414,-1.1600072403439978,-0.10634276920716614,0.3000590699280441,-0.1836155492292044,0.22415221083188253,0.7021465753377062,-0.6709499153262886,-1.1153528906875159,2.6640625
2.0385966555064927,-1.8783018371218028,-1.7384303309565772,2.381861008963639,0.6611896934489002,0.002362588139256128,-0.7114145208925102,-0.06123876027674729,0.24556195952574825,-0.18569185450492245,0.23038957480616207,0.6549930868706768,-0.6299731061411086,-1.007637671803346,2.671875
-0.4937318897632308,-0.7240851501415619,0.9418041980684367,0.4649876058869459,-0.7515664906466097,-1.656384117037622,1.9593847823106245,0.19857429068005464,-0.1944939018559218,-0.061629927446020874,0.09054628765559956,-0.05084625828757234,0.030936742022738356,0.24820611959997427,2.6796875
-1.380759946638375,0.36591434770477954,1.5753994183128242,-0.8101644431994494,-0.9000581247721223,-1.2712112076546924,1.8524826696933783,0.18135211508847976,-0.26878103182889285,0.04271246827013811,-0.04458729314315281,-0.3602174643004169,0.3320333225265296,0.6847801984664857,2.6875
0.6476378635246612,0.6873499010788007,-1.1192871006257377,-0.373008848235123,0.8558798907288665,1.804633937593136,-2.170382276432691,-0.22231261674997466,0.22735608426604764,0.05435672369661313,-0.08928587531304541,0.09028980616443634,-0.0705986305188875,-0.3240243896053097,2.6953125
1.8317028494531546,0.9034342575046146,-2.7003261587162015,-0.14382646220653328,1.8919293013842766,3.6344980422841036,-4.554811273340449,-0.4616878516251172,0.5193170357392314,0.06392192449264791,-0.11907418894654452,0.34921792751400715,-0.3025604847595437,-0.9108380677748774,2.703125
0.0008805145109237074,1.1567685979356526,-0.5055454075956658,-1.0172895395368422,0.5784547147454088,1.6183078049166968,-1.7428472301821487,-0.18237272933036236,0.13391178274536988,0.1018625176658595,-0.14705512348754063,-0.10782304978804365,0.11604937889877599,-0.0009913402267930466,2.7109375
-2.171612834449323,0.7265186018465425,2.4139766272043843,-1.4084548767200664,-1.341757720634297,-1.79143637526063,2.689482732442354,0.26279204073437135,-0.40631665925573734,0.08139821763770541,-0.0880858042650701,-0.5804700295657741,0.5381525299865402,1.0772058839019785,2.71875
-2.1052624479605364,-0.12156382103583231,2.699758777136997,-0.6379466316174189,-1.711759847419508,-2.890267962338586,3.8505955797812215,0.383779857665863,-0.4882270494843092,0.005047803242165687,0.018626993340750932,-0.48518697757119844,0.4376272131455205,1.0444079173422058,2.7265625
-0.647031949874504,-0.2374097964817309,0.9178260765911331,-0.020835959418336186,-0.6255248800769607,-1.1682535020109641,1.4866237990965978,0.14842255307228955,-0.17222334374914092,-0.017237253008248916,0.029866137416559843,-0.13096117066543636,0.11344858380239668,0.32189363120484277,2.734375
0.506706925516269,0.26424535206535377,-0.7506235423194016,-0.054537821219542384,0.5292145842783913,1.0233593317677214,-1.2777325761419132,-0.13058282415828057,0.1455652479037995,0.018201172491528594,-0.036110951142966294,0.09340534304925312,-0.08280552945075305,-0.24978774291427894,2.7421875
0.9770984646632905,0.016433556123148663,-1.235134415994277,0.333610226191246,0.7756453162405721,1.2859285955847695,-1.7256236543225822,-0.17382743970537087,0.22361272084859082,-0.007847730156878494,-0.005975386500403164,0.22801231483865383,-0.20945944960673857,-0.4836173671705771,2.75
0.8880330385549119,-1.1221410228875692,-0.6280368499154382,1.3087937327713886,0.13948408442074264,-0.4198817875722603,0.1433186876925239,0.019562515971425103,0.07347331260795877,-0.10899444491361025,0.13784424068676307,0.3147313808811502,-0.3068384828725186,-0.44009609991879717,2.7578125
0.28255570602998525,-1.367131597379723,0.24032109317071376,1.3094150047884259,-0.4580010071352084,-1.545581727142129,1.5683945943835815,0.16329763062086716,-0.09135082532933951,-0.12599948123235483,0.1701976499386151,0.19509251576515407,-0.20176443816161524,-0.1399007648019224,2.765625
-0.5943976866276441,0.34243640631225447,0.5978334050539743,-0.511878548716876,-0.29503533281263616,-0.2893015131690231,0.5212891012479374,0.048533289145069755,-0.09392271182847994,0.03400171947905316,-0.04325917549924049,-0.17255365627137864,0.16112826542957973,0.29463455282111845,2.7734375
-1.2205329936217966,2.144269019977114,0.5988133213624587,-2.3239493473928583,0.11149608615811848,1.4215274023117686,-1.1043032928400944,-0.12451472898203775,-0.029172763917464022,0.2003177356615832,-0.26892722038641786,-0.4897443154410656,0.47954675004447517,0.6045412391019788,2.78125
-0.8040041247530274,1.4194520023839277,0.3914091962277311,-1.5348965402123194,0.07743868859438398,0.9464395032294158,-0.7386054663334002,-0.08363127914980714,-0.018080715357476504,0.13225043488903782,-0.17850806933150662,-0.3237470982492883,0.316301517535633,0.39843200495454456,2.7890625
0.7816373986881848,-1.0207658761953535,-0.5370019256837494,1.1831478340184525,0.10615364217244098,-0.41736947249852563,0.17759615953246605,0.02242724111386207,0.06095211305341614,-0.09907716874291717,0.1254779775198649,0.27994534518382025,-0.2733995906688636,-0.3871246760313271,2.796875
1.7332730409059418,-1.5123613241469291,-1.519698861387485,1.955746133260178,0.6091187214049858,0.1255827137209063,-0.739063134723889,-0.06621248598688796,0.22020109671148044,-0.1513081156516978,0.18539392072956468,0.5523214887508563,-0.5286993416381258,-0.8599900761135102,2.8046875
0.34928189744461846,0.686849903032311,-0.7401272103710405,-0.47799608214945816,0.6192076779465036,1.4133127839281066,-1.6433611799343395,-0.16967146305404823,0.15945592062411593,0.05660818645877322,-0.08854724731325855,0.019872302352412892,-0.007344806757121266,-0.1748734823565834,2.8125
-1.4866760745426113,1.6566013679352047,1.1469827138676716,-1.990295892599855,-0.3410098725924657,0.39472871598483683,0.09531423138022899,-0.0018234177425312153,-0.14527473722287576,0.15909757609023206,-0.20680271737157108,-0.5069994180313793,0.48713792054655297,0.7375518292612954,2.8203125
-0.5915564584267904,-0.7991779189039677,1.0960374452927306,0.49124486075615115,-0.8651377876714589,-1.8855783143056917,2.240558049614969,0.22708583086780754,-0.22520041000267563,-0.0672169988714664,0.1002648858050425,-0.06811205439630152,0.04572508745788268,0.2971415807549451,2.828125
1.8501951623565933,-3.0373608190888706,-0.9987317606737501,3.3360928278609463,-0.06242935232842814,-1.8579292896321582,1.3581971679316343,0.15233287438218884,0.07083912890425331,-0.2878077064609909,0.3767075655906161,0.7195211585519548,-0.7076539978394595,-0.9142130848709079,2.8359375
1.884279222230923,-1.5321499581924105,-1.7029148997578756,2.0260313397352507,0.718926122235348,0.2962243033467437,-0.9762645045247463,-0.0897852166825893,0.2523824846597842,-0.154306831794417,0.18729974987485276,0.5900946548149332,-0.5632884192964218,-0.9352717261848728,2.84375
-0.3108493411702118,1.1691200952307212,-0.12229766043493859,-1.135990974687376,0.34283260860433984,1.2372995752981046,-1.224719010840233,-0.13071143642921165,0.06581716778809744,0.10529933639024612,-0.14788033947679632,-0.18096368523787718,0.18335995196501645,0.1519477085256469,2.8515625
-1.0264426144142365,1.1039733753252405,0.8096972287376909,-1.3379181186296838,-0.25501520218066576,0.2169367226146849,0.12565184123083656,0.00454115435081017,-0.10461246334839178,0.10603307882839105,-0.13827285961918576,-0.3468067375580174,0.33174119038673644,0.5099298633293349,2.859375
0.09364203357900347,-0.49800759013438906,0.10149746442596512,0.46973586921365224,-0.17575597551383892,-0.5768384304708003,0.591016776336748,0.060553686738883915,-0.03541198096472741,-0.04629342574685823,0.060767771055504335,0.06665614072958276,-0.07170264427111707,-0.04387230989559483,2.8671875
0.13246893732158838,-0.31858560246260825,-0.02914078085131731,0.3283292923129695,-0.053163466459901026,-0.2719799811010507,0.24841417438042943,0.02522679133883259,-0.005139887860825671,-0.031122583796239493,0.03820119258029075,0.061285609072620206,-0.0627427984870267,-0.06580538078077659,2.875
-1.0337736585012771,1.130886027239191,0.8032590060077043,-1.3597731060184854,-0.24458402325872936,0.2487596920097277,0.09359976537006849,0.0011094318047311803,-0.10214524306042073,0.10780056695195604,-0.141454558879801,-0.34832422073552743,0.3349803683971747,0.5101688727895127,2.8828125
-1.0349697129717366,1.513435790505457,0.6407382787991637,-1.6969220712464574,-0.0565907487178371,0.7785757006502362,-0.4765639625344187,-0.05807134811282338,-0.05918460634094534,0.1422579611842754,-0.18955391291030144,-0.38543126524430044,0.374778292745663,0.5117399999715591,2.890625
-0.17687609346259556,1.0629402587014454,-0.24024276841838857,-0.9968826786151572,0.3915882665476788,1.2564598841818373,-1.290643596598773,-0.13665010775438322,0.08282770571818056,0.09501505166293124,-0.13485909059469728,-0.14133846925830773,0.1447766459294247,0.0873824524820328,2.8984375
-0.4943387256085527,0.8898386084686213,0.2322248551928178,-0.9583299060828402,0.057590690877424404,0.6069938968214035,-0.4804223702675141,-0.054720527469759285,-0.008302333344107899,0.08200907078686405,-0.11239233597403504,-0.1995180833918754,0.1950455715096081,0.24431785167700099,2.90625
-1.2384731385883974,0.34432157300242694,1.4058163504248682,-0.7419642129400561,-0.7987597784560189,-1.1178417623160295,1.637867626052037,0.16005676155602544,-0.23907459215888402,0.039527870279511046,-0.04196651058534285,-0.3247716398022012,0.2998120287432527,0.6139911341209874,2.9140625
-0.5295037519088962,-0.7864990081812768,1.011738324734163,0.5066837999466045,-0.8089930723204118,-1.787904828668552,2.1134075120746894,0.2143086438310205,-0.20933617479207484,-0.06701555379616325,0.09883125193284265,-0.053497503701546135,0.03330296839224999,0.2648542935517611,2.921875
0.6526850749305838,-1.0337720697067454,-0.3650591519309559,1.1449270776127831,-0.0053445890941153165,-0.6076185102875195,0.4294532729525074,0.04763625536844221,0.029243794634454954,-0.09887767112588317,0.1272078425617923,0.2485531733409154,-0.2461485428945594,-0.32086559809502874,2.9296875
0.6936244448233982,-0.33274388431455826,-0.7260011483728007,0.5423470950612284,0.3792877774065093,0.4306913330669614,-0.704613296435258,-0.06980795313901945,0.11982019896885678,-0.03695447364056311,0.0387979471060581,0.194772904964147,-0.18502726151067975,-0.3434828108046031,2.9375
0.7917883210861886,-0.5807717344104508,-0.7449246717510939,0.7959290928829037,0.3357926228594854,0.21608502381654104,-0.5086964230647828,-0.048771859858629314,0.11450443438414018,-0.060075354755271294,0.06987075914708929,0.24253433658223503,-0.23183826531178833,-0.39345906373264744,2.9453125
2.07382457201987,-1.820465416095183,-1.8152865691800653,2.342787112938174,0.7236688919758386,0.13899464114910345,-0.8729578606445197,-0.07773398484751964,0.26191107807421876,-0.18115574590275918,0.22309547166493088,0.6600904565504435,-0.6322308390155351,-1.0276728278827456,2.953125
2.4438674098753546,-1.7967993861759015,-2.2880213149512496,2.45243823908443,1.023244061978245,0.6462140055602029,-1.547886383153233,-0.14526451327112758,0.3473199122056746,-0.18181814984620315,0.21915158445148172,0.7436233350123287,-0.7081971078673368,-1.2096287009049693,2.9609375
0.25993077547141674,-0.1358325211627166,-0.2657320060028456,0.2139335950835593,0.13536441521371684,0.14369446375906425,-0.24386796652831091,-0.02498000616603973,0.043643595436915775,-0.015414372252537997,0.014830250064640678,0.07273741142954471,-0.07041811228056682,-0.12729514077861842,2.96875
-1.958555810017612,0.9154689497464192,2.0635927672857366,-1.4984172748098807,-1.0809952543064434,-1.2524748983491332,2.0345729726006345,0.1962391947650948,-0.3368009684741307,0.0965628388324344,-0.11240678208658687,-0.5478262537616787,0.5119343555546213,0.9711181997843764,2.9765625
-1.345390941999586,0.5539041826439972,1.4482361622759194,-0.9618737062231371,-0.7774185029326259,-0.962398951390716,1.5076748541563814,0.14577540564347777,-0.2387886345807641,0.05889534454972916,-0.06800253265028312,-0.3679769383625207,0.3429550353079009,0.6658011659005423,2.984375
0.5347699625703477,0.6067818277965992,-0.9402439957767932,-0.3434874570503234,0.7264358966587183,1.5441462689699323,-1.849596923377411,-0.1897765209406921,0.19261920797438725,0.047958929598622024,-0.07885661486203284,0.0708906889344094,-0.054970333989452225,-0.26729819380752967,2.9921875
0.48235076315841086,1.7994686254692356,-1.3944998444298258,-1.4152577337725711,1.27911127034535,3.1438698572562864,-3.55521234502061,-0.36719828599082793,0.31706639798853764,0.1550765491068739,-0.22914837643592628,-0.05404066689992379,0.07830439351731672,-0.2414765504825886,3.0
-1.0265939921113296,2.0437470683105174,0.3979485621391695,-2.164339870757389,0.2143387530847327,1.5322334924222474,-1.292000618106285,-0.14265121719508736,0.003357246501451127,0.18961124980633987,-0.2566515259744739,-0.43381593050673783,0.42715014074931423,0.5078079379033879,3.0078125
-1.1904707585299035,0.04080577805660777,1.4802721014547142,-0.45380382797452684,-0.9142405676865432,-1.4835699389703745,2.015357349633631,0.19956638876939697,-0.26351373239281584,0.012155323105470269,-0.0039042759919725705,-0.2850096275126854,0.25786448725415034,0.5910567229922531,3.015625
-0.04195610797664128,-1.8256173672536777,0.8521899319252163,1.5980827354381744,-0.9436139506776527,-2.6103824212908675,2.8297013956953143,0.2920223033926671,-0.2178280145001909,-0.16406372969375912,0.22871864918219006,0.16087490115115263,-0.17894791318902276,0.022961197593835386,3.0234375
-0.10729531327293183,-0.8116181749267594,0.4918270109576734,0.6759153887537578,-0.48959106538825714,-1.276009131951962,1.4151343210433045,0.14471910595024928,-0.11649843691934791,-0.0728571717944878,0.10103318972244626,0.0499014202086591,-0.06096850619756193,0.05513620491560053,3.03125
-1.3808643050131815,1.3807716306901003,1.135202181806232,-1.7113123285683411,-0.3962377659611632,0.1453621714339837,0.32730683786586573,0.023019844289014817,-0.15325537942335712,0.13369695015370917,-0.17247114574286398,-0.45697843933546284,0.4366352348022777,0.6857721940917262,3.0390625
-1.0482974979208683,0.8670212536944232,0.940459204877173,-1.1364675093689525,-0.3906490222514741,-0.14271579291430855,0.5206760232455461,0.04541078305426964,-0.13685773532668008,0.085082922896816,-0.10853276144961149,-0.3306913037405602,0.31295057323192754,0.5209751098468856,3.046875
1.137568135146463,-1.695020843504672,-0.6899667393687636,1.903607516731903,0.04899646885993899,-0.9005191552628453,0.5742658877837793,0.06604943043379514,0.06400312567664329,-0.1621463772502189,0.20944173451745846,0.42632257366800214,-0.4182649011839813,-0.5625472626475632,3.0546875
1.7356899632280547,-1.6739915781934176,-1.4523903380854781,2.0981831752215143,0.5302589829234376,-0.0966134187160198,-0.5004623523193442,-0.041426199112162915,0.2020981011614645,-0.16559601471053234,0.20557028390182033,0.5675153840319046,-0.5454957260778287,-0.8606038289652317,3.0625
-0.43794902857982354,1.3910080521734436,-0.05893395104995809,-1.3792937719142246,0.3526495181715075,1.382554268772075,-1.3359567367335377,-0.14317790887996354,0.06219600779711978,0.12615429996354127,-0.17565751252967785,-0.23204520767787767,0.23357490706308756,0.21512017544077702,3.0703125
-1.694875340978803,2.2908594348484757,1.129297353188726,-2.6219323345818766,-0.18665314723800225,1.0155057702728663,-0.5018142438947367,-0.06524975671128953,-0.11927466788272206,0.21733055942614482,-0.286278804639862,-0.6151184526584802,0.596308166436586,0.8393132258735712,3.078125
0.6223040621614467,-1.1278752977220912,-0.28923497286229066,1.215917995766409,-0.07406215417611077,-0.7743577400168806,0.6188993312887614,0.06708609209340471,0.012101206263054975,-0.10700383420432867,0.13909000389669215,0.24985530997786337,-0.24877671798329776,-0.3064142112837522,3.0859375
3.620651884675138,-4.068490635168305,-2.7753713100525257,4.877393009863658,0.8141637949861099,-1.0119183438126929,-0.17130407282009644,0.005734274223155693,0.3531424980064284,-0.39487057306825457,0.5027755738412566,1.2342343051680555,-1.193054273495552,-1.7927029263846546,3.09375
3.324499149409623,-2.4990667521144783,-3.091174257970547,3.391618699366026,1.3671633315859255,0.804442359290935,-2.0263177365404546,-0.1888729178908889,0.4670603170011549,-0.25271157844363284,0.305850586893074,1.0206444570917574,-0.971085209584939,-1.6491964007081745,3.1015625
0.40897669585549346,1.0630882705554867,-0.9815309135024095,-0.7864979819751939,0.855401788610878,2.0201273825228077,-2.319608881198904,-0.23941139152689486,0.21650385905889927,0.08975925537185019,-0.1361816181652274,-0.00029687269543797527,0.01769887569282763,-0.20558707901883194,3.109375
-1.6434760014385954,2.444591349572645,0.9989004894448221,-2.739245217182558,-0.06974345092882248,1.2961520938674378,-0.8222242615973294,-0.0981225483274094,-0.09003285062395246,0.23070208385203975,-0.3055923516653291,-0.6163770782274172,0.6003416370447617,0.8138845414217704,3.1171875
-1.7085212922652215,1.5897573741486342,1.4560875369535817,-2.0117146954510834,-0.5492901531185787,0.013485314036924925,0.5839200229761756,0.047382247729779996,-0.20338016661813357,0.15503451236419644,-0.1978838072243471,-0.5532593852274929,0.5278896787523758,0.8480708025407221,3.125
-1.4134178434453835,0.8469847690057369,1.4080348574605186,-1.2495087135339953,-0.687035338564905,-0.6426827206647284,1.1878385154948052,0.11210465254655887,-0.22140983940765174,0.08594418319781061,-0.10500189086315326,-0.4132780336478628,0.38836522208944957,0.7010446902926688,3.1328125
-1.779083682904333,1.0940981607014222,1.7588223283581794,-1.5938202239143757,-0.8496088001860487,-0.7683802106204364,1.45019153444199,0.13682943665630284,-0.27529692501137126,0.11093726787647393,-0.13515317031137447,-0.5218374978488336,0.49163199819767034,0.8811932172250233,3.140625
-1.927498084221428,1.4059121675521609,1.8109664106123213,-1.921434072648199,-0.8115687164504704,-0.5260341042848855,1.241002335077456,0.11409478169563946,-0.2734237097373006,0.14026054315115574,-0.1740124392101183,-0.5865460388231842,0.5554948092067418,0.9554756030472349,3.1484375
-0.9605384457969628,0.6911149770722186,0.9085151579575218,-0.9492018411081906,-0.40987386917308427,-0.2773390661386842,0.6358764492464091,0.057949543421862294,-0.13713712299070985,0.06853962035781212,-0.08631565191944938,-0.29209370430931075,0.27518959562767076,0.47750655930314795,3.15625
0.4467380209974019,-0.952846384803332,-0.14469072936019908,1.0000993300286838,-0.12396179026397705,-0.755689011604562,0.659755164144482,0.07015367668839537,-0.007239926805698931,-0.0900708540077831,0.11737239291421468,0.19379853897106827,-0.19449505309276063,-0.2195974300948854,3.1640625
1.0539715928769473,-2.0771831021208214,-0.4187842417118216,2.2072201749721,-0.20722272122413588,-1.541793201841013,1.2946701158351066,0.14025761754145827,0.0012974026593730733,-0.1955664987094703,0.25759584015138376,0.4419588275698582,-0.43886799135711096,-0.5205897105478543,3.171875
0.8589639098959401,-1.639914873557842,-0.36346464069001533,1.7516310002648843,-0.14343824636805633,-1.1841559931653294,0.9780727947741669,0.10601181095746097,0.0069492884129376455,-0.15481614368244928,0.2030223915555486,0.35433697219976285,-0.351759438561504,-0.42390419516535355,3.1796875
0.7683264504749878,-0.5293016264425605,-0.7334032039334047,0.7412049542965776,0.3385921609020483,0.2504817509350571,-0.5358638197248619,-0.0518064725260165,0.11363574103649991,-0.05499646272121548,0.06331492445146962,0.22937258386712475,-0.21975735349858222,-0.37962571498885855,3.1875
0.9674230831249163,-0.15564636014757866,-1.148806103212896,0.4859849106581869,0.6832884369881775,1.033083407247685,-1.449751926315272,-0.14528598576109103,0.20220218936764975,-0.02361271007325411,0.01579635181359706,0.24304030141547905,-0.225983777529089,-0.4799076980811914,3.1953125
1.0100762615493448,-0.442962237917278,-1.0797157674913112,0.7559186616999624,0.5759586360932383,0.6901388597692854,-1.0962326182346966,-0.10825992381447357,0.17964783974692605,-0.04974020803754796,0.05205139511011158,0.2811758030459417,-0.2647530511527524,-0.5022910883545041,3.203125
0.9329276772206456,-0.43277714423625113,-0.9868894720664012,0.7161055925129762,0.5200902168990016,0.6044803833395369,-0.9765581503798447,-0.09637316318286127,0.16313124161349532,-0.047906422919256876,0.051106885545464935,0.2614397463077899,-0.24578154673991826,-0.4636864873665025,3.2109375
0.7115211629227172,0.28043821688933535,-1.0174591395582258,0.004773732691097887,0.6997696173311088,1.312790642741174,-1.6613692724784814,-0.16901821981388573,0.19411145236618654,0.0178867731779765,-0.038280129788913056,0.14134640047148633,-0.12464395928977819,-0.35290883090365793,3.21875
-0.3035174576258256,1.3355391405497683,-0.2012540837493778,-1.2849687326873087,0.4285691828161604,1.4756027361294513,-1.482438005390423,-0.15745566091234497,0.08556381263432672,0.12039002664996298,-0.16900680290809045,-0.19656298442936618,0.19987850777263788,0.14996143795293,3.2265625
-1.6745851069229072,1.6973863000438576,1.3630638737161125,-2.087049960348754,-0.4659309440038661,0.2112496989356178,0.35782211173663614,0.024130303717546493,-0.18228917543768802,0.16378230661589963,-0.2114018822630759,-0.5526137458696193,0.5298358230185992,0.8284390903376588,3.234375
-1.5116713122190653,0.5393731157581286,1.6637475398304966,-1.007562642726627,-0.9152255436035559,-1.1976906019378464,1.8192514279324017,0.17697259297740803,-0.27806395537262757,0.05905876816985119,-0.06572861920553748,-0.4058489023176185,0.37711482494739024,0.748190030919428,3.2421875
