AF3,AF4,F3,F4,F7,F8,FC5,FC6,O1,O2,P7,P8,T7,T8,time
-1.2172174610973552,1.194253412949615,1.012093257803462,-1.4837069357924833,-0.3610332182100795,0.0937053937522786,0.3257541600523816,0.023975066297380273,-0.13755791853386665,0.1155010516561525,-0.14919085557683248,-0.40004007718878454,0.381664985276862,0.6045789356263804,0.0
-1.222233057970547,1.957380194450699,0.6804614395852698,-2.156669769449086,0.01901544372235493,1.1598811644595288,-0.8226785703963152,-0.09528585581514935,-0.05030843045763569,0.18339488335722628,-0.24525634433378674,-0.47142099384860114,0.46037049723932355,0.6045504865191856,0.0078125
0.6365609137519557,0.8703065426495801,-1.1864638759881636,-0.536669479658835,0.9395103088930525,2.0471984701904127,-2.427972144893859,-0.2491378071297581,0.24620883936561327,0.07044908725867217,-0.11236465368432613,0.07117730829183583,-0.050035331653892984,-0.31952370258649015,0.015625
1.0302069247372196,0.8569419709222404,-1.6742949161061622,-0.38661660528352093,1.2411307406697087,2.536327921579068,-3.0916705921996486,-0.3153325569274045,0.33349779250055456,0.06597247082512744,-0.11144566153270445,0.1660826734950632,-0.13646355657500184,-0.5149341334232617,0.0234375
-0.5501060802829818,1.0439261576884633,0.23691486936475994,-1.1149822675509728,0.08924090626887042,0.748637198721141,-0.613030751475076,-0.06888600661838998,-0.0036157498871218306,0.09642611147657783,-0.1316202681576087,-0.2271780699928343,0.22235509768398165,0.27250934376918673,0.03125
-0.9295135488086874,-0.9899332609053468,1.6060471077621281,0.5434344171629795,-1.2264016627110217,-2.5914183870325167,3.118652459941017,0.3159392575387277,-0.3236554735774489,-0.08139095832975347,0.12502343325454926,-0.13025316389609662,0.09787706080605453,0.46578257455060734,0.0390625
0.3248108850138924,-3.082498938578585,0.9415179458960874,2.8346475749672453,-1.2845678192637473,-3.895702096744016,4.08635607639377,0.4250608540798582,-0.27980753956004406,-0.27874466539191417,0.3856689220816744,0.36126483442019236,-0.3840054797821534,-0.15541858208141104,0.046875
0.5121814180178506,-1.8422191454325982,0.1614338188398166,1.8072569029999919,-0.5161854501534016,-1.9149556129064382,1.8866103194645731,0.19797143181846635,-0.09431067198903523,-0.1701401036714999,0.22935543545081394,0.29246929173453634,-0.2985232901876609,-0.2522914309561436,0.0546875
-0.332104754867725,0.8280014766591666,0.05599736843497018,-0.8469559204107359,0.15399553503991917,0.7299519030557841,-0.6692386664856953,-0.07319124729094431,0.021405862395839293,0.07504418660677513,-0.10480256693117945,-0.15463263550738632,0.15381778419907938,0.16331320547407344,0.0625
0.2542371260163522,1.1606851245747614,-0.8269831459077778,-0.9307288805357263,0.7803377065915604,1.9534440953470542,-2.1930014136892706,-0.2273381040496659,0.1919341575192297,0.10010720698133947,-0.14813281524654734,-0.04780039051617478,0.06140997749497216,-0.12711849576774706,0.0703125
1.7331255838241453,0.19762289374390357,-2.2683390890077715,0.444255998446064,1.4622300203094232,2.5204263203101354,-3.3202732613170567,-0.33419827098093097,0.41598831364846783,0.001870541235366563,-0.030275484070485224,0.39137242524647636,-0.35421258077149104,-0.8606405071373256,0.078125
1.428769724975084,0.8670600176189341,-2.180383738141764,-0.2547196622333981,1.5588774343258052,3.0658002044260244,-3.8013269512737233,-0.38627884768136694,0.4245341870754383,0.06375535350761946,-0.11371803178501207,0.25826323388214206,-0.22046871127620027,-0.7121763000355487,0.0859375
-0.24369515557636795,1.7453736662436194,-0.45935782280635085,-1.622899863982403,0.6830611048273393,2.1300489235433395,-2.2090183482481875,-0.23249801195764108,0.14711888108311308,0.15588338579446115,-0.22046406669454202,-0.21909986858337244,0.22868953433402792,0.1171184333336709,0.09375
-0.7086295903982512,0.04409890160661252,0.8735315698760507,-0.28708708222663604,-0.5344561220551437,-0.857082158737746,1.1722579294017748,0.1153765168849589,-0.15419514433638343,0.00836814683946614,-0.005464494927809506,-0.17301957158273124,0.15600703680215075,0.352724884650447,0.1015625
-0.19469917042849375,-2.0378277180050186,1.139924869801351,1.730567662456075,-1.1723668417756927,-3.1085886789973474,3.4194890629533026,0.3522377802915805,-0.27771081494487987,-0.1812344575106211,0.2552546553351928,0.14099022068590028,-0.16633064120760577,0.10203237210028404,0.109375
-0.8811027507983694,-0.6124528284174858,1.3781798591323948,0.2289888934393456,-0.9987721895958052,-1.9989878117411501,2.4635435490646,0.2482210864986297,-0.2689771126744479,-0.04849969003820916,0.07745019360902389,-0.151986344376847,0.12533985359539615,0.43954437110735445,0.1171875
-2.080042024738748,2.282541038107676,1.6169461118097788,-2.748969702727782,-0.49249402387585417,0.5060980358808836,0.18199774950583048,0.003058747300963653,-0.2069309325569277,0.21939066819540062,-0.2840863087665219,-0.7025417816323425,0.6769815228189412,1.0287127732669417,0.125
-1.0750848458704731,1.4837047144361506,0.7018355414125926,-1.6877833388404824,-0.10139938949544373,0.6886811162938514,-0.36591511233936463,-0.046860067736226835,-0.0712455471205348,0.13984656056706823,-0.18579386822398664,-0.3914608470335903,0.38038538502381475,0.5311436803274133,0.1328125
1.457638292928488,-1.999385710462211,-0.9584146254031052,2.280659087203996,0.14749743102846782,-0.9124862567087533,0.4759133060891036,0.058060922176218166,0.10114970989908732,-0.19162895755320047,0.24680837692447666,0.5290347106140295,-0.5174420651269731,-0.7195675666698768,0.140625
1.7130947456142083,-2.3460775365304065,-1.1276043721233808,2.6763785451504094,0.1749137528458671,-1.0678680410604788,0.5544211348660806,0.06798202626228321,0.11913659735068935,-0.2248023668880396,0.28984469537333774,0.6218262905839955,-0.60808083071131,-0.845717256052188,0.1484375
-0.7241293357269782,0.6026526276193398,0.6461492688577869,-0.7861168301077538,-0.26540402431581916,-0.0910330976556422,0.3518192920329821,0.0301013873357797,-0.09284937657197492,0.05807565386348684,-0.07570099239098867,-0.2263452565419046,0.21456619590344822,0.3582131218009737,0.15625
-1.6481194001602697,1.0353522969421363,1.618480056015053,-1.4937607166128406,-0.7748208435424436,-0.6800273037122598,1.3087755029205057,0.123059543765389,-0.25203670975865333,0.10435977308874386,-0.1279240044369923,-0.484511040773815,0.4572560726399042,0.8153894790954016,0.1640625
0.5396524820667378,-1.8343179838751078,0.12489385878680061,1.8106290722658713,-0.4918482777893068,-1.870196602768739,1.8286973273407763,0.19214859698767806,-0.08764181348476988,-0.16929519572093302,0.2283901945238002,0.2973525618865795,-0.30360488239609196,-0.26500609057103885,0.171875
1.7550384148872835,-2.0441632451486327,-1.3094976241087422,2.423988587479275,0.3558083646737336,-0.5949302176060436,0.031080722308196883,0.013908963519258041,0.1623843270108377,-0.1978111254083686,0.2519103312784947,0.6025774896277726,-0.5856212736524725,-0.8662011142442834,0.1796875
-0.4299539710865375,1.8766997169883195,-0.27845768698039614,-1.807372889512563,0.5986338006996167,2.0685833099905997,-2.077142836957003,-0.22009161677435485,0.11885101688118452,0.16978126741579502,-0.2368611626800621,-0.2772522825987861,0.28205240659150127,0.2122308487412806,0.1875
-2.030173407857356,3.7562119500297846,0.9075758027548196,-4.028291593500865,0.2835223182297742,2.6338850027826073,-2.128869939979198,-0.23655412885208899,-0.026154667554548712,0.3501865288182248,-0.4697467159786746,-0.827799103349996,0.8163597664386304,1.001349920862477,0.1953125
0.29787086794137996,0.7361640769452086,-0.700783637494729,-0.5369816468250759,0.6056709284484456,1.41943621659464,-1.6328433080170652,-0.16896458992732086,0.15409044520975487,0.0612437100859086,-0.09458660715042103,0.004224534242550108,0.008754087796619021,-0.15138718891184194,0.203125
3.019732310821493,-2.012635941848232,-2.9187008567873685,2.8510546831420482,1.3695342578116063,1.0900896404865472,-2.2275179647366645,-0.21183077465613806,0.45353453368648095,-0.20628280210084327,0.24529449589484698,0.9018160608033464,-0.8555833663134679,-1.4971290556544552,0.2109375
1.9429872412656126,-0.8628246929198887,-2.064604707372107,1.4522337777574446,1.0958083340400482,1.3046087022018318,-2.082953624360235,-0.20420316225305843,0.34129864412649413,-0.09435893941265959,0.10264802644394952,0.5383454132016253,-0.5068587718151017,-0.9618680007081569,0.21875
-0.6079334572438809,0.6707603884465073,0.4716170641345284,-0.80595988422699,-0.1419659502894147,0.15280101381701938,0.048179464513394714,-0.000592987705737753,-0.05955187789459188,0.06365296641142783,-0.08485231421352168,-0.2077235769356332,0.1978755180529051,0.3023862811005198,0.2265625
-0.6434944408655557,-0.45715243105263115,1.0068133472977703,0.17755796875481902,-0.7313160476920338,-1.4698593146261794,1.8093009432043705,0.18193913383686355,-0.19649861868814536,-0.037065597216579954,0.0574586657571614,-0.10983686555400722,0.09085558889700243,0.31961779849555055,0.234375
0.3531567237584612,-1.3832388090399195,0.15893110830970344,1.3484143011882401,-0.41069515843685794,-1.4777004246603627,1.4705756440332747,0.15363831268077036,-0.0772240063852834,-0.12814369486311128,0.1720894346537829,0.21301396516393606,-0.21819462550653612,-0.17461360485605393,0.2421875
-0.8734191197398306,0.4583266116206672,0.8997694603331399,-0.7130800010974601,-0.4569167464853091,-0.48937318217338455,0.834172009085646,0.079119963970809,-0.14382810532075338,0.04677652718260451,-0.05711937282639636,-0.24915578680692063,0.23238491971803346,0.4336520217278578,0.25
-2.8144935520504597,2.211102260202419,2.576068152479538,-2.9502127945705734,-1.108200465202228,-0.5475060642979898,1.5742437657387751,0.14256001606287624,-0.3822314577226991,0.21983955055496548,-0.2737811371439425,-0.8727812836143478,0.8285590420791896,1.396691198301465,0.2578125
-2.178688637023045,0.9251275269524245,2.336795496153577,-1.5904907766713712,-1.2499739291159162,-1.5230363797569428,2.4032976517707634,0.23301468686458954,-0.38591663857818137,0.09978730494244842,-0.11337440041810584,-0.6028386837343196,0.5618590273840782,1.082008028462602,0.265625
0.08593129265340652,-1.2055409290333519,0.4187139323965937,1.0941098275497774,-0.5333201145428552,-1.5749176533644906,1.668771500141383,0.17240024604107038,-0.11780542381552947,-0.10963304764896685,0.15007906622226522,0.1324489921831048,-0.14202632478699287,-0.04123680748362359,0.2734375
0.940004147574112,-1.1737556355873968,-0.6680258965735875,1.3705948785638378,0.15323303298172913,-0.42754291707763753,0.1343485198802996,0.019013384424487016,0.07906349368773223,-0.11410538032955779,0.1443752008398442,0.3322665388673722,-0.3233832142387853,-0.4652882470933594,0.28125
0.5542632230843968,-0.32172395396381265,-0.5537704031848518,0.48291576129669617,0.2744162213690278,0.2640016370081266,-0.47639470888763236,-0.04705378476264605,0.08923732581327992,-0.03458631361523144,0.037888484477464485,0.16070613717220164,-0.1540430159814532,-0.2734269365876927,0.2890625
1.0049038060499642,-0.8610592229326737,-0.8859791937712161,1.11938366413012,0.3595319685158608,0.09311204858938345,-0.44986116744068455,-0.04120430132390944,0.12925142521053815,-0.08631610038261593,0.1046721840239107,0.3164131234988512,-0.305258168424174,-0.4963927943218302,0.296875
1.966161955982659,-1.288877969550347,-1.9114928748576168,1.8388761982880057,0.9035858694892207,0.7413730736788259,-1.484175136273403,-0.14196622112770396,0.2983654613635377,-0.13296847440470227,0.15647871826980522,0.5845620921308621,-0.5552403635270207,-0.9753095175888187,0.3046875
1.5192917730338664,0.21480624197245834,-2.009199644907775,0.3544002359766271,1.3054125612142125,2.2704381363378716,-2.9761136191187476,-0.2999463346154248,0.37073374482301913,0.004358171965224045,-0.0317215853058616,0.34081883039791044,-0.30660634313080226,-0.7571811675627964,0.3125
-0.2949533916479086,1.7657229655082225,-0.4039162227741953,-1.65801044240714,0.6535298401107208,2.0929877109081203,-2.151755227633876,-0.22687887256623676,0.13815317091969687,0.15803367683077052,-0.22304373635485447,-0.23259586997189707,0.24101232776966902,0.14267636977397707,0.3203125
-1.5584842690046867,1.4288791118257067,1.3360320950856552,-1.8104324042650053,-0.5103433276167763,-0.016370396780212956,0.5625805578483343,0.046201957094240804,-0.18742556060513865,0.1392084418212257,-0.17802056468635857,-0.5016956408774051,0.47863271331726187,0.772783190492256,0.328125
-1.2092198798063585,0.7022019406439569,1.215339314555719,-1.0464815806987637,-0.5999362362120145,-0.5826509624989428,1.0513822138729967,0.09934964257217588,-0.19232871154720332,0.07167507900270627,-0.08730277870651318,-0.35183685631331174,0.3297722030025909,0.6005262901538492,0.3359375
0.03005311422965113,0.6603419419921098,-0.3272782810866462,-0.5707392758851,0.3545866300693883,0.9641156731615312,-1.0477765534953873,-0.11003332871914663,0.08379321534390016,0.05719540657823844,-0.08461221035505533,-0.053848179065698956,0.059249385300787986,-0.01620758068630207,0.34375
0.8530614433579878,-0.30313875038908683,-0.9417435875975505,0.569818970385284,0.5210933816061739,0.6811113919500417,-1.0301253140048794,-0.10250003237670352,0.15970524012382584,-0.035747875100081046,0.03489347970012756,0.2299061179664233,-0.21501900024512882,-0.42337810957624133,0.3515625
0.5662482175878482,-1.8183575825463567,0.08426674972992931,1.8042040506675132,-0.4627691933925756,-1.8133843678801351,1.7580992862698115,0.18501105229167855,-0.07977808823432533,-0.16808795075597965,0.22612089495877077,0.3009687140554928,-0.30694488016442545,-0.2769564889134294,0.359375
-0.4545286308095497,-0.9283832935120654,0.9803515242084783,0.6592160162297336,-0.8217663751967271,-1.8899808511011569,2.19682370124576,0.22350126312655472,-0.20894579512383835,-0.08001792352593122,0.11624094080707272,-0.02326340454157238,0.0023690956875500576,0.22901048589357323,0.3671875
-1.0751382166461618,1.4697675980056346,0.7096934232063005,-1.673539783107136,-0.11000344094362179,0.6662567783357053,-0.34165582630938074,-0.044346017123754196,-0.07332502329006343,0.13862089431983943,-0.18417495599219927,-0.3905716960180263,0.378511234805266,0.5317997168508424,0.375
-0.5060775861652045,0.89578751982985,0.24304658936789442,-0.9659775999281601,0.052330273324718596,0.6015011377768392,-0.4706874615131961,-0.05380401091715607,-0.00989421163966589,0.08241074361851086,-0.1130251812472623,-0.2015722733834859,0.19775507433624348,0.2489480271809786,0.3828125
0.6687568961834249,-2.273858180709058,0.15386861827322157,2.2429557448882904,-0.6090990969582398,-2.3171879076218675,2.2651279214558113,0.23836022744662477,-0.10867936354483129,-0.20968262514105518,0.28336185810660497,0.3688954760832476,-0.37609767536230254,-0.32832200182338594,0.390625
0.8316877161856207,-2.60125478222976,0.09508990814759644,2.587260766336514,-0.6472511724013563,-2.5680195001833424,2.4793546877525925,0.26172178582105415,-0.1102825771836942,-0.23982713085368196,0.32404997192859425,0.43608493583482993,-0.4439379440294955,-0.40697503359556947,0.3984375
-0.6282071609087477,0.9082757427387635,0.3951038829995979,-1.0244554707123796,-0.04081200854942304,0.45669787889434893,-0.27077234355051494,-0.033903943361730284,-0.03717022283455965,0.0850676268848682,-0.11456714675808327,-0.23406855643343782,0.22601833955893752,0.31211896817028106,0.40625
-1.7626038270503435,3.0908736795158482,0.8626103196945548,-3.3474782467071424,0.16188152375556003,2.04912847419351,-1.592012853179979,-0.1789291879139348,-0.04181828820050029,0.2885163397321029,-0.38663702311609627,-0.7024553571352429,0.6908101135462442,0.8695370619138905,0.4140625
-0.2719920940103715,1.3771314304029545,-0.26584388210131155,-1.3029897667853807,0.4797866100527641,1.5818252791966487,-1.6096561133817466,-0.17046385903065286,0.09934380052069704,0.12295377091327322,-0.17402480957969868,-0.1895646686554561,0.19575577199537086,0.13004835778794052,0.421875
2.404987630596341,-0.9680296313915856,-2.605262816460902,1.7149689316273364,1.4101276033007322,1.7599836197317875,-2.7357824911674817,-0.268862320647512,0.43496028932512604,-0.10818376741205833,0.11517499159257481,0.6600571100858365,-0.6178575310820901,-1.1946242962902947,0.4296875
2.2991554240136156,-1.0811163854346364,-2.417448731938306,1.771611906408406,1.2663531341112333,1.4596009703628907,-2.374034180241613,-0.2320026136598899,0.3967172263605836,-0.11678781166680294,0.12937790821618594,0.6430776567503825,-0.6058432035473357,-1.1387069853105019,0.4375
-0.6878600924501387,-0.0965452927959331,0.9117040427412617,-0.16190825131647488,-0.5907357625718832,-1.0285551113033136,1.3506403900842165,0.13406280659937866,-0.1664772118462505,-0.0038003118581814615,0.011995599900389278,-0.155959972575003,0.13718724719817096,0.3446450022430416,0.4453125
-2.021173976538432,0.13687501897365287,2.484041921550279,-0.8400242207617844,-1.5197645256682841,-2.4239752166952204,3.3196050020835317,0.32923071733121345,-0.44063168537271863,0.027840974708501155,-0.01416374668231824,-0.49163061656847795,0.4477083171893325,1.0043882410941067,0.453125
-0.09642210536570567,-0.16537405161509303,0.19218635234466616,0.11376354446525738,-0.15630391131101523,-0.3545980971892667,0.4173702294301264,0.041186089958553586,-0.039242333229915466,-0.015536756169280333,0.019848907359516704,-0.006493051915166488,0.0026785582207735285,0.04670324067707374,0.4609375
1.1056594227090026,0.012793552541512748,-1.3960807308904244,0.3840163906996155,0.875944598831894,1.4479369877961183,-1.9446183339358625,-0.19570962282330978,0.2527741621865726,-0.009515582136528339,-0.005384777985527863,0.26075401678698706,-0.23794482517374407,-0.5494311423939007,0.46875
-0.4729644700285962,0.5452617876870824,0.359518037470674,-0.6477798378546927,-0.10043276716314219,0.14848494326936135,0.006687755692867311,-0.003991487460128658,-0.04387276589556246,0.05153456713248999,-0.06922426884929052,-0.16416142908075113,0.155971317313732,0.23624099690938583,0.4765625
-1.4655618338512553,0.3694711111546223,1.6829169987797434,-0.8443829032191674,-0.9666936037920666,-1.379623328485443,1.9992676593876506,0.19601980637322794,-0.2882664012766147,0.04399612054498782,-0.044949177110865074,-0.3828722588493419,0.3519310172979224,0.7289860380866029,0.484375
-0.10690151913646145,-0.5996931319597669,0.39376140138504717,0.495127499944683,-0.38028126091490855,-0.9748407947486426,1.088434842385623,0.11081199825613684,-0.09130583157688918,-0.054341514757501735,0.07426664639500345,0.030505438943062943,-0.039005285203801116,0.053023337503846336,0.4921875
0.5361506504262479,-0.8613470699645585,-0.3000058664629693,0.9538796870744483,-0.005983853422885159,-0.5098043511496076,0.36334380497031565,0.03996487846136442,0.02414443852728149,-0.0831495803424822,0.10592523709264637,0.20803913173736918,-0.2046070767321218,-0.2664022669656565,0.5
-0.629058849991818,0.21261313041921973,0.6995981907474991,-0.40933345149685774,-0.3877370540506538,-0.517041569548655,0.7783809396552618,0.07501964420652882,-0.11686879491959382,0.02287585236253327,-0.026816128475174873,-0.16851290092009263,0.154774037413736,0.3128594643055026,0.5078125
-0.3728670917846849,0.9250709082100377,0.06538527560618405,-0.9472086066338551,0.16920193521122218,0.8122862729078327,-0.7438570993141578,-0.08124910715406618,0.022753796686109332,0.08458370861414671,-0.11727363395322071,-0.17524198923000428,0.17244268362780207,0.1854560199259445,0.515625
1.8016741605885356,0.20774952120831733,-2.3603422103957254,0.45891103454777477,1.5221301066942774,2.6253214196894485,-3.457084186484238,-0.347941160282069,0.4330513546291473,0.0020697986920288044,-0.031796766224149016,0.406702033430702,-0.3677075552066874,-0.8953625909024933,0.5234375
2.095581502342152,-0.3787199862669584,-2.474840352423593,1.08117200746346,1.4613961697425446,2.1858101440666062,-3.085855845306134,-0.30737982154363114,0.43270054335762476,-0.05317264057629802,0.04155309164596649,0.5323585310333849,-0.4907228400863281,-1.0421986377744856,0.53125
-0.16228800992114392,0.08752855691178651,0.16514347156025133,-0.13230637279701205,-0.08181376864669392,-0.08599684830900974,0.15073741880015148,0.013086380081415846,-0.025030873124587523,0.007410266351182612,-0.012035954563424392,-0.04522204871335435,0.04179508910386663,0.079481804574388,0.5390625
-1.1984043367488677,-0.02082403898951413,1.5201214659548665,-0.40561284773693823,-0.9529104332356504,-1.5821029579933281,2.1246770654049567,0.21091314203245778,-0.2728471355593159,0.007014303798380701,0.0038238686923130366,-0.282220471572475,0.2536456613949347,0.5966490515287093,0.546875
0.008329059312950625,-1.0945127932393413,0.47238057846566184,0.9688309088870525,-0.5418399452674113,-1.5247398475820553,1.6418167745042638,0.16911329973805841,-0.1235653968861584,-0.09853707334979522,0.13625088473972352,0.10177426375491476,-0.11461514691214318,-0.0002825886457496088,0.5546875
0.4705795039292501,-0.8515279685094671,-0.21796276452003652,0.9186168732632786,-0.05560264619415551,-0.5844587298606705,0.4674473376854557,0.0503376365514974,0.009503417459138368,-0.08112446713246005,0.10475513608726852,0.18955628169335317,-0.18917003981690683,-0.23180373764490086,0.5625
-0.6388022716025548,1.0043050950269672,0.36335786759102884,-1.1105137815257766,0.0017335708877116813,0.5804156903676656,-0.400909075219901,-0.04749327329614059,-0.027512301827023505,0.09316043210574056,-0.12628923452583013,-0.2438434334831574,0.2380881294554178,0.3147935810461839,0.5703125
-1.2012373268401735,1.566514232677038,0.825377657481059,-1.8046538594207053,-0.15950440442794223,0.6393933598317159,-0.26865425262551723,-0.03762159652693242,-0.09025631968316383,0.14811179483438838,-0.19592540837330366,-0.42948697508668143,0.41647537950114266,0.593938930088671,0.578125
-0.8640220856070873,0.01804991358419513,1.0810201297862196,-0.3199255261293725,-0.6700479739622154,-1.0944263034332713,1.482212979209996,0.14649419479283055,-0.19263777475186378,0.007694561589292659,-0.001942417163763483,-0.20715400420872015,0.18666363839889102,0.43070029946019456,0.5859375
-0.8634063323558948,-0.9449789270144188,1.5021600023567867,0.5278982063061015,-1.1512431172354625,-2.4421710897746527,2.934828065817533,0.2972914940012652,-0.3033403230501593,-0.07810235868833942,0.11929050237755295,-0.11741812259300116,0.08816745034691158,0.43214905430962436,0.59375
-0.6575962650647426,-0.23082607828777063,0.9279096810473825,-0.02954000376615859,-0.6306395667405484,-1.1728110422799956,1.4948604564963892,0.14920301765121274,-0.1739926167039374,-0.016521410775543748,0.02907546850836169,-0.13392480068465354,0.11622857480649597,0.32715882835482896,0.6015625
0.6590334062432088,0.13750878441035294,-0.8924141069961907,0.1135865221098615,0.5896239314268179,1.0489982911868123,-1.3595243659463543,-0.13805372453045925,0.16667963265586908,0.005146569885666064,-0.020219332630429042,0.14316797038559675,-0.12883141822519031,-0.32837767055398837,0.609375
1.7593144626405082,-0.6170419665240054,-1.945626110376297,1.1707187094734486,1.076031902737601,1.4144206752518436,-2.1371907669567194,-0.21121374124416487,0.32844798624399585,-0.07111322877484973,0.0721788490691981,0.4723099137434094,-0.44160636056288927,-0.8728667780751378,0.6171875
1.3714360983343297,-0.7022201979693747,-1.4183406977605122,1.110113572059607,0.7274083903229661,0.7906810113324108,-1.3292815679171697,-0.1300229874773009,0.2305869953606698,-0.0754767178867491,0.08374499588931944,0.388861973883895,-0.36774161865451205,-0.6795631988033559,0.625
0.474429622566982,0.7674723385130323,-0.9342972719561083,-0.5019331893208676,0.7587027550335689,1.6896537564543102,-1.985494144438866,-0.20432071066835744,0.19724974174297202,0.0625956433389444,-0.09911843824819035,0.04256118191629234,-0.026941378931570278,-0.237843843308142,0.6328125
0.07205282835470625,2.34472093993023,-1.1213991482887442,-2.03529942725782,1.232928639906275,3.3810984403093913,-3.6685716653246536,-0.3818247758808368,0.2881498776636385,0.20636241531547264,-0.2966813376475462,-0.19786823788865682,0.21988134932294526,-0.0419788072987303,0.640625
-0.14487366207969965,2.332106399781516,-0.841810958898758,-2.104475678793333,1.0544596788499718,3.0813333870617865,-3.269324759285848,-0.34188919349607527,0.23692220824667348,0.20755632105377256,-0.2946905830389453,-0.24995859551993946,0.2668327721225324,0.06706536997010279,0.6484375
-0.08795550642391507,0.4371269948934405,-0.07844313711058613,-0.4175718584942356,0.1481350855360231,0.49593590377540203,-0.5017720159896895,-0.0541477741566971,0.030707099006667044,0.03877367195598667,-0.056366256423869415,-0.06340110560654794,0.06311749043721596,0.04473084980303664,0.65625
0.4770661127794452,-2.0866315913642497,0.31845616717216485,2.0071852852582484,-0.6699364693833784,-2.3087158492049307,2.323782128917867,0.24317156094728584,-0.131648228002685,-0.1909506438669233,0.2601280173232567,0.3042055073063671,-0.315519419026138,-0.23102024673709373,0.6640625
0.41727414328671036,-3.408210479595205,0.9698575353491146,3.153240307845523,-1.3745374862855317,-4.232944233119736,4.41763922193359,0.4601665114555348,-0.29607358839835257,-0.3087042536615073,0.42679079296724665,0.41472652533845106,-0.43823546700862137,-0.2010222964437762,0.671875
-0.9144820804856041,-2.8983127180697967,2.4202087227084506,2.2321992035471667,-2.1650672590812814,-5.240311885070955,5.967931653580065,0.6118709644173128,-0.5384043779100806,-0.2522030764279425,0.3656478704845563,0.053409379238384104,-0.10017711193380417,0.45859910675801385,0.6796875
-1.9343775994097172,-1.347771575159111,3.02694967385627,0.501571762906112,-2.194344357244947,-4.392317274933793,5.410724226035649,0.5469429199460184,-0.5918290744738395,-0.10504417664808961,0.17255151673076968,-0.3332551827833366,0.2777354577964446,0.964423445785936,0.6875
-1.5175052408109029,0.6372200023218475,1.6349363321508532,-1.1020596081858913,-0.876798346293043,-1.0755986612568507,1.6909221329288655,0.1636441205850314,-0.27009443471890343,0.06871278617577764,-0.07860289879335408,-0.4205474349293693,0.3905939127030772,0.7558784186129239,0.6953125
-0.7090394516318673,2.4606507918429132,-0.1849759212794051,-2.4207854764992187,0.6722350867739744,2.5280430192811028,-2.4759193537935995,-0.2633878839691687,0.1230443098968733,0.22419886206134784,-0.3100871662606125,-0.3975934620101262,0.4016744982531916,0.34980852111362903,0.703125
-0.025020008143150887,2.58124317441884,-1.1040941288670045,-2.2801125478597184,1.274140233449475,3.5873028968947045,-3.856976032999281,-0.40210189603196184,0.29294003100651994,0.22856229911317122,-0.3265172809458136,-0.24431123851036582,0.2658463209071985,0.00650806240501997,0.7109375
1.2474055233165462,0.8025660872492167,-1.9262353658922222,-0.25822165153314847,1.3860227508554204,2.742491258396786,-3.3900791810335558,-0.34486181935812715,0.3768195808013567,0.05895576382803364,-0.10507235732017953,0.22287135020874363,-0.18902442482971643,-0.6237457459623698,0.71875
2.2890346763643157,-0.24078471155339637,-2.7759508843169733,1.029928392190272,1.680912619557975,2.625090900971711,-3.6263171068234032,-0.3621574107761217,0.49198574647556836,-0.04257454858247462,0.023970251715498544,0.5646549919933056,-0.5186247605321543,-1.1376482274740236,0.7265625
1.5678828557465212,0.7603192042809926,-2.3056014460044776,-0.11033158596699542,1.6131769463570975,3.092705440896315,-3.8788440836239375,-0.39332716523545735,0.4433684694715974,0.053164305981770854,-0.10068097391766974,0.29955968083311285,-0.26109705609015316,-0.7795394944470689,0.734375
0.05511384873912935,1.41096112075044,-0.6891993924591425,-1.2202747427042566,0.7506524883819744,2.048813864748611,-2.2266276567602192,-0.23224808683940806,0.17607626415534466,0.12395568305981845,-0.17924121081190908,-0.1182192261758335,0.13044886337155664,-0.02990323168443804,0.7421875
-0.5919265045599851,0.52133818745393,0.5138765938104128,-0.6648750065935383,-0.20144513383816734,-0.033155935978512234,0.24299155662936317,0.019679898612778843,-0.07221275362716703,0.049815011552499865,-0.06557054517279198,-0.18712987199409198,0.17856245248876587,0.2917349544829867,0.75
-1.059331211425665,0.18337790900675627,1.252890440917921,-0.5351024800194626,-0.7391880045427609,-1.1136419095414523,1.5713572573809926,0.15438723163041448,-0.21712224453445636,0.023583508215399274,-0.02192292502504932,-0.2662423636656145,0.24423759770170766,0.525284851977552,0.7578125
-1.688891875581139,0.3414460514585494,1.9790724058865152,-0.9017900361881858,-1.157742462620455,-1.70975249083853,2.434002608149709,0.23962263809702763,-0.3423007415847498,0.043470818901309397,-0.04071814825836104,-0.4320566314220089,0.39617069252325476,0.8402127253077615,0.765625
-0.5946258932228953,-1.6430717326137894,1.4714445536065452,1.2349284350822143,-1.2904748930774312,-3.072727125412899,3.520856328982805,0.3600255246398898,-0.3232967513172732,-0.1421752043905039,0.20638709486001924,0.008797562283920903,-0.03981007269186613,0.3011440484916513,0.7734375
1.9238439666578782,-4.339730746922472,-0.519286799006181,4.508444436207044,-0.6568623022859837,-3.5873279019630884,3.1962044948492196,0.3437066259220404,-0.062802130354174,-0.4040127660679073,0.5403298372196548,0.8553973475144382,-0.8552259601453686,-0.9469886707697722,0.78125
2.2233694552296317,-3.476967309843028,-1.2764343055651401,3.8564715153300617,0.01219217225695084,-1.9893028564337347,1.3692977589952158,0.15608873908297244,0.10512324135808443,-0.33028995085770063,0.4313103868362564,0.8486778648066823,-0.8327577153994492,-1.099442619115964,0.7890625
-0.3965655522658559,-0.1635643301025594,0.5701714955866352,0.0053739513633716774,-0.3913064346724839,-0.7408427424640898,0.9381571466369862,0.09322872739768827,-0.10683432195522506,-0.012972595651900037,0.020100224390336836,-0.0776821166189813,0.06681180246789438,0.19669524810902597,0.796875
-2.1193315731655,1.0115870835501934,2.226625881150015,-1.6434977099821073,-1.1607430390634592,-1.3280666137440216,2.172428284050913,0.20948803029324795,-0.36257482030115246,0.10686603040027012,-0.1241491336243203,-0.5958440072335299,0.556981460932981,1.0527254513349733,0.8046875
-1.2494531592412583,0.5331060135362683,1.3422405967821356,-0.9132590749950967,-0.7172818490154472,-0.8733607007183903,1.3789338907642228,0.13311177523929865,-0.22121733121611992,0.05716679533333909,-0.06596135938168342,-0.3465626075381484,0.32143474908184916,0.622074884973307,0.8125
-0.1706995940872668,1.5750635572057248,-0.47546601193448335,-1.447500493844591,0.6538405058103138,1.9853352802135376,-2.078672652829461,-0.21845218483815423,0.14350855357004308,0.1404405912286322,-0.19946317026071467,-0.18650473152631675,0.19488398539033008,0.0822831188693979,0.8203125
0.022241123017635624,2.663516819377593,-1.19861460695061,-2.3362563469388853,1.3522600424988773,3.7624877825088694,-4.061701925799208,-0.42303734954640493,0.31327376435868853,0.2352850383097218,-0.33677380748227703,-0.24035688011570666,0.2639085753005263,-0.017460347304373534,0.828125
0.5794937138908326,1.4262220822706466,-1.3567679334485738,-1.045796034306647,1.1714788689616857,2.7493000088436648,-3.16425414741493,-0.32600207632726785,0.2970180351238213,0.12040420504145721,-0.18217597862071935,0.0056558949435611535,0.018849332999877105,-0.29171047743618467,0.8359375
1.1927157807328115,0.4244939729004786,-1.6866302676845293,0.055489867361575025,1.1510747492320657,2.1368575710177624,-2.717964928855803,-0.27539604432792536,0.32004369644252334,0.02625970252704761,-0.05742033772935442,0.24283212738779897,-0.21491666319604072,-0.5932396292390137,0.84375
0.6491003020695305,1.6361819959265285,-1.533629053705205,-1.2068675362268078,1.3298295049522146,3.131231285993127,-3.6000280131454683,-0.37071457823618054,0.33646128184346624,0.13877894636220472,-0.20874813475170698,0.0026196046295795163,0.02429364138854719,-0.32541940287268717,0.8515625
-0.0408985749702755,1.744007018039586,-0.7151967054314775,-1.549622403180543,0.8429012024915363,2.39307979223976,-2.564006689460874,-0.2679271291866997,0.19314848554337943,0.15411260084913725,-0.22084197306124906,-0.17003010678981217,0.18381890796041717,0.016284887200684474,0.859375
0.3713467665638788,-1.037330398113329,-0.015157917726425012,1.0454215707788477,-0.2243802716001091,-0.9685195731942163,0.9153505262388106,0.09615005445915789,-0.03380933744670746,-0.09686987134263726,0.1282195559004127,0.18381374259000602,-0.18583279614672774,-0.1828930310292004,0.8671875
0.6451243099386469,-2.9767832834436776,0.49413352329969623,2.8509941090448847,-0.9821183050916122,-3.335309065581803,3.3714262388493683,0.3530419880078249,-0.19598601011744682,-0.2715458080331624,0.37161061496067965,0.42622030166975644,-0.44083946110746874,-0.31335191361509934,0.875
-0.43596982312706867,-1.889026648812999,1.3806149936817889,1.5102151640261008,-1.2895595667622195,-3.2144249204448405,3.6186741814008654,0.3712495789693018,-0.31585663411168236,-0.16561300989906513,0.23711991617606568,0.06964102923453437,-0.09893363849908131,0.22245299478570615,0.8828125
-1.678682293251857,-0.5060830444479261,2.3359946550913975,-0.14697626579287512,-1.5722890628923623,-2.8829555767716784,3.6943889794726004,0.37052372795335436,-0.4370228999421552,-0.032510790213646036,0.06600607050813255,-0.3505158900842379,0.3072402146290377,0.835399817122307,0.890625
-1.6432304972363851,-0.5244194673351001,2.2954568414228453,-0.11767206885728149,-1.5503929443931046,-2.8577705247310816,3.6542244262745505,0.36659170680755027,-0.43012255600744054,-0.03475861421354695,0.06835966549552719,-0.3391990576502401,0.2976784268812252,0.815921964750639,0.8984375
-0.465151472174188,-0.4740147883605255,0.7911104870672697,0.2538955650728078,-0.5998147076449756,-1.2625425700154693,1.5240914918076005,0.15358074616191025,-0.15805689054054575,-0.039854480387518335,0.059255631011933346,-0.06622198685814422,0.05054517073480533,0.2314502320526697,0.90625
1.0443250160142523,-0.03828898293872134,-1.2959759927064514,0.4045667897974092,0.8016625687617118,1.2970890916523043,-1.7608785340895587,-0.1770185345462177,0.23271149169617406,-0.013304497044772146,0.0008501580137904645,0.2489545413105799,-0.22922114041708963,-0.5170847616363428,0.9140625
1.8204882807819855,-0.3693933726051687,-2.126976374438718,0.9743405222314164,1.245916234533023,1.836497752329228,-2.6133303751130055,-0.2601483030640794,0.37025979331194186,-0.049447829955798404,0.04086278980450157,0.46374469443606126,-0.4303343068878255,-0.9022326278922569,0.921875
0.8816895003549,-0.8262686755574592,-0.7483182310957492,1.0466436100840375,0.28199460307936425,-0.015436436095770854,-0.2901923189706179,-0.025476114295776627,0.1060824864740664,-0.08271223013826198,0.10073612767357622,0.2861179778543498,-0.2757531630673006,-0.43739693397630536,0.9296875
-0.9259813900909251,0.012285971361440199,1.1579533149857486,-0.33501752958788994,-0.7189874728950031,-1.1790988083600222,1.5951653588795085,0.1577320790454849,-0.20635708076483256,0.007120690479605908,-0.0006809774463917751,-0.2183283429835485,0.19794026988647348,0.45826088616661065,0.9375
-1.3217707776493097,1.6071770618749748,0.9599576311017641,-1.8848734021574867,-0.23512533827478918,0.5397757586129566,-0.11850080675296783,-0.022911467876604003,-0.11329471313203142,0.15299580070058966,-0.2007833184949143,-0.4612446292328998,0.4457022552180125,0.6540572068826114,0.9453125
0.08414620863208928,2.4124993656478604,-1.1605273913404646,-2.0972075503997556,1.271169057286602,3.485659375721877,-3.7841609377823495,-0.393732841222458,0.2969843110941066,0.21328307182062067,-0.30557536419278103,-0.2048722955289899,0.2260142058847036,-0.04407886447319585,0.953125
1.218672662734698,1.797517068469988,-2.321474750143092,-1.1502700334224434,1.8575223988392833,4.095314183471723,-4.837938828982744,-0.49529214347878925,0.4835997277217669,0.14871233553072336,-0.23067927738360225,0.12107533256493228,-0.08025172706754007,-0.6077596246494148,0.9609375
0.7874141996806213,0.2976953833489743,-1.1243059584895783,0.020868741363961177,0.7711273351632121,1.4392784010378323,-1.8251766031335586,-0.18550404571789458,0.21431469945514084,0.018186825722991854,-0.04065010053765482,0.1596752673243133,-0.1405760650802241,-0.39291586987989574,0.96875
-0.3236245798265908,-0.6335091548256124,0.6833540611950072,0.446093219423363,-0.5683268535577866,-1.3039041608691706,1.5195018454307445,0.15407600653531095,-0.14430184098520618,-0.05554076181816996,0.07916730114275003,-0.01678413399070079,0.0029673695333135774,0.16091809878476168,0.9765625
-0.7880207643739405,-0.18054610337258026,1.0721366819159295,-0.12077615128139932,-0.7092216217016288,-1.272896599116063,1.6484909115582969,0.16428371054613158,-0.19804633910377867,-0.010826033244711564,0.022956536109362453,-0.17040849106135836,0.14908564755397619,0.3928458127025553,0.984375
-0.14581409218038302,0.13536256673059138,0.12531708364846814,-0.17118026630456942,-0.04734667143054093,0.0002504253866628647,0.05210782995264434,0.002959423142673817,-0.016805540727903426,0.012287702230867855,-0.018463024092163438,-0.04919494666806868,0.04428090422577063,0.07400708823522051,0.9921875
0.9345921665379082,-1.0891237460711203,-0.7001288947743172,1.2950216654638194,0.1909272413270847,-0.3156938808276121,0.015473186732265297,0.0065654807435652765,0.08718071313925468,-0.10615596050137951,0.1334494515395756,0.3205371643539607,-0.3117349328379337,-0.46208859295446614,1.0
0.8352858137117298,-1.943501380218974,-0.2016122897134173,2.015392509824445,-0.3127908101544321,-1.6403675819312842,1.4777624702338839,0.15769492275653715,-0.03293727660016275,-0.181978439129617,0.2415960882163455,0.3782045146381758,-0.3779733150941972,-0.41296538281482953,1.0078125
-1.0212666316456198,-0.4813262333688731,1.495680146006629,0.06631249139874947,-1.0411196800912474,-1.995176595939605,2.507755904727278,0.2518690312189417,-0.28476831773029754,-0.03609720017991643,0.06170333963980335,-0.19564011350558422,0.1685493406635553,0.5071104703912913,1.015625
-2.4577161038241218,1.0099628284377389,2.652238701934931,-1.7615002280004721,-1.4264248435910774,-1.7663036128687215,2.7622016193579038,0.26841200634422735,-0.4389413581322706,0.10945350847935527,-0.12318228925524148,-0.6751153543826331,0.628917101954744,1.2202175233781607,1.0234375
-1.2402810577711862,-0.09157005629133247,1.6038337812430024,-0.360673916033784,-1.0217945608770462,-1.7347470846424264,2.3038048129722224,0.22921869790150942,-0.2907499496800041,0.0014467915128029115,0.012526687303675023,-0.2869079739993013,0.2561243356019422,0.6187468983672764,1.03125
1.261136821371409,-1.7383327329001164,-0.8240659593316872,1.9793192958143968,0.1221008697797351,-0.8032599563518092,0.42747575747780514,0.05165863661828279,0.08629332588878973,-0.16672531343062374,0.21442402125711582,0.45790416504583764,-0.44892336145193434,-0.6221936724089949,1.0390625
1.9979430546088086,-1.0112423542571498,-2.072896618536525,1.6025679656289558,1.0675920834260955,1.1714022689359957,-1.9580996893159888,-0.1909474885818004,0.3376922323857622,-0.10878790444247131,0.12154389985667692,0.5671679072717534,-0.5343280291828978,-0.9918531803436269,1.046875
0.6859332439093626,0.9754245880019645,-1.2931449212525268,-0.6119860492984012,1.0304013136326204,2.256717388762069,-2.6704983071319006,-0.2739793795746373,0.26954130842585455,0.07923681158731224,-0.12559598168618066,0.07371164164994524,-0.05075164748327126,-0.3440144305803554,1.0546875
-0.5867797196632323,1.9964955554119506,-0.1363842103429419,-1.964004360732899,0.5382301437110139,2.036815596100515,-1.9893470840972756,-0.21204374015784855,0.09810777580336595,0.1814629007089158,-0.2514884242305791,-0.3233577021838583,0.3271825246737364,0.2882877999904356,1.0625
-0.7627037455594746,1.9972442600483897,0.08664798481093347,-2.029586103647286,0.39858883829709946,1.808412623688156,-1.681503178539077,-0.1812717263688862,0.057744495905763096,0.18332681297122097,-0.2513033759420538,-0.3663534689141606,0.36553376950602456,0.37691203995554473,1.0703125
-0.22979797450378095,0.9617624711996173,-0.13185816358559663,-0.9295796467276202,0.30095835568337653,1.0503242642929487,-1.0505123816802522,-0.11206495070859732,0.059616433268424446,0.08638977798357388,-0.12209159810201761,-0.14398774384422472,0.1458288040502791,0.11304755954681665,1.078125
0.5910115199619932,-1.3079794969607679,-0.17224143377085388,1.3631379060816535,-0.18744557466316442,-1.064361668727409,0.942101360022858,0.10045476087630863,-0.015311637727147453,-0.12295369480546745,0.16184339639678622,0.26093414202539084,-0.26088020531513784,-0.2917412011970448,1.0859375
1.0740532962557772,-2.477260179953981,-0.2663976194037035,2.567532886025412,-0.3938358878441496,-2.0798033824515616,1.8683821626418844,0.19991454471934664,-0.040929741924997876,-0.2311139055247396,0.3079090180554816,0.48286925775901013,-0.4831910865702353,-0.5289144520529712,1.09375
0.47900308642543316,-0.48428691393547835,-0.3887516462282066,0.6013904282137194,0.13348140506321837,-0.061730343986009864,-0.09866563780456006,-0.00842900735445471,0.053303525194004026,-0.048515570099035184,0.05834271836824916,0.15722175888382478,-0.1534947189894535,-0.23604468585024324,1.1015625
-0.5777289798969534,1.8000494268837548,-0.06143841093491494,-1.7869710897428217,0.4469748293963382,1.7727302322140595,-1.7075962738442862,-0.18273987382409937,0.07762964373078489,0.1636203767674054,-0.22674926134945664,-0.30309760881581344,0.30457595535037096,0.2837569752432898,1.109375
-0.6336404731254714,0.755620421965025,0.4634711100104285,-0.8878514480699519,-0.11637598087952863,0.24248267116120195,-0.03956953652741791,-0.009915608643465815,-0.05433424938943616,0.07086693967403614,-0.09507164793834297,-0.21868585413780528,0.2106093093284629,0.3120515625708013,1.1171875
0.12764242862750835,-1.466900032578276,0.48003510603514804,1.3382111092772369,-0.6301500858437152,-1.8854739974224062,1.9884488210859894,0.20590904098431786,-0.1381437447120523,-0.13321804191834932,0.18289962415521513,0.16593853262880717,-0.177364381753564,-0.06112202274258532,1.125
0.04697791689935933,-0.8055076102294088,0.2955522520947798,0.7243591908840195,-0.3662376045796846,-1.0682628842469613,1.136628888324787,0.1169174080180759,-0.08143818142058411,-0.07315780832910168,0.09966902796760042,0.08373026962366106,-0.09207573742998008,-0.01996800715335958,1.1328125
-1.1147855120352073,1.5106190398647152,0.743815813169602,-1.727852951109893,-0.12214100224334032,0.6702903519179764,-0.33159673366623676,-0.04355334261782807,-0.07806954728382906,0.1428958408671846,-0.1892478498250177,-0.40519009971408027,0.39193685098897885,0.5530713556119967,1.140625
-1.6000393339115628,1.6270923220554545,1.300600652536217,-1.998309224278561,-0.4428800017888644,0.20804634293769605,0.3354019793485275,0.02230635338158831,-0.17358270332463907,0.1568552546595724,-0.2026019128090444,-0.5285300992208558,0.5067829489876919,0.7915961718849138,1.1484375
-0.36720801513520224,-0.2847153330820035,0.5848784550206461,0.12644431636895417,-0.4282400111348861,-0.8721662963118036,1.0692342942588298,0.10698354225363492,-0.11400896772294569,-0.024053018207402858,0.03542419809767457,-0.058862575566511165,0.04765114681746912,0.1813013101172464,1.15625
1.3375783066172293,-1.2544896813614537,-1.1340160896460432,1.583755698048922,0.4256196411475083,-0.025293060668006333,-0.43816921097623734,-0.03770777481478993,0.15976020830476095,-0.1244548233014478,0.15355273889520993,0.43282662049224485,-0.41632815956812336,-0.6624304338504461,1.1640625
1.7261904655820985,-0.6831325963456937,-1.8716075185400682,1.215331525578004,1.0154752018183286,1.2767334038215088,-1.9772143322348332,-0.19474924433785426,0.312958378236147,-0.0764896507614726,0.08054016212200381,0.47028033696609906,-0.44140678929154503,-0.854816337297653,1.171875
0.7382612467447515,-0.28335698663169046,-0.8045570479478596,0.5138037092625009,0.43965531334354824,0.559014752645187,-0.8593664698863202,-0.08551847233869464,0.13565799128657682,-0.03275795261666436,0.03240973085938013,0.19996034311998695,-0.18887374677045532,-0.36534962954313543,1.1796875
-0.2542729991979249,-0.647699794712261,0.6022770834541682,0.4855715035344204,-0.5212730875033225,-1.2348024106478475,1.4205254790859794,0.14426394812803542,-0.13034387057869945,-0.0573301444446248,0.08072417354170976,0.0005177967818245711,-0.013046931431865595,0.12655383583718283,1.1875
-0.48581159004297286,-0.6591368081167409,0.8992435459800208,0.4121115120058363,-0.7092757025487267,-1.5510615485129937,1.843026474540321,0.18650205988556603,-0.1841104104724803,-0.05646519200007444,0.08284361173471179,-0.0526979862391279,0.035468019551781825,0.2413802435509992,1.1953125
-0.33142188497713726,0.2378336276710933,0.31415662088633733,-0.3284070720091781,-0.14118807203903513,-0.09605099222819836,0.22137179626190526,0.019249898801881715,-0.04662604688923318,0.022641153861387195,-0.030616956347419497,-0.10065625546845376,0.09376879947475851,0.16490138671287594,1.203125
-2.155598528664742e-05,0.920552119870041,-0.40135878279045345,-0.8140508691861233,0.4594714301809623,1.2887410469068015,-1.3872217132039044,-0.14543253294163433,0.10637884115117353,0.08113760882069328,-0.11767138559577485,-0.08715091213960668,0.09258436831769633,0.0005050107826707096,1.2109375
0.5854940861263386,0.5230725008959652,-0.9656812109174507,-0.25200904566473126,0.7216458964315893,1.4901413315952776,-1.8091313864566247,-0.18521866412290863,0.19331523615428087,0.04062959205049037,-0.06898794108146307,0.08837965349271479,-0.07327615711785858,-0.2904466243370383,1.21875
0.5990017752765283,0.265975754819517,-0.8718363024394935,-0.016541412129682978,0.6054980871697047,1.148181214188356,-1.4453767058477895,-0.14739758271244877,0.1674619773719,0.01702238433484824,-0.03630989381092325,0.11737449610262667,-0.10292789964552541,-0.2986453122306838,1.2265625
-0.7448619137979134,1.198860528924427,0.4105454330732144,-1.3162549205393799,0.016422128106363346,0.7161809009233618,-0.5108106175467116,-0.05964607870801686,-0.02897637574927599,0.11123317899080262,-0.15051558331390122,-0.28567643936775766,0.2797034705249375,0.36674387554646953,1.234375
-2.061777151542801,1.461370902753801,1.954418596812086,-2.0185612187364135,-0.8886771046955694,-0.6207642418736654,1.3896237090195553,0.12859230785419423,-0.2972090085975208,0.14616785608204877,-0.18080524324355612,-0.6228073829892941,0.5894804939500217,1.0220367607758543,1.2421875
-1.3290846997641659,-0.6286307098968258,1.9496870646840296,0.08138038317530535,-1.3593701334390398,-2.6008947030044585,3.2682859607439814,0.3287106109414941,-0.3724066664094515,-0.04573749106441112,0.08041691400313708,-0.2580651548978976,0.22062525073985673,0.6633021097354072,1.25
0.6797609673446275,-2.6072170560881007,0.28803643397683987,2.5393451641021363,-0.7691171428295533,-2.7723133115282863,2.7523344210263683,0.28900876912079815,-0.14518547265582038,-0.23918547855686298,0.3251256254342799,0.400554758096054,-0.41190974139591474,-0.33189233969222853,1.2578125
1.4882257851773035,-1.5892848465414902,-1.1779866437405646,1.9325256854093817,0.37778852104459215,-0.29848790073326376,-0.1961681354437847,-0.011545884001293206,0.15578859340372936,-0.15599475500978124,0.19550812600939635,0.5000117105645835,-0.4830379005335355,-0.7377396435739814,1.265625
0.7820054805353431,0.7367990625493888,-1.3097199734053744,-0.3653736101386851,0.9867764841097457,2.0463073204989226,-2.4773249708240064,-0.25326899219270166,0.26390433811721964,0.057019087899461564,-0.09563286475804815,0.11888353139896224,-0.09524389396086738,-0.39203621074347594,1.2734375
0.1893002045158967,1.539086939578386,-0.9129395565764652,-1.2837355923772569,0.919835261232937,2.4006895773683907,-2.6524241487281106,-0.2755217288118818,0.22122746001931742,0.13410985974420742,-0.1955291629862665,-0.09720711862381126,0.11434538988146949,-0.09716000989085909,1.28125
0.2948595369312836,1.273285632093136,-0.9263550841994495,-1.0164707457447992,0.8674026062335211,2.162873891801282,-2.4325669607699902,-0.2519250450945084,0.21363577335190065,0.11012450027136843,-0.16254725792935137,-0.04962658534476087,0.06503017691738436,-0.14685596541967905,1.2890625
0.5444720766457345,0.6496250803372562,-0.9683478635394566,-0.38116022315294523,0.752716623842456,1.6143877391443788,-1.928554661940095,-0.19786221238926957,0.19873007114647487,0.052255283778900576,-0.08458759970555998,0.06757169495420717,-0.05255790815181206,-0.27011095796772994,1.296875
0.646938242131402,-1.1665247554046505,-0.30505518161495376,1.2579210052714436,-0.07194056860337754,-0.793231504543752,0.6302193598799163,0.06846113108289936,0.01402196283734081,-0.11102701360953074,0.14398805765695347,0.2616555290358078,-0.25953213210930315,-0.3199036109343309,1.3046875
0.168472162037705,-2.4884847093306934,0.8762013991089721,2.256373157276155,-1.108880756551381,-3.26477111388925,3.4611405838302023,0.35902649129364206,-0.24626082036864358,-0.22491683602148413,0.31152289238570297,0.2709164405577931,-0.2906839879923816,-0.08026194201623889,1.3125
-1.1909347509434736,-0.5192197726264491,1.7276354550277524,0.03739580614074834,-1.1955689426723966,-2.269923350440772,2.8638673437254125,0.28764128622603574,-0.3282985968857991,-0.03762079362503138,0.06647483841439238,-0.23455275723102356,0.20175958372502045,0.5934626537621008,1.3203125
-2.021882138909777,2.116411322218135,1.6198806095616782,-2.5831511345461813,-0.5319944828751104,0.3454010801734589,0.3350076839997767,0.019396709038041308,-0.21354286810637896,0.20442981897532028,-0.2636239177744686,-0.6757052202908617,0.647808461820764,1.002639915445928,1.328125
-0.7565582859192932,0.8106605692985689,0.5969959768441564,-0.9825789824910033,-0.18834104968224227,0.15726896692688902,0.09557259142189597,0.0032849654994928567,-0.07682533857876189,0.07724501299036428,-0.10199737071620671,-0.254349027593687,0.24329986043325177,0.3750539366180922,1.3359375
1.1332212462701732,-2.0836203951822445,-0.5147039033029378,2.241680293932346,-0.14917321845553683,-1.4499472474802957,1.168395758224533,0.12767781760942842,0.018106326819955113,-0.1966671190592112,0.2582949911858385,0.46133139010096996,-0.45608376227883907,-0.5597997933924805,1.34375
0.9616943993032355,-1.2115975401425987,-0.6788149682649831,1.4122389507347362,0.15002339473047746,-0.4539552110507389,0.15562938388247397,0.02131472813704934,0.0789619693443269,-0.11736970416889937,0.1488987275329214,0.3391069376829037,-0.33027506300136084,-0.4752322760677388,1.3515625
-0.6297985129992186,1.8212136349511763,-0.003423022826019306,-1.826742269409852,0.41467879359158283,1.7327134159229367,-1.6456495754135572,-0.176675871925812,0.0675566628505401,0.16624637804229353,-0.22939742558463255,-0.3187331114696733,0.3190135008975131,0.31084463663734374,1.359375
-0.7741107402754809,2.051141524452368,0.07440926145168349,-2.0786016286293227,0.4192349433392173,1.872072859606149,-1.746604524977584,-0.18813484427196064,0.062427730496083064,0.1875916024325796,-0.2578914854236533,-0.37279567990268725,0.3723115069419346,0.38052522075807105,1.3671875
0.6753631526475923,0.29153043975468723,-0.9820949670823392,-0.01089918234446141,0.6814813741940726,1.2874997917802586,-1.6231389708301456,-0.16530918066726882,0.18883350258507753,0.018449847027389714,-0.039441375151890494,0.13450162906933444,-0.11790857744650823,-0.3383345211276948,1.375
1.135971010672443,-0.052331946335786354,-1.4089853415395632,0.4526544945327512,0.8696108998040941,1.4000032275316672,-1.9044655178085645,-0.19132433286077086,0.25274051913820395,-0.015635022491915368,0.0027036473744355477,0.27437678483973943,-0.2507849634458908,-0.5652118408070492,1.3828125
-0.20969066388266913,0.14855293997482305,0.201885885606748,-0.20762718179567302,-0.09173114964295404,-0.06535876533079052,0.1454389808766067,0.01225162534772998,-0.02996345360506072,0.014100387023092898,-0.01987619673689269,-0.06493402289561037,0.059579727565209226,0.10624312183063324,1.390625
-1.3039632042352352,-0.8338833179698041,2.0107159436869786,0.26966779387116807,-1.443533040436326,-2.8587256280155393,3.537898831199451,0.35692005426470086,-0.3906354390926907,-0.06432584429362269,0.10622960295230177,-0.23330709452183904,0.19463546539672563,0.6521260563008491,1.3984375
-0.6015820542842907,-1.3210476893223764,1.335979629778761,0.9533305169652592,-1.1318235382808781,-2.6283472396558367,3.0439299083894946,0.3104312892049015,-0.2866495464625017,-0.11419387897901638,0.16632255898754175,-0.019911568462097042,-0.006698180112067141,0.30098076645522315,1.40625
0.9258851725457511,-0.38600235027439445,-0.9990258284472532,0.6735749103614852,0.538122723268243,0.6606591009432425,-1.0339201813790893,-0.10243719417550566,0.16712210457050317,-0.04398346117953479,0.04539394861296106,0.25647366928367654,-0.2404542512643371,-0.46154301045343016,1.4140625
1.481321102420942,-0.08000891790799344,-1.82976483503765,0.5981332296374755,1.1259005578251096,1.8061796841326727,-2.4620068755986235,-0.2468327393177788,0.32741103309123554,-0.02106554510861042,0.005387132082680615,0.35837857372306553,-0.3284067864170103,-0.7361391058361303,1.421875
0.6938741335017955,-0.7636389135840064,-0.5361180436943008,0.9191716738294704,0.16302042606562242,-0.17301508295316892,-0.054196567684576494,-0.002230561444564673,0.06984956662642351,-0.07495928223468644,0.09285949047883921,0.23331707924529632,-0.22796397161282186,-0.34114381782775455,1.4296875
-0.27386716692483226,-0.2540671766232843,0.4571127790807952,0.12883456558879652,-0.34221403480349477,-0.7109973801485401,0.8629513395483432,0.08628313296535668,-0.0904011969137343,-0.02152272495804456,0.030858163760844638,-0.04278365541451368,0.03205629103116801,0.13804189208692463,1.4375
-0.3230169334880106,1.4125041754177263,-0.21494959983165862,-1.3547644907804541,0.45455558195084195,1.5620889302032277,-1.5697324723580566,-0.16669595060045309,0.09086268732660685,0.12687541443739705,-0.17859401204439995,-0.2067822121653721,0.2115601488986699,0.15686654006293493,1.4453125
0.3058548596609923,1.7231849957902605,-1.1431418171178707,-1.405947240568104,1.104946529050571,2.811671651187853,-3.135666974258911,-0.3249424913307523,0.26923744426042867,0.14900934319868367,-0.218982967051962,-0.08567083267812906,0.10737517019861964,-0.1567064464684149,1.453125
0.4251286603357553,0.14751023524469792,-0.5999366598655117,0.02242991762528008,0.40961504907426316,0.7574827601627117,-0.9633119847126519,-0.09851948804839887,0.11460166849229415,0.007999538418067742,-0.02096879260061082,0.08727114164379078,-0.0784206150023688,-0.21111607820078288,1.4609375
-0.5692286322985202,-1.1728689974573263,1.2325282643870386,0.8311034874167502,-1.033942314333167,-2.3803951661347766,2.765654104575953,0.2817897284655349,-0.26294092699586,-0.10068556503183965,0.1473720614964624,-0.027658133933028125,0.0018420758713980267,0.2869469843174141,1.46875
-1.80061269224912,-0.7240663739600378,2.58501424305582,-0.001544993118115837,-1.7779480372810208,-3.3455086167277766,4.235851935116621,0.42587652071990395,-0.4901437485591197,-0.05032002673595766,0.09360489741180932,-0.3608542910347978,0.3128277831905565,0.8972277833666686,1.4765625
-1.7885968426380578,0.6624014342265545,1.959780429528932,-1.216711733171344,-1.0737275266828235,-1.3863581902788773,2.1199662995987105,0.20625226444474676,-0.3273522940213911,0.07250353289538002,-0.0809236691021724,-0.48462064323840726,0.45083071945667386,0.8867779905386389,1.484375
-0.3788405398012337,1.0396075998943826,0.019154325306560718,-1.045552447593682,0.2248236169370023,0.9680196895511104,-0.9104122224191911,-0.09857556157596228,0.03570276728386994,0.09388130159671548,-0.13147933829681946,-0.18432792017954797,0.1850555020758688,0.1848806842842362,1.4921875
0.8046342211258414,-0.16683196948804369,-0.9390998147538907,0.4377074210728229,0.5509706538080023,0.8084156905274269,-1.151737785092439,-0.11538455417465432,0.16441005020339655,-0.02312465192228183,0.01781689798499058,0.20666752674940517,-0.19234048975960016,-0.39946296085604005,1.5
0.6102176058866987,-1.1499654596734321,-0.26023223168773413,1.2311242801154756,-0.09641765208308135,-0.8237310423795932,0.676240187340826,0.0730435125930974,0.006290698514623125,-0.1084392219767879,0.14197766026432598,0.2493692046642445,-0.24955879358810829,-0.29904287441162775,1.5078125
0.15401650111019027,-0.5206319167329103,0.03718778219699832,0.5120351654153418,-0.14077952501913663,-0.5328728895560239,0.5228763336656262,0.053895702446338456,-0.024728019128829548,-0.04861541191166386,0.06372704030981757,0.08246198459311833,-0.08658690873698169,-0.07370847224436247,1.515625
0.8192926208152836,0.13636349493322159,-1.0927062062538244,0.17223515566651526,0.7142007464956102,1.2527100600352137,-1.6343798059229901,-0.16551260596917516,0.2025424941219116,0.0036389479473466243,-0.02034189809663332,0.1810534384335385,-0.16312504502242914,-0.40789801939229725,1.5234375
1.5287145214606572,-0.5716473959078004,-1.677025897902425,1.0520770855969315,0.9201686453510396,1.1816787965688382,-1.8063616649826073,-0.1784350938677716,0.2824435406111795,-0.06571210727598133,0.0673415537007213,0.4162434948828935,-0.38857630273410115,-0.7603917914991641,1.53125
0.5361987492334394,-0.6126519835561951,-0.40632754998850074,0.7342079471715759,0.11702573070719133,-0.16333951852258238,-0.010035197771294182,0.001241522464439616,0.0523729117355762,-0.06058093629460468,0.0745366071274645,0.18420807721844226,-0.17970394771685233,-0.26534565629453,1.5390625
-1.0422576622793547,1.358671536963031,0.7189528560361766,-1.5684477417839553,-0.14101557349380497,0.5521698980207993,-0.22958763887303227,-0.03246246189137633,-0.07906194426695554,0.12877092388453792,-0.17046888125417325,-0.3736974387540701,0.36049314655959924,0.5174571852174551,1.546875
-0.7575526344785499,2.28245593653033,-0.04717380018128647,-2.2819489000076794,0.5461370611321646,2.2172910766252523,-2.1239034848447598,-0.2271981130263728,0.09201738217708112,0.20848685446362858,-0.28743202191628126,-0.391549007306843,0.3936808058293876,0.37338297078418414,1.5546875
0.865679173998037,0.03000460208616347,-1.106625162257101,0.283513635886544,0.6988321652209127,1.1666968034860812,-1.5586999645726467,-0.15733374461344432,0.2012264039634839,-0.006294005576598201,-0.007193346345928899,0.20285984606034332,-0.1841428507373223,-0.4313732460092256,1.5625
1.175220963429566,-2.0801051459104234,-0.5698360434787793,2.2543713161773735,-0.11362861911729835,-1.3900890662272087,1.0894328566316778,0.11973102174261292,0.028432305056695327,-0.19692184767699972,0.2578634072926161,0.47164604606670507,-0.46536448012912596,-0.5812245912287565,1.5703125
-0.07716780484347782,-1.10667574025265,0.5837185502087933,0.9491845288322767,-0.614037141793619,-1.6513777490222665,1.8088715839352765,0.18580210525656815,-0.1438005078081693,-0.09937201848870983,0.13791139626091856,0.08374556816120457,-0.09762134955951679,0.04131548549780109,1.578125
-0.8027059740845217,0.500935996154603,0.7924278186879697,-0.7254399657089445,-0.3802244417223099,-0.3382041041100841,0.6462029221866952,0.06012555264408114,-0.12300175413624714,0.05000428805536282,-0.06288861921278112,-0.23709371725159678,0.22126802960506717,0.39912541490009873,1.5859375
-0.5622478702157837,0.2562651921044938,0.5943934797319392,-0.42115544726756826,-0.3113343763215233,-0.36690693359554066,0.5921723941215372,0.05619072499751333,-0.09609866769300232,0.02601003274759048,-0.03237033016199939,-0.15646037106587068,0.1448085726547999,0.27829329165567884,1.59375
-0.7451979950024135,0.011130656868806984,0.9323541086451808,-0.2696557939445824,-0.5784374900182169,-0.948059020841381,1.2826349891139093,0.1265876308978685,-0.16599473938857554,0.005820057959122078,-0.001010226508952251,-0.1771363702849086,0.1600626927377214,0.36936700955468543,1.6015625
-1.3086392010506598,1.0436140073888456,1.1921826401973676,-1.3832097089543538,-0.5081279878013643,-0.2349644421741401,0.7117430018585008,0.06341235963651826,-0.17574411042536076,0.1029202709359568,-0.12993288395108685,-0.40767070033838354,0.3866859574943496,0.6494848015452317,1.609375
-0.8295952453003093,1.0398285527408622,0.591580416204281,-1.210733892717367,-0.13363859483222373,0.3794572669009942,-0.11766688417941046,-0.019371144846995664,-0.06780650016398622,0.09859610904275048,-0.13057916482936044,-0.294264971888992,0.28278796596058525,0.412264607118953,1.6171875
0.5714331562047164,-0.8075028999477865,-0.3654492691215956,0.918073857253185,0.047248753768710176,-0.3906590842668322,0.222550966659506,0.025631815946856783,0.03787024240298316,-0.07819778459586102,0.09908897949325761,0.2102481699329011,-0.20691636639403146,-0.28254214167401775,1.625
1.2106871959269574,-1.6288070218260646,-0.8123974007987111,1.8699475575840876,0.14073104195414646,-0.711258169076797,0.34495135064725174,0.04272532052097042,0.08863828654807766,-0.15702448925603074,0.20112973383611776,0.4387556292749331,-0.42755130582678313,-0.6002046372910727,1.6328125
0.4631790182038804,-0.1117264907812096,-0.5345660820412675,0.26397091722235944,0.30946204531708715,0.44384138303684467,-0.6383550200739689,-0.06453944766941624,0.09324210506522915,-0.015310642486261381,0.011507059019865146,0.1198548288495588,-0.11180528902503072,-0.22992198194490857,1.640625
-0.4653140727921548,1.2381876974887824,0.045074722398409255,-1.2578356315581027,0.2523663489784149,1.130138269889288,-1.053862970987542,-0.11406205951275111,0.037635017221618695,0.11312391966860849,-0.15664128050422732,-0.22674044975847668,0.2250714356038759,0.23123887244432484,1.6484375
-0.24695048897194732,0.5051734462114543,0.090510359990134,-0.5321810698064584,0.058766940538247485,0.38733836678677314,-0.33011423559820574,-0.0373955972258039,0.0031436140362270056,0.045833748540866345,-0.06474495619678174,-0.10649104167438171,0.10283829792729267,0.12344520011973223,1.65625
0.8304176297611664,-0.9414704747298814,-0.6346076382206081,1.127934282249065,0.18491686659157805,-0.2413447171528016,-0.028659769645902243,0.0013068592284462604,0.08145903021269196,-0.09259511132114286,0.11526043528245086,0.2846163188194497,-0.2762742526189086,-0.4117670069320421,1.6640625
1.0466423650814267,-1.0076707068776642,-0.878347856446513,1.262173801954342,0.3218247764908422,-0.05391628959975186,-0.30552428096880013,-0.025986721350237427,0.12282291779477285,-0.10041429355354124,0.12320773521760298,0.3424140878118451,-0.3291368651889906,-0.5197704739821464,1.671875
-0.2221417375351851,0.24730970633684124,0.17110656820080886,-0.29712530810216925,-0.05030249443931222,0.05929999450918125,0.015570191750371368,-0.0013991393040140145,-0.020763739130471182,0.022559630262696227,-0.032109818916901366,-0.07573821926608931,0.07171548364488861,0.11027109810566917,1.6796875
-0.9237820132770345,0.9388409764002139,0.7528122897590098,-1.156335412855672,-0.2570604051339702,0.11881025614404486,0.19588355187198972,0.012526179615226537,-0.1004132984177796,0.09048563460394532,-0.11776961679599353,-0.3070837970322236,0.2929787231377547,0.4591145083383664,1.6875
0.550649414129191,0.06147281768407913,-0.7200924832204265,0.14349486653871713,0.46510116996825274,0.8001177228124673,-1.0535626852914661,-0.10698997938906028,0.13297316054420147,-0.0004091847615286823,-0.010570967695285713,0.12403640978026698,-0.11349809413220331,-0.2730202873214895,1.6953125
1.9562499789452081,-0.8390766643737684,-2.09710822934313,1.4405802585157204,1.1218937933151407,1.3597039637531319,-2.147537325873417,-0.21088440079174373,0.34829601095858226,-0.09316014757167314,0.09985742676715073,0.541963306542968,-0.5078760952138857,-0.971978128352496,1.703125
0.5689412544815109,-0.12023668031594584,-0.6657799498613333,0.31553113943891725,0.39029815571571674,0.569971758865447,-0.812257049773647,-0.08185392714511837,0.11687447198359978,-0.017527296583090456,0.012569174316518196,0.14749507218695965,-0.13709853217250512,-0.28429592717947183,1.7109375
-1.7735859105774014,0.868712311428218,1.8525071904041022,-1.3917594889665377,-0.9595780656429245,-1.0797271020682282,1.7837443191745659,0.17149866579768022,-0.3005475697996015,0.09102009669512756,-0.1068090722776357,-0.5001585160423014,0.4674034703455637,0.8799307308730618,1.71875
-1.7971859537428505,0.25518848460631016,2.1541232474067185,-0.8643395485294907,-1.2874804330365837,-1.9722930133224348,2.7549451900913198,0.27216891351136685,-0.37731927329998066,0.03719106187485991,-0.029686826806150996,-0.4509835731976433,0.41136027204273096,0.8948957209992289,1.7265625
-0.6142575827144363,-0.45023777789485697,0.9738649767787437,0.17698682589224893,-0.7100565382455887,-1.4295221941643157,1.7576521738285273,0.17676827502550715,-0.19059517002594878,-0.03584371486336957,0.056496033245930576,-0.10589858056799137,0.0860838870617346,0.30810590924001063,1.734375
-0.8734561569980787,0.705992790596622,0.7897026676073048,-0.9300621045814962,-0.33264782305585233,-0.142327329914366,0.45998095035694764,0.04024036956914615,-0.11524233362581883,0.06862219884169012,-0.08828459229774221,-0.27235103553662543,0.25852372411114316,0.43237730071569386,1.7421875
-1.1567075607332988,1.7301839452226693,0.6948135182968486,-1.9302259589377087,-0.040393077749646844,0.9294814793001839,-0.5976436814207907,-0.07146946797430359,-0.06066851206025862,0.16194967395034313,-0.21645839951178578,-0.432340089730841,0.42213443917172,0.5696689092785199,1.75
0.7767427725022605,0.273727052034375,-1.0986032457035122,0.038370346542372306,0.7506099863853862,1.3917186817628782,-1.7706430866586003,-0.17983873238617493,0.20914631387724655,0.016302992283289415,-0.037543345575165706,0.15954177764455074,-0.1417024778768022,-0.3870031317526626,1.7578125
2.691246135119011,-1.6473612952240355,-2.662986192177822,2.4073188963495595,1.291993138380988,1.1750621167738857,-2.204150892663393,-0.21163247662948273,0.42047635506549774,-0.17049203341918845,0.1997746326838189,0.7881621669110737,-0.7472811809424955,-1.3321808716889088,1.765625
1.7052145640757517,-1.4029341031207487,-1.5296939758323094,1.8402181115631744,0.6383189040596166,0.24042151335961373,-0.8522340418361938,-0.07814603804419937,0.22513370438758334,-0.14046644420725024,0.17110963841407556,0.5312498649091703,-0.5094503588544079,-0.8425231745396808,1.7734375
-0.3780834967293569,-0.2783769457203401,0.5953309918726912,0.11155442985109329,-0.4343567182376555,-0.8767383997829331,1.078151284326027,0.10784033764868119,-0.11619140728451248,-0.023169695022866636,0.03435183528454512,-0.06408628286186246,0.052379952426919264,0.1879619168762375,1.78125
-0.6982930313695177,-0.22571082208265866,0.9741032612546653,-0.046199203201549,-0.6582814809997428,-1.2156152238345435,1.5548317037438217,0.1551211729737907,-0.182087259221498,-0.015948382730939844,0.028615101110000887,-0.14299939147033455,0.1257095696291398,0.3455035207061451,1.7890625
-0.13455000289136276,-0.5612649294434835,0.4157972150975666,0.44919848045024335,-0.38544717499737474,-0.9603663230666489,1.083704807316436,0.11012656280531409,-0.09379436493093324,-0.05029868043166303,0.06952559436381885,0.020458407739810395,-0.02983395454454907,0.06796332356617063,1.796875
-0.39749654489689445,-0.5212358928558641,0.7321801930975189,0.3191852594160359,-0.5742896391489429,-1.2478913359373174,1.4855272757874145,0.15006078069829032,-0.14935441480991132,-0.04429433775464449,0.06483045662368464,-0.04736933748986205,0.03089563745377843,0.2007521727173031,1.8046875
-0.7185936842255882,-0.5059921461818201,1.12673358947354,0.19276115510135977,-0.8170910378210543,-1.6385498107967478,2.0176723686549716,0.2031020082263379,-0.21970462519547942,-0.040448055347780815,0.06354937791499989,-0.1241890437935458,0.10125914167282697,0.35920503233675455,1.8125
-0.37573384733410176,0.05774027765818735,0.4447019135839375,-0.18027272795001492,-0.2634080710074048,-0.4016046020963749,0.5645503791560874,0.054563887501293165,-0.07657531132625564,0.006636184122544573,-0.007978600304940646,-0.09314379040184444,0.08455238191512177,0.18548013402706565,1.8203125
-0.25771534108557703,1.684697999405792,-0.4148460184519477,-1.5721805589637365,0.6411263410804904,2.026501708142299,-2.0925353268925915,-0.22053365393098381,0.13676082578586402,0.15076499219670433,-0.2128174024893595,-0.21569411069246502,0.2247073150989418,0.12413653729144469,1.828125
-0.30186310783420417,2.651691327598085,-0.7797146195834931,-2.4407299133432034,1.0875459906351304,3.3194472883735906,-3.470111715761834,-0.3638498697103318,0.2372586668116994,0.23758397371835369,-0.3344281228312834,-0.31728747061521534,0.33269411774355095,0.14605353753537423,1.8359375
0.5733536956419435,1.6378296838915565,-1.438925745774284,-1.2355622283910772,1.2703612265497028,3.0353033288445133,-3.4703209800798116,-0.35777915716028025,0.3192251996994917,0.1397792987475361,-0.20887231020158964,-0.01655050490587545,0.041288469013443706,-0.28751038999138756,1.84375
1.5712410989981391,0.12994261429242687,-2.0380827337549605,0.4472915178656059,1.3038453916001955,2.22055268593364,-2.9411374426826593,-0.2959321789915866,0.3725437822861581,-0.003262019285137217,-0.021334832508711127,0.36039440696407227,-0.32644606735458936,-0.7825551924044417,1.8515625
0.9539111444507311,-0.5545725776893567,-0.9595824117569703,0.8272432959487536,0.47516294077333693,0.4614719739828817,-0.8289342444563975,-0.0809045911544004,0.153769110566366,-0.05895112243972378,0.0662404890313558,0.2773782739280876,-0.2624406261441563,-0.47393326369760275,1.859375
-0.5207455481425486,-1.152197177222105,1.1635718645552624,0.8274460215162469,-0.9863573980848662,-2.2901848146169397,2.652129090905774,0.2703518266116122,-0.2497861887675368,-0.09938950064708615,0.14476450385187845,-0.018130901397818103,-0.005480437934524254,0.2626732966760148,1.8671875
-0.6862888494835441,-1.8492199808767964,1.6779756336329057,1.3864435769809156,-1.465116104409003,-3.481835934362254,3.9935507809252453,0.4084938706967837,-0.36747880076695116,-0.16007574475237954,0.23288835348971554,0.007033094232500011,-0.04132295068042293,0.3466018252710363,1.875
0.2647824486945824,-1.7383040510336372,0.42791661640518225,1.6313428229831952,-0.658933128128568,-2.091302188273551,2.162216636400932,0.2248815899040348,-0.138498322458485,-0.15864011368361716,0.21692268335624007,0.22396414051045752,-0.2355270189431668,-0.12877531148583418,1.8828125
0.30470231830157135,-1.1123248412037217,0.10164915505353692,1.0925136527496757,-0.3134839343826688,-1.1610186657643071,1.1461695987682976,0.11962836899663704,-0.05708068406864474,-0.1034277190364521,0.13811442566710103,0.17655461295137176,-0.18041540605983442,-0.1508490413197213,1.890625
-0.8683282838258085,-0.6749192027360202,1.3895860272886074,0.2854079247854721,-1.0192341390988262,-2.069291309411294,2.535146884303282,0.255768836550848,-0.27300245311800053,-0.05423290825148616,0.08545496329437513,-0.14326183256308656,0.11710616941816686,0.4335318047717957,1.8984375
-1.53999232157621,0.3432119462831221,1.7905784090025068,-0.8509831979182527,-1.0399495698254742,-1.514302820366262,2.1710535857902253,0.21336382710299484,-0.3085670137900591,0.042503364580750644,-0.04159805765735613,-0.39838699807583666,0.36518468266448284,0.7673472768161007,1.90625
-0.8639549732819255,2.100948654376382,0.16641838808343198,-2.1556872498722535,0.37156532460664,1.8246220790527812,-1.664044866275026,-0.1801879696145964,0.046958434673105204,0.19321149677271435,-0.26447467899193555,-0.4004748252426529,0.3977199923664538,0.42670196455180853,1.9140625
0.12847991859700963,2.5700213260202185,-1.2912326943075703,-2.2138515465124087,1.3881842717713595,3.7681529316060858,-4.104841615345436,-0.42681265244761213,0.32622569853556055,0.22614035751916953,-0.3254309040966181,-0.20691307004405118,0.23136821098881188,-0.06990303507038305,1.921875
0.45629364655497096,0.8213640273849747,-0.9361609716950395,-0.5575205287560349,0.7714649005478712,1.7422921116969539,-2.0353548072189165,-0.20967055799886541,0.19934221011634864,0.0675053353637628,-0.10575108633873405,0.033259436313121525,-0.016743789557099556,-0.22966440076016292,1.9296875
0.4846722108222526,-0.9233363696290953,-0.20416228423953797,0.9878569305475242,-0.0800314474883166,-0.666559525605926,0.5509014662207985,0.05910784537106415,0.0045818965677293395,-0.08771869787470703,0.11375904889031817,0.20025484513913255,-0.1997122499718293,-0.23854133513651254,1.9375
0.7900524068797992,-0.6767638247147426,-0.6961155576935403,0.8775165981786461,0.2828256857874142,0.07413445381179243,-0.3541269509327683,-0.03272589091171671,0.10182649823569835,-0.0679707559507851,0.08187260690768608,0.24856232137419895,-0.23995054035194371,-0.389782565675188,1.9453125
1.0082309059931696,0.45205329638449593,-1.4676972837073754,-0.03993875419187911,1.019993095113085,1.9395073260158897,-2.440725617937785,-0.24788551232023584,0.28145975285817854,0.03053369527757288,-0.0606586563192569,0.19623343416199163,-0.1720256094751332,-0.501610284000803,1.953125
0.6834157275774335,0.34022218590630265,-1.0117945382212268,-0.054573422986568185,0.7104358363983437,1.3641485406232925,-1.707711001817878,-0.1740249521736273,0.19568568030797356,0.022821382655433823,-0.045662170683402004,0.1311829081644699,-0.11384323808470835,-0.3417641283396487,1.9609375
0.23763148698868805,-1.0746467104877335,0.1699120789007753,1.0366402494997478,-0.3471517759554477,-1.194645390532126,1.2048865897652952,0.1253361611383907,-0.06785816442915958,-0.09955199885093803,0.13347492609649042,0.1571708827205061,-0.16232655101326868,-0.11758805463939288,1.96875
0.09301113506836715,-1.974191448525485,0.7489279568495814,1.7766808474739875,-0.9125724268432505,-2.644036210401357,2.8176388657260674,0.2918019269298423,-0.20472550190709105,-0.1779944992380976,0.24685805731993968,0.2049687344229886,-0.2227140697331915,-0.04208715055957949,1.9765625
-0.10969816290495077,-1.248975610091977,0.6889123800023197,1.0608347031253904,-0.7120715062094537,-1.8939227155026273,2.0812729852025473,0.21391266939824002,-0.1680826164217612,-0.11121078940816805,0.1558729066900517,0.08804900830013614,-0.10463783576106948,0.059186507851862025,1.984375
-0.5251834217603522,0.10701837763481861,0.6173276092683304,-0.28290139363468086,-0.36124180679957746,-0.5337717119584585,0.7611620075062246,0.0739259109912336,-0.10631782087351722,0.012959561281174856,-0.01380211521134947,-0.13616726766623516,0.12330996777719119,0.26282104359411457,1.9921875
-0.675942809913353,0.813427919954349,0.49402814991788485,-0.954099911569589,-0.123917919476063,0.2630660323883913,-0.04580824050506949,-0.01092383219424984,-0.058352152322767435,0.07658880915819387,-0.10215273394326348,-0.23561687094062642,0.22726635658115815,0.3340832942564733,2.0
-0.6811239984781237,1.3168525759908054,0.27708969534445466,-1.3958249303677843,0.12633229932704088,0.9652011431190577,-0.8017749268968459,-0.08943386897210442,-0.000788788170444672,0.12120947088085648,-0.1654475725168581,-0.28181541655887216,0.2785357151291142,0.33410162177951486,2.0078125
-1.0910786233726948,2.0580923615040967,0.4696617395754338,-2.1977566417212038,0.17379848856693422,1.4729314856927258,-1.2056734399890383,-0.1341712534062306,-0.00856859994665294,0.1910486601899243,-0.25809427569211213,-0.44806752143959167,0.441576902067408,0.5377359921808146,2.015625
-1.2269678102608053,1.5626633018409044,0.8613683056512671,-1.814300189099255,-0.18352531245683495,0.5999751145512648,-0.21659481654517768,-0.03239389340784678,-0.09716850131885849,0.14845737944884216,-0.19573796471555543,-0.4364367346104474,0.42101429909194066,0.6087647701035864,2.0234375
-0.12327635698232878,-0.5999541847896274,0.42016742319218064,0.48427182248971934,-0.3974051951162894,-1.0015035159414125,1.1241279635759147,0.1144348978924308,-0.09618783928626275,-0.053676176280648455,0.0740184453414421,0.024538243624074224,-0.03550432359423012,0.06452913376325287,2.03125
1.1198348554678683,-1.6239988526858988,-0.6991674282059708,1.8323612334309851,0.07039909802304777,-0.8238677146144304,0.498154657191185,0.058007635610159196,0.06819025831465696,-0.1558553696241125,0.20041368589812958,0.415492913448361,-0.4070781765186972,-0.5538020563596064,2.0390625
0.9815597371925121,-0.1988363488546063,-1.151111766318207,0.5277464466393467,0.6753146852170302,0.9950124323618069,-1.4138668953597262,-0.1414799903951217,0.20116798487330678,-0.02778205787228719,0.021508412605845236,0.25212969135680363,-0.2329927605698741,-0.48912169030558106,2.046875
0.5434001640081949,0.45297876922168456,-0.8823141320513741,-0.20516744669390785,0.6548112018842525,1.33840988188118,-1.630551571294011,-0.16697477773386044,0.17636518785760097,0.03439146998003453,-0.05963945222990731,0.08673829200258486,-0.07254307253096595,-0.2708731988199056,2.0546875
1.237536300160292,-1.4099226464156716,-0.937530475599069,1.6827313949992415,0.2678253930582948,-0.3741359149819953,-0.027330861681169917,0.00431966023201965,0.11874916416212414,-0.1371673313356817,0.17313445685904827,0.42184937673105255,-0.4108533852250787,-0.610570422769745,2.0625
1.4276827028094041,-2.290874958765288,-0.7932589807452057,2.5289519145141925,-0.02165129083201647,-1.3593680295798194,0.9674858722107835,0.10890850755135076,0.060829285670719324,-0.21743635250660415,0.28352970092672647,0.5491456252269779,-0.541233124671674,-0.7044484179495784,2.0703125
-0.42162426925427043,-0.2150589142906443,0.6223205565090746,0.043109010327347305,-0.4365035677931928,-0.843525395625682,1.0571096045846102,0.10538026563512551,-0.11865615947630417,-0.0171316950330744,0.02641775644553416,-0.07908509489112925,0.0672833160947622,0.2089825387056315,2.078125
-1.8012684001583505,1.2561635908883926,1.7163174129755052,-1.7447194943820028,-0.7870950346079134,-0.5716354883846279,1.2462930906679308,0.1154734658174267,-0.2620995887774947,0.12565469656135697,-0.15556755536504474,-0.5419432105428754,0.5134241110509477,0.8924833700334178,2.0859375
-0.3010930476465841,0.09129249011080008,0.34151255532884534,-0.18414491251216136,-0.19154679466768182,-0.26492801619349216,0.39215956460751294,0.03719330532607957,-0.05688453191095358,0.009400091661760769,-0.01214847047709359,-0.08007495673407813,0.0722426634902305,0.15058688120003302,2.09375
1.4337956158876446,-0.3714561007365532,-1.6407916745910656,0.8414667328349306,0.9422715163350673,1.3342151944988632,-1.9372717488198765,-0.19266302081117442,0.28295787769921393,-0.04649043693256036,0.04230791858722486,0.37366034777180684,-0.34811337469326636,-0.7113681571533205,2.1015625
0.04720160626491441,1.595045616369276,-0.7601209797638777,-1.3872331853165865,0.8369771643997715,2.2973883714952392,-2.4910692057676407,-0.25977342473246984,0.1957623895093647,0.1402666495172047,-0.2021588496138613,-0.135796027882717,0.15023957852692726,-0.027457011181318085,2.109375
-2.507797787517498,2.674019240997931,1.9839960120737943,-3.2506837018151655,-0.6331125649972462,0.5008407999385625,0.3376155601864808,0.016260167995011083,-0.25869338821066745,0.25796778935671205,-0.33238943761837797,-0.8412461098014117,0.8101628154305516,1.2409183888035311,2.1171875
-2.358050110478454,0.9273600774469136,2.563835273154444,-1.6574017349330976,-1.390402381262203,-1.7550313377553524,2.7163648748028213,0.26431211076798866,-0.4262136668037011,0.10122869259908669,-0.11299658231787245,-0.6456681416599523,0.6007133907738189,1.1716525433200389,2.125
0.03274972187285285,-1.2166339480399269,0.49383748875196803,1.0870849055784328,-0.5825440010644043,-1.6636291012381412,1.782557742685031,0.18388741194358935,-0.131629730334894,-0.10997449872354427,0.1514936365573263,0.11893766607774116,-0.13199903794995507,-0.012538368749020787,2.1328125
1.4605460899682579,-1.7980384619005056,-1.0512538130502316,2.109208514357365,0.25083938123137656,-0.6271417705309559,0.16714449831470246,0.02598326162008488,0.1251544929590731,-0.17405795461788706,0.22157774241590653,0.5125727324525892,-0.49873857398457166,-0.7228736732623646,2.140625
1.0745793123737204,-1.301356314526646,-0.7841327774946658,1.5317816871586136,0.1964482565276377,-0.4296242173880616,0.08962150894690228,0.015239431085999648,0.09516728478124417,-0.12671753986488063,0.16001929851229582,0.37607228415241517,-0.36499491178274607,-0.532665824483155,2.1484375
0.42101047684106524,-0.19429468862325702,-0.44557448757319057,0.32201881504431845,0.2355696498022313,0.27411948626964466,-0.44078004406433025,-0.044314506548999946,0.07433436787647107,-0.02241231538352833,0.022038935251052827,0.11768719161406717,-0.11135893239866473,-0.20859749417714266,2.15625
0.5218934094335083,0.919752389385167,-1.0600549833183341,-0.6225833854951311,0.8710267777779795,1.9640577574666136,-2.297950023962252,-0.2364090875258332,0.22491726429112027,0.07628333914858335,-0.11864768315365988,0.03702913018650238,-0.019784552902799537,-0.2596533730408599,2.1640625
1.0966045784496212,0.6775516541538946,-1.6776861356286767,-0.20321857905141974,1.2015482097657213,2.3687277221238463,-2.934811082321707,-0.29857090750177856,0.3270747220110294,0.04983774820254778,-0.08950102828350234,0.1957703645757761,-0.16853147443075028,-0.5454363432784526,2.171875
1.3144403865979521,-0.5299708259868379,-1.4232886994149576,0.9387104051959292,0.7699183333197962,0.9601252236117105,-1.4925422099608767,-0.1473268452492341,0.23789398886158183,-0.059931355036741026,0.062248457846958836,0.36062842470164774,-0.338761181248623,-0.6529126188429702,2.1796875
0.6287494421839744,-0.7559728613310797,-0.4610955348377032,0.8934304531475987,0.11876715795214336,-0.24328526140950885,0.04359799290238515,0.007456425865088662,0.05705563348608116,-0.07440072937831667,0.09245064633362908,0.2198585681079585,-0.2144367347048561,-0.3120686659161088,2.1875
-0.4278156898922911,-0.2394944970321257,0.6439303087473016,0.05998979582509968,-0.45452509677375696,-0.8882380440273063,1.1075800581730026,0.11064543385817578,-0.12302701071686306,-0.01903853785640258,0.029725101401762384,-0.0793665120853752,0.06599722141494525,0.2134856060200361,2.1953125
-0.9815233465052442,-0.40972320189692607,1.4175185583666636,0.009479875673617634,-0.9771157398900824,-1.845595195247164,2.333561570643019,0.23407794391053624,-0.2686524403303888,-0.029081687347387437,0.052219410033160205,-0.1962507237665433,0.1687615280923996,0.49053198098894557,2.203125
-1.39656783038108,-0.1038996860161205,1.805602041789918,-0.4076119949937525,-1.150695486927558,-1.9550998445744046,2.596981309703322,0.2585127340640739,-0.3274080872483826,0.0014692520444918636,0.014722359123727416,-0.32222308483254947,0.28904092421293887,0.695600100713553,2.2109375
-2.2675376076913856,1.7271362932284338,2.096322203900808,-2.326338993604723,-0.9173083677206865,-0.5150493333036517,1.348110204921004,0.12282218409804292,-0.3130570306413524,0.17136393079532564,-0.21359406695757457,-0.695544482400951,0.6612820204809186,1.12261376018645,2.21875
-2.4571273245371628,2.3145710396330323,2.076038638024227,-2.9084729426013385,-0.7711088506943129,0.06469820512553946,0.7885423362156454,0.06344885092949894,-0.28794286096027844,0.2251598424285654,-0.28711185557212937,-0.7937876483711278,0.7611014325365086,1.2148085123684351,2.2265625
-0.7701912288499715,-0.07064678234345104,1.0009633991186393,-0.20908084448099806,-0.6396454721456489,-1.0948906078617127,1.4499982742951425,0.14381065258217585,-0.18118731234659952,-0.0011343666525508388,0.009098823299514024,-0.17546750302210148,0.15662658888449407,0.3830772256377059,2.234375
1.504675256722094,-1.932577696281387,-1.043566036665528,2.237854822121435,0.21532480404300497,-0.7620862647079804,0.298225348890528,0.0399365490176032,0.11873687063052651,-0.18591198104210493,0.2382008376495091,0.5331770196166468,-0.5208434930497134,-0.7416046371261868,2.2421875
2.429761491564891,-0.8002870346047741,-2.706512030741605,1.5709758571788508,1.5099435264442012,2.0219172332104973,-3.0254322430996683,-0.2987908227591004,0.45869631220628126,-0.0931383503198301,0.09371313320486749,0.6476262080351236,-0.6046229251013807,-1.2042745819172114,2.25
2.1443855357697372,0.22049368479696518,-2.7990008376409548,0.5737060908617614,1.7989238899299287,3.086163752686169,-4.073634563974285,-0.4096283599757807,0.5124158429091021,-0.00024269987323815927,-0.03390098041661169,0.48767948835845537,-0.4398872849089365,-1.0671668501168798,2.2578125
1.5373633032432286,-0.9171971066501794,-1.5361797352971804,1.3605845794979368,0.7528736860457258,0.7075180548351625,-1.2979524003367369,-0.1256405237009881,0.24420098318444988,-0.09646784981964662,0.1107389804947003,0.4501295771099435,-0.4250602466407185,-0.7641642393485142,2.265625
0.5495032833973539,-1.158435787486396,-0.18313317834730494,1.2192745787645174,-0.1469925575043089,-0.9122434105194017,0.7931670656808856,0.08468061841036954,-0.007945592182639637,-0.10920040030120065,0.14312424480151897,0.23709473186932073,-0.23717040907887177,-0.27070252928076294,2.2734375
-0.484826295068021,0.8551778255920496,0.23748950166659824,-0.9241200093892389,0.045875144124512185,0.5685957533349164,-0.44232094453820564,-0.0506885509198701,-0.010759594839521715,0.07918194800992026,-0.10829097326085797,-0.19574729208545646,0.1895683712744165,0.24122587735256926,2.28125
-0.6057536931687265,1.68955668222223,0.020962848879401134,-1.7016784022044777,0.37033343934991053,1.5844775514377967,-1.4960223719197174,-0.16090370654403982,0.0585252368412998,0.15432473125832016,-0.21307047628237727,-0.30099968789472786,0.30009747780500884,0.29867479965473864,2.2890625
-0.28778308783763096,0.051960406091251375,0.33636602109418845,-0.14591378715505668,-0.1966493743142834,-0.2952094684177873,0.41906600658213017,0.04009896322941415,-0.057196726161990716,0.005391215688138351,-0.007353734157424193,-0.07220400981471894,0.06538133222518726,0.14176330058846293,2.296875
-0.8334857040109641,-0.8358091864873821,1.414648126634725,0.4403777619893588,-1.0708590755827458,-2.2477129052447693,2.7150389748570416,0.2746784722927159,-0.2830906550799061,-0.06907960191851227,0.10588629233550605,-0.11866433299583103,0.0925938004509642,0.4148587577643513,2.3046875
-1.7238568951640891,0.2405943683230684,2.067118566195903,-0.8257350051767822,-1.235176516086891,-1.896415125919728,2.6475274431554765,0.2615347277822757,-0.3615912643152226,0.0347284147849003,-0.027718912592894652,-0.4305785546301502,0.39328210719342555,0.8574363870744879,2.3125
-1.5002132663280392,0.8288708592439351,1.5279855031354659,-1.263716912857864,-0.7658007032758551,-0.7828981334072354,1.3687671444542482,0.13034118055598845,-0.24360271292175978,0.08549994676407446,-0.10258657571002093,-0.43337293392802245,0.40492763970795276,0.7460721432776869,2.3203125
-0.4513578553711581,0.24825238716575684,0.4594325393194014,-0.3785258836001305,-0.22991226631495193,-0.23540778814320482,0.4125357926523606,0.038288131983955774,-0.07253331245831905,0.02467212632999525,-0.031926456744385934,-0.13066522531468402,0.1207314870447875,0.22437168972605512,2.328125
0.2604496881928292,0.1716486985926398,-0.4048990575451151,-0.05826880006439373,0.29291605876569665,0.5803316345725836,-0.714587780946626,-0.0738525131701064,0.08031880825928243,0.011432746119365244,-0.023669306026344678,0.04629519215970409,-0.039756369838273256,-0.1308147287703578,2.3359375
0.7232325960626338,0.35506512457906236,-1.0667920007661944,-0.05427715883455476,0.7481730062170725,1.4347874041293527,-1.7971859562740151,-0.18304116861713474,0.20613363044081257,0.02386094725927494,-0.047676500834391365,0.13893063431022898,-0.12070840217032631,-0.3606020460123861,2.34375
1.3539896811220213,-0.5992861890787753,-1.440409319394137,1.0138783666483593,0.7653926137322689,0.9120695312248228,-1.4546342082418173,-0.14308832418042822,0.2386072331637727,-0.06613530575517243,0.07094102786297223,0.3757270689612346,-0.35364057925525266,-0.6708720807775675,2.3515625
1.6096850449999545,-1.6030634373577397,-1.3220754076374808,1.9905806456303674,0.4637298733522183,-0.16375811719699135,-0.3841580627334482,-0.030214111003401215,0.18071094962214124,-0.15758543772150438,0.19668838817229098,0.5291194896102875,-0.5106504637065138,-0.79615541914253,2.359375
1.0817551915730554,-0.7988610910852134,-1.0116905712382378,1.0921639014524662,0.4515645634088647,0.28039468683233437,-0.6777015154937177,-0.06440145488532348,0.15398473301415463,-0.0817584781181087,0.09677486348581851,0.33041832469987625,-0.3150181381373246,-0.5365047251634629,2.3671875
0.2121976182429658,0.8183298665457592,-0.627186772014579,-0.6440610630771725,0.5777030114113162,1.421417322256369,-1.6040746063533606,-0.16658007162578833,0.14355361908056655,0.06946518778088807,-0.10481954699424538,-0.025239410631569863,0.036713534240900195,-0.10753830117828284,2.375
-0.6186707822432809,1.0082595035702953,0.33600683499282347,-1.1059636020465835,0.0194064677465007,0.61209635763271,-0.4429195555225853,-0.05169797790498865,-0.022775915916757646,0.09363301672141548,-0.1270351093115066,-0.24064180619417336,0.234722075808124,0.3061462829721869,2.3828125
-1.2344718445466567,-0.22049639975536534,1.651016431819808,-0.24054398412923425,-1.0801257285579353,-1.907208772036808,2.486941249550966,0.24825524624499257,-0.3038718152830284,-0.010398116704699282,0.02895131076791835,-0.2731274170233508,0.24187310624490477,0.6149881530698064,2.390625
-1.248664727342635,-1.1313079944966222,2.0683475552624477,0.5562542670453564,-1.5469532332125226,-3.201757799777673,3.8879752898836832,0.3935786648003863,-0.41179795903556,-0.09163249512986096,0.1437743106038833,-0.1911811592164712,0.15174682274662726,0.6229437914494771,2.3984375
-0.7192704388704028,-0.8161766205613434,1.2629108233431061,0.46416104577552997,-0.9721549775155343,-2.073369730585084,2.487468318949253,0.2518274933176843,-0.2552420527496597,-0.06832928825811949,0.10294779348258543,-0.09413479381198016,0.06955620403882587,0.35864562811586864,2.40625
-0.2720191776339204,0.19632828893309248,0.25547640019270096,-0.271169324361169,-0.11355989678603577,-0.07402046682949256,0.17594438925015354,0.014976853945526412,-0.037375887965640196,0.01829963743706984,-0.025741582983631522,-0.08264097694374081,0.07651687070608336,0.13513584419847735,2.4140625
0.020835560487288175,0.9594903205730616,-0.44715887791760833,-0.8396045972872969,0.4975369096539365,1.3737255693223185,-1.4869141714665215,-0.15562603670101813,0.11630056065066029,0.08425378627707583,-0.12262431336282781,-0.08515463742179634,0.09165342894691283,-0.010966634676544547,2.421875
0.5132986555212902,1.0593019713085428,-1.110385821728439,-0.7498971917494004,0.9340105973741567,2.1489283479922605,-2.493941914043971,-0.2568153579408611,0.2390592913559771,0.08888082387266608,-0.1361065522000205,0.022507651475482896,-0.004084900105867247,-0.256422025073632,2.4296875
0.9785248352427771,0.7291032827141939,-1.552413635743923,-0.2897530959000115,1.1359928799700547,2.288648832896377,-2.8070655969488594,-0.286127587559698,0.3069367712169314,0.054931462190284254,-0.09528723592108197,0.16496782253039546,-0.13840504631763478,-0.4886529240334845,2.4375
1.185619190043229,0.19570343673076118,-1.5803933671756225,0.2551597100286808,1.0335943507494698,1.8115186542616066,-2.3657998879825755,-0.23884735313169908,0.2929666375341084,0.005468198171917832,-0.028550839862481463,0.26420668347986015,-0.23758787654259542,-0.5912005947453628,2.4453125
1.3222383775226092,-0.4369363179352305,-1.4730357033907915,0.8581043705923873,0.8230054441052592,1.1009403684280614,-1.6472738117247003,-0.1632876306174742,0.25052010724483975,-0.05149538647510511,0.050623141491477903,0.35367698886579135,-0.33056416474591754,-0.6562392867052197,2.453125
0.7324866592464885,-0.5100837250066951,-0.6947715619248042,0.708849172226553,0.3189964385736643,0.22997725852937617,-0.5011674761578593,-0.04841939261474823,0.10741021259368545,-0.05251428322184644,0.06104573500655121,0.21887003758814888,-0.21006404387865565,-0.36079239263421503,2.4609375
-1.3202813874702921,0.5190864210513098,1.438313637119577,-0.9280763879796717,-0.7810937898451877,-0.9874507775710412,1.5280976584840036,0.14802297701300002,-0.23906292085905467,0.05630708134779333,-0.06384796348578135,-0.36225058428447643,0.3361467660888844,0.6572283438462698,2.46875
-2.940419005235793,1.4055672478320986,3.084694578609182,-2.281746061629808,-1.6080750274365212,-1.8379726773241571,3.0091073485057223,0.2905865827727335,-0.5027219002603227,0.14843180303899162,-0.17167048030045254,-0.8257404075447881,0.7738747030741147,1.4580808085309778,2.4765625
-1.5460926208058254,0.3491043148903699,1.7897273030660243,-0.8524066430785131,-1.0372866298826404,-1.5082789643803478,2.1659554476849254,0.21271973017557166,-0.30780147729894347,0.04244114759751567,-0.041749248530400705,-0.3964791199659406,0.36612857446043273,0.7656017174658083,2.484375
1.16835471491722,-1.807404012377907,-0.679182196764083,2.011821731624694,0.016900515190248423,-1.017309823896617,0.6896508703195469,0.07824099956912657,0.05805133738830472,-0.17222287932860705,0.22347794376906108,0.4445410168586035,-0.43648418068779793,-0.577515136806959,2.4921875
1.3148858419437712,-2.4453448567408005,-0.5804469188889048,2.62312643703563,-0.18969380788197024,-1.7252400634588527,1.4021155707087067,0.15324827120386636,0.016960010979554414,-0.23003755007864596,0.30316170403507875,0.5359725495720756,-0.5322974724296613,-0.6464858170278407,2.5
-0.407818540492855,-1.2868355048873303,1.0788339507708329,0.9891044442912609,-0.9641986513468906,-2.331368755099288,2.656338007524771,0.27155978056144636,-0.23956445407937813,-0.11250550332952723,0.16108437430358932,0.020461605603653076,-0.04397235765099369,0.20718194936063974,2.5078125
-0.16652201943726191,-0.29765580118081186,0.3376488894855956,0.20553782992359587,-0.2771616965905197,-0.629851481044206,0.7377421608000031,0.07399923020599408,-0.07030373350818626,-0.026839388914822872,0.03630290647443355,-0.012083648397257361,0.004345083353434874,0.08271884073637653,2.515625
1.5773954218126502,0.16966033568252104,-2.062534850373504,0.41560216546019246,1.3279520660247677,2.2817007731508543,-3.0086207169774863,-0.3029387289089893,0.37839103004656605,-1.7687404081334777e-05,-0.02610162267752027,0.35896485698725134,-0.32365515549215196,-0.7859738287219601,2.5234375
1.1379144937692527,1.2151818959157854,-1.9644004757108553,-0.6629641499418563,1.5030253690932234,3.174030536952808,-3.8165153850625986,-0.38983672290096233,0.3984985806712554,0.09722422942232349,-0.1568113381214666,0.1570745455360679,-0.1231783812905404,-0.5677353809994932,2.53125
-1.0464049668475204,2.142045555772049,0.3798950653055537,-2.2580941978613436,0.2481653157443481,1.6448299617806534,-1.406382585124077,-0.15466392090338704,0.010250959116441765,0.19863906709438023,-0.268966968261042,-0.44762645005423884,0.4408368284938266,0.5177301599154803,2.5390625
-1.4073767391796999,1.5274384582320837,1.1010869905423304,-1.8447597011412662,-0.3413599343418307,0.3201395996984531,0.14680088277262857,0.004097160821760885,-0.14171488679899083,0.14682917339671356,-0.19090341854947748,-0.4757347406094093,0.45627214887561185,0.6971987129769145,2.546875
-0.07641779000923932,0.3009670169867525,-0.03844974750409032,-0.2899515735898411,0.09327883830879848,0.32654163673729975,-0.3242814595788865,-0.035648965216657114,0.01906873275886897,0.02587423971300978,-0.03921343542616532,-0.044994927736531375,0.045442657582298845,0.03602712672933472,2.5546875
0.22269632199643105,-0.20456462835032904,-0.19144608486678655,0.26132932417887705,0.07489704249780207,0.0031711392380938132,-0.07949983070035098,-0.008165752764882577,0.02851476735783034,-0.0218322928473527,0.023980949104392867,0.07314423086194945,-0.07047637592978238,-0.1114082701808207,2.5625
-0.10427958845417067,-0.9391399974999193,0.5451839521152163,0.7912234663261428,-0.5513382202147991,-1.4518901218602287,1.6028502528145125,0.16428455730099517,-0.13061334070771238,-0.08414082660569318,0.11708982635505961,0.06197617373707793,-0.07484219568015767,0.054691686624615155,2.5703125
0.7020845891622663,-2.091461021650038,0.035720423188530664,2.0931334716530388,-0.4942196702633585,-2.0224780850405546,1.93617049582645,0.204466763530002,-0.08093349363148046,-0.19329159281441802,0.26020042539195726,0.3583380565576816,-0.36505238524296335,-0.34293572902649455,2.578125
1.1909375381810616,-1.1710881994245046,-0.9852785314774634,1.4561520841498587,0.3514025673722217,-0.09889877112036424,-0.30732999952289397,-0.025140017979149228,0.13595845808470652,-0.11564974829743678,0.14330884111794323,0.3899081200339658,-0.3764219855134745,-0.5890599963484678,2.5859375
-0.37248399921167114,1.951251588245916,-0.3878714438920632,-1.850964685037914,0.684855359891623,2.252181511848386,-2.2953988106292984,-0.24238451802332334,0.14174112509101586,0.17529477693560117,-0.24615430735217017,-0.2679141947890453,0.277026506166305,0.1806094540411009,2.59375
-1.9107327707450372,3.060828998246385,1.0625930192695485,-3.374508193642749,0.03017391152911133,1.8147024546415742,-1.2875446638200558,-0.1483391075849527,-0.07887847730953285,0.2871334533372524,-0.382484435109012,-0.7352565271440958,0.7205284102173954,0.9435217693677592,2.6015625
-1.0731946335493934,0.5068209204585621,1.129800395988803,-0.8240243337320851,-0.59002446973808,-0.6806217597284663,1.1091040044948142,0.10630621713549572,-0.18368206956243593,0.05286427676380113,-0.06296923655407677,-0.3017556478862851,0.2809455463966981,0.5332794526838711,2.609375
0.8109649944397112,-1.7667580997194565,-0.2450700926226483,1.8502501618456457,-0.24622103962783806,-1.4271108571191657,1.2564008699836184,0.13458522961487235,-0.018968742831885183,-0.16553567955632156,0.2191088235819698,0.3549431432897679,-0.3553806842070707,-0.3991020007317127,2.6171875
1.6403778710840904,-1.3982602523411507,-1.4529764402226686,1.819051151697526,0.5919281082156668,0.16513678970869625,-0.7488820704493717,-0.06791066421273038,0.2117463142744415,-0.1400246511842869,0.1710309884457147,0.5182732778670964,-0.49643500745945296,-0.8132319090345196,2.625
1.4613604040890553,-1.015318061872559,-1.3970706357987384,1.416056523478245,0.6444031496890754,0.4725134796948414,-1.018125119402799,-0.0970691339124349,0.215793594083794,-0.10447572412184912,0.12317978353502593,0.44022850988453094,-0.4186291947684497,-0.7249703991660867,2.6328125
0.5882311432169584,-1.7126557353111518,0.009801857667947918,1.7195667629690414,-0.39233410337050467,-1.6360070053088331,1.5588525663944335,0.1644932917922487,-0.06261216012329415,-0.1587942725503027,0.21268428640349404,0.296469462211414,-0.30108242903108423,-0.2881841032801008,2.640625
-1.0437358387583227,-0.7345825624577174,1.6384061684240077,0.27824092575088616,-1.189169605163743,-2.3821962715526794,2.9330677340633646,0.29589040413831075,-0.32037738409478267,-0.05755400807765983,0.09310716622377287,-0.18092625446140997,0.14899235789792284,0.5218210620555651,2.6484375
-2.0236676613348856,1.9052564446135467,1.7139112342152765,-2.3955602004056367,-0.6388255176351478,0.047690626782914546,0.656288821432083,0.052724720970203774,-0.23819208600100086,0.18557780419109898,-0.2368708140342642,-0.6556219739318789,0.6267487017741271,1.002533994050245,2.65625
-1.0112409694362687,2.2314603483918867,0.2929807550202001,-2.3237137627893514,0.32377094755428654,1.8200183376920236,-1.6078280266617726,-0.17532574278984614,0.029643608726863967,0.2056244201302222,-0.2800708555177136,-0.44475453156950523,0.44158211345570497,0.497249631976543,2.6640625
0.4573494110974031,-0.32622973889802503,-0.4347951493876406,0.44981005945702796,0.19981685170058439,0.13970449731868634,-0.30937896250454916,-0.03035380479433487,0.06791903168476547,-0.03447882010405532,0.038502713279865805,0.1385235085687798,-0.13326660409688948,-0.22701584079185633,2.671875
0.2870118247229722,-1.5308127189181453,0.31119302125587733,1.4488888775116802,-0.5400177996289901,-1.7727962951673464,1.8123321154365832,0.18871698297976772,-0.11035928849127144,-0.13984428380518021,0.19035297119691347,0.20774699397808455,-0.21805503213918734,-0.13801777107509647,2.6796875
-0.7560798674258403,0.3467593450269203,0.8024020882546121,-0.5747882831025364,-0.4226843479407137,-0.4962257844838576,0.8010118948275485,0.07646007994854587,-0.1308874254049165,0.03620669724138929,-0.04356239902771222,-0.2125182053881605,0.19676611599359264,0.3768700254809574,2.6875
-0.8550877954127334,2.0218311844510355,0.1890978434954074,-2.081909777140646,0.3404117818600997,1.7252165419563246,-1.5595193023278315,-0.1693167436583564,0.04049730970183169,0.18568000330823017,-0.25387216867876644,-0.38844913085419025,0.38732848136887893,0.42040049597998597,2.6953125
0.033450423481900506,1.0084841601649996,-0.4879755847417588,-0.8709009116746892,0.535120352729853,1.4597894221751417,-1.5844437248613856,-0.16574017362908983,0.12593901508172753,0.08760768823462452,-0.12812813601689646,-0.08305734096650029,0.09294078059021717,-0.02083364676550171,2.703125
1.218990234993799,-0.9886781999364662,-1.102254509642786,1.3087787527812043,0.4667835243982432,0.19503229355126825,-0.6348370861471434,-0.05891602382457206,0.1639581110098341,-0.09996830011310527,0.12044911081928611,0.3810332013620308,-0.3646698501896753,-0.6045541920718882,2.7109375
2.3920313890643197,-1.4388085305444356,-2.377771363849139,2.119998220508967,1.1609965238332713,1.0789769525268589,-1.9962905441228738,-0.19213400543335157,0.3767568467690191,-0.14958735380085242,0.17421883495084614,0.6985470094801558,-0.6623497872098287,-1.1842197763161844,2.71875
2.6243554316166304,-0.3841978721445317,-3.1333630584331518,1.2732527342290862,1.8712241252066213,2.857205874679715,-3.993805748182413,-0.39794131591306636,0.550729382286967,-0.057702581209686056,0.04090333286857119,0.6558310514379294,-0.6047584142264607,-1.301953988386508,2.7265625
1.0647745740988441,0.5933059625991638,-1.6022216543372871,-0.14103554100976956,1.135737465840094,2.2105720721202013,-2.7526366130834226,-0.27992386954489795,0.3107394977307728,0.04223072067120573,-0.07848246639710436,0.19722515464606977,-0.16957823424735297,-0.5310371952465327,2.734375
-1.199279862416866,0.8953399589198481,1.1149947426240439,-1.211848753461187,-0.4934294575630929,-0.2970647710737418,0.7405118569561263,0.06706540396733213,-0.1670480971480739,0.08823518540260498,-0.11132504633732622,-0.3662443701678272,0.3479766089671689,0.5928083275103159,2.7421875
-2.3489937081132797,0.8878402273869078,2.5688318044599923,-1.615545026008462,-1.4030680036114926,-1.7986972590094823,2.7603910634249216,0.26887913364699617,-0.4287756599695213,0.09759803919316462,-0.10792964950038089,-0.6385444301427368,0.5939081470332036,1.166074391869271,2.75
-2.157486411695031,0.18043602059545594,2.6400317473612063,-0.9254644110699426,-1.6071358060225702,-2.5427321618009135,3.4950292980711737,0.34655350244239075,-0.46713027187638756,0.03326857433560539,-0.01953597417764096,-0.5289912301002566,0.4806813024610359,1.0741502368065543,2.7578125
-1.3962003329949586,-1.709593947023771,2.5088071816949262,1.0107459214514827,-1.9526124065445214,-4.202380982683531,5.017483872732477,0.5099049605232606,-0.5119310490223173,-0.14156592986589128,0.21660335234444947,-0.17413006411476484,0.12550728174844394,0.6989749268100898,2.765625
-0.48320097671942386,-2.9940800995857515,1.9199776638321917,2.467737696107435,-1.8755080258567494,-4.817063479905055,5.361246669319225,0.5518761315352589,-0.45249980796902517,-0.2640334022120067,0.3763811565225384,0.16201506771712074,-0.20100541971358796,0.24578041111082097,2.7734375
0.1695007251674642,-1.3277154173740857,0.36718626762787665,1.231272623954991,-0.5285595333711728,-1.6376988739435805,1.707023725840902,0.17697451616970641,-0.11284508392953548,-0.12130877063736258,0.16527286489683563,0.16342478978680036,-0.17264259027076823,-0.08255619941414477,2.78125
0.27023427150201107,1.7076133289532427,-1.0888701547458113,-1.4077821051396036,1.0675965274008914,2.7426334487290687,-3.049109813159841,-0.316119369493034,0.2588304580176857,0.14844844251919934,-0.21710054960368055,-0.0941611828633739,0.11345914989525976,-0.1372666897581478,2.7890625
0.3327370266626822,2.306914178526357,-1.4292912523572263,-1.9129170012661076,1.4154167609602812,3.6614728692092506,-4.0612196462881105,-0.42078027718382877,0.34152506705322544,0.20161289716632425,-0.29275932495521473,-0.13605967204993902,0.1611587959949063,-0.16841647998033893,2.796875
0.7066118618637808,0.7291178038880989,-1.2096127640353274,-0.38838631183266153,0.9211046293707255,1.9362128451536507,-2.3320321138566604,-0.23871318448690973,0.2449005820563412,0.05771938787702014,-0.094854855105806,0.099041043384511,-0.07906923425801363,-0.3522670172276288,2.8046875
0.8712425441413463,0.29514833599830703,-1.229106386653254,0.0535342346202989,0.8358987080718511,1.5440909056591037,-1.966823462932595,-0.19968242567291927,0.23313279077198068,0.01709167476177237,-0.04035162674026403,0.1805383633924666,-0.15897502452420656,-0.43534092227328997,2.8125
0.8226131644549891,0.7484235070222219,-1.366675402925336,-0.3627785763450465,1.0253538921215366,2.1168200034437423,-2.5675396858797304,-0.26234855736331675,0.27469151930473873,0.05767648416989813,-0.0972428996484511,0.12811510658139702,-0.10336489980761082,-0.41212258513096495,2.8203125
1.1541685089633504,-0.548108199884249,-1.2122104394227786,0.8969297978710236,0.6353072060363695,0.7267028265688807,-1.1851674623050068,-0.11648597327160924,0.19979833607761424,-0.06012373533366064,0.06503469004779987,0.32478202668010875,-0.3064697227424595,-0.5719958121527472,2.828125
1.2072323116034327,-2.1232491387411856,-0.5855013159651092,2.3017927493352084,-0.11373287009788251,-1.4143995767222601,1.104619696311727,0.12160570537615444,0.02954617635323411,-0.200359449793162,0.26303104592881377,0.4810078081823215,-0.47706976578919275,-0.5936130758321746,2.8359375
-0.04122367788739714,-0.7535740928512593,0.384176411198529,0.649127481725673,-0.41001426928462914,-1.1107085056734014,1.2136364040407737,0.12425602995968095,-0.09538752181097569,-0.06793669193971627,0.09346869724063471,0.05889953870679214,-0.06880923065592594,0.02299431513912632,2.84375
-1.4501694735946922,1.6832192696581887,1.0860682485628395,-1.9987974653597382,-0.2963641350759239,0.48256684847638653,-0.012224530743656096,-0.012756122453283308,-0.13306562079403278,0.16056973220272233,-0.20999472603680502,-0.4989148181342738,0.4816771379635366,0.7165239950630974,2.8515625
-1.3561618127772794,1.4177739111494196,1.0842594956946126,-1.7295326091587795,-0.35486895869689816,0.23226150548835217,0.22411346662226364,0.012461160235647676,-0.1422399784449289,0.13613340036097898,-0.17684364638986116,-0.4523308765778826,0.4343200091429138,0.6707302259462545,2.859375
-0.613542513309903,-0.1692946035146195,0.848695959714303,-0.065554569744161,-0.5676209665753125,-1.0338229567120618,1.3297089976073102,0.1323828285230101,-0.15770978221691806,-0.011072648021370637,0.02109051283066419,-0.13079217111265665,0.11342610650452672,0.3066793934821854,2.8671875
-0.5883608979171278,-0.06428824884254766,0.7717463024599325,-0.14894194703765665,-0.49650844585954507,-0.8553813349957311,1.1290083776746023,0.11169325636547571,-0.14033044713839823,-0.0018302834419308624,0.007763283884578089,-0.13433951379762188,0.11864070483369951,0.29407995287724403,2.875
-0.3722121800592388,0.17561250653249136,0.3908066582045298,-0.28420470226390543,-0.20375978962526126,-0.2351559642226593,0.3847085648755634,0.03590458448454123,-0.062904904707713,0.017296902980017875,-0.022800666330488686,-0.10421331057672974,0.09654319189850133,0.18431736249061506,2.8828125
0.7012852096258498,-1.368544276247033,-0.2858706719565826,1.4565155190808086,-0.1298187542481194,-1.0053486592729721,0.8396582748139892,0.09057724491936359,0.0031060875688571675,-0.12951260036849127,0.1692167041462963,0.292609585612043,-0.29074652254712724,-0.346774574820224,2.890625
0.9571133921119251,-1.9866095054624793,-0.33423291759373636,2.090689867491856,-0.23981828270979177,-1.5427624668275801,1.3299483827040683,0.14326271666560383,-0.010750229077360058,-0.18634905116048242,0.24632622408514163,0.4089799012416351,-0.4082449820311506,-0.47097027062969293,2.8984375
-0.23817946599328563,0.20082087841600413,0.21420962579104882,-0.2605050080628142,-0.08776660000051503,-0.029249782832818677,0.11623111378424225,0.008992785394674145,-0.030281056392387873,0.018838711496378134,-0.02636987386851665,-0.07631457669165541,0.07036407680363219,0.11972931948787899,2.90625
-0.7482645487154531,1.8214005523753611,0.1435262803649567,-1.8664663207968675,0.32394917828354525,1.5830351393258215,-1.4440899870157182,-0.15652679589573584,0.04149267397317592,0.16709216876324837,-0.22899932077554397,-0.34498696007679003,0.3436869703371738,0.36819340403152523,2.9140625
0.35369460649561085,0.4497938390662961,-0.6459772768980027,-0.26525213404137804,0.5076120256043797,1.0926048842466496,-1.3007324104096911,-0.1340293312978869,0.13414538780040253,0.0352081479985647,-0.058636957609196266,0.043931477069935575,-0.03259841091414243,-0.1786509493280544,2.921875
1.0996925537013884,-1.1080433300069779,-0.900703125021786,1.3688354001631997,0.31356675313186927,-0.12496869391903906,-0.24811643286406793,-0.01959530681147598,0.12325311388437592,-0.10951792760309297,0.13561865334421777,0.36317900817273524,-0.35038071650949254,-0.5450796328634377,2.9296875
0.3741430973834738,-0.5123895293477756,-0.24399397582151283,0.5821384904714707,0.036893651871442674,-0.23473959924589527,0.12457839436783334,0.014083452241349614,0.02623279240964366,-0.04975957974835771,0.06196909070896408,0.13430899671939148,-0.13349714317579864,-0.1830188957814525,2.9375
-0.5699687786021141,0.47844321368445497,0.5106234949547805,-0.625551033896713,-0.21031081468867638,-0.07018385142725493,0.2767993640108035,0.023354345889585296,-0.07355172536594723,0.046354745141879546,-0.06061796975550399,-0.18059022937935976,0.1696508633417278,0.2842500965389667,2.9453125
-0.815940946309218,0.45005052549237257,0.8287180673554216,-0.6837745846514296,-0.4144528553373547,-0.4249031544270632,0.7441719498762274,0.0701485967380075,-0.1313355812469337,0.045278210550654244,-0.056148645113422206,-0.23408718373553516,0.21919686602478577,0.4039238673339591,2.953125
-0.6194051045420997,0.4361182450278684,0.5855830119794124,-0.5995806836929776,-0.2651615788025299,-0.18820285357556224,0.4200837445197244,0.0378472361153336,-0.08790029670691736,0.04218707834406205,-0.05460246219200014,-0.18506660788788898,0.17546920224330706,0.3049853548294383,2.9609375
-0.029176760615831538,0.632828072784288,-0.24037052282758606,-0.5646310284304663,0.29502802892943886,0.8485611136852995,-0.9030884881532968,-0.09540515049064298,0.06757976580814609,0.05517617415330157,-0.080846922177938,-0.06462412805818639,0.06849385374444134,0.013233112028477217,2.96875
0.7136733772288187,0.16214935708282066,-0.9659137706836944,0.11224109568421758,0.6412115898975098,1.1479457910040667,-1.4848651469037648,-0.15062534635337724,0.18075300110395187,0.007361997458895933,-0.02361217268519553,0.15281037582251578,-0.13892022026943115,-0.3526257070451788,2.9765625
0.7352976273332309,-0.3122504603726972,-0.7868744927503311,0.5382643116971666,0.42161602412341814,0.5127650074789989,-0.807986873590522,-0.08022421834893959,0.13125296949498605,-0.03524818083443374,0.03592443479616805,0.20130661986379958,-0.1911217895152864,-0.3629436668030583,2.984375
0.17833367128277278,0.1381674716930632,-0.2871943619455743,-0.054927456708405396,0.21127612913790816,0.4260944285884617,-0.5203308465066917,-0.054272484110051644,0.057739778285713146,0.009151991644333437,-0.01933258158106792,0.029174207489966957,-0.025151699151658394,-0.08957230197454608,2.9921875
0.232459347236137,0.43507186030167155,-0.48603416855715326,-0.2967595176810955,0.40288085262685613,0.912546823864745,-1.0634035235711523,-0.11029583390464223,0.10437558152702196,0.0350104346807225,-0.0566186991462835,0.015734540884391177,-0.007061907281440176,-0.11800673963273979,3.0
0.7397244355942236,-0.42646965403835874,-0.7438105496050887,0.6413162436614982,0.3691697759399137,0.35976015696576,-0.6444428680129025,-0.06324925904789866,0.11956348353378005,-0.04571229259095238,0.050622346312310114,0.21468881215642346,-0.20414658028897653,-0.3666246357522583,3.0078125
0.28357018690847946,-1.2451049373826812,0.19104887053275094,1.1987234836567553,-0.40020153002358566,-1.3787059649281996,1.3885144888485002,0.14469378357329116,-0.0783822522059737,-0.11438973794557535,0.15446195099346247,0.18065686504321155,-0.18868027179166902,-0.13660098179012967,3.015625
-1.1069519478527832,-0.6824690527784879,1.6928313689384418,0.20819030561057356,-1.211240307176589,-2.3882461767838925,2.9617320450539344,0.29840567830350684,-0.32825323478099383,-0.05249771372906845,0.08668670897309451,-0.20067396496630804,0.16834692780626867,0.552512258564002,3.0234375
-1.7422012395160043,0.47132106148042335,1.9842482162292052,-1.0334085436788372,-1.1319803616398951,-1.591684004954475,2.3246949781047044,0.22786803268363276,-0.338760022235256,0.055290604645514344,-0.056997218850796255,-0.4560573960823156,0.42188115800543863,0.8639869786841406,3.03125
-0.789938284164804,0.4285614258159077,0.8050472330455936,-0.6561761108786878,-0.40449891862551707,-0.4196327555545492,0.7289656988684695,0.06880746440078955,-0.12796670797468662,0.043196024415704505,-0.053653050097663774,-0.22572727512688304,0.21160054558723146,0.39070362341432757,3.0390625
0.6686595609618601,-1.0345916346072879,-0.38677463398726064,1.1516291120086315,0.009122881516265568,-0.584036661980581,0.39708821925112875,0.044466846772390885,0.0334343450360019,-0.09922191943691071,0.12723971988863333,0.2537396859057394,-0.2511476116255917,-0.32952423262281366,3.046875
1.018012104101235,-1.7090420954050585,-0.5298917444723066,1.8689940413363069,-0.05443679965649179,-1.0777781539387639,0.807608286063892,0.08948470182859088,0.034552088916184005,-0.1618949032570322,0.21137080270491457,0.39759939885346945,-0.39415229693600906,-0.5008440828454673,3.0546875
-0.030084861909099085,0.32236282612329326,-0.10327746879237522,-0.2942758755416354,0.13846502328560029,0.41274102704873167,-0.43262383909952834,-0.046588835143092505,0.03137730848578917,0.027757847241706508,-0.04185872512205486,-0.03746451240290166,0.038011352371010505,0.014780195602289511,3.0625
-0.9354062904974203,3.00765181621414,-0.14335550884313597,-2.9808223545577266,0.7715326800932869,3.0042447817311526,-2.909760049950127,-0.31006886167442577,0.13618777598291962,0.2740460060336532,-0.37770527801243703,-0.49810714464526246,0.504922811338808,0.4576709325567959,3.0703125
-0.3488348230855043,2.642292959358587,-0.7210403023217784,-2.4480833899649475,1.0502439001947506,3.251100221606103,-3.381015051914991,-0.3549145037522531,0.2271114722328068,0.2363804239728815,-0.3330371488751092,-0.3251272340030121,0.34106003719610906,0.1670541638974564,3.078125
0.759935348142706,0.15395906495222667,-1.0228863197414675,0.13854329630686082,0.6752588310134375,1.1980315173458063,-1.5553004637393901,-0.15765986488408945,0.19095972181546947,0.005861040015276311,-0.022515007418576673,0.16573500468607308,-0.14990736118264725,-0.3771225944508369,3.0859375
0.8742877369628032,-0.4873659441748935,-0.8842531939498147,0.7418805957750073,0.44237915396304117,0.44641682377052117,-0.7845963341500167,-0.07686131843333896,0.14225038275640364,-0.051820336442235417,0.057700829205433506,0.2507823192949051,-0.23904619095919588,-0.4315365813075511,3.09375
0.7074082635925396,0.009485833699527739,-0.894362436869914,0.2438238596838345,0.5609585610366997,0.9288196940627603,-1.24614867520339,-0.12596279032794022,0.162046905317338,-0.00644804681006593,-0.004473416402429456,0.1659225835650545,-0.1524520152663758,-0.3508102744755653,3.1015625
1.2157801183909747,-1.901230453463819,-0.6994911994983005,2.109755641306526,0.007995502234437492,-1.086298875584109,0.7476460827448186,0.08456365715037675,0.05826811607907958,-0.18141129629273425,0.23514017221544814,0.46390864571300194,-0.4557616982657837,-0.6015180306549966,3.109375
0.8011032213406707,-3.8610631916752887,0.682733586773083,3.69012514137664,-1.2982639383424648,-4.3689969069005326,4.430084375478868,0.46405634666107193,-0.2611357297443528,-0.35231708878738305,0.4828822807714761,0.5464772953939877,-0.5654738337479303,-0.3912945977599303,3.1171875
-1.5029793099025743,-1.0081172095356454,2.335771010555699,0.3561240654742864,-1.6859083644685078,-3.358792270720751,4.14587202585314,0.41863955043998097,-0.45541047532966195,-0.07819789909095319,0.12876586522578146,-0.26370096498294693,0.21955473609064613,0.7499385678161784,3.125
-2.7936604849767255,3.3314716393626433,2.0583324087871735,-3.927026324732091,-0.5310957075913504,1.0486408523628197,-0.15379412990625796,-0.036691667992072685,-0.24848343481865867,0.3192848692765677,-0.4147122829316656,-0.9700256701055876,0.9372660834013586,1.3831052657697298,3.1328125
-0.82890122540818,2.1167836532027278,0.11447006713101888,-2.1577410291856562,0.40862915624849405,1.8937276814298352,-1.7507546565391199,-0.18892638932025121,0.057289565102394795,0.19406475485806698,-0.26610123704090727,-0.3915427373473977,0.39147817835132015,0.4075073282096423,3.140625
1.571685124120125,-2.418967930021458,-0.9200544287883807,2.691478178319879,0.028330177455599365,-1.351324974822924,0.9090557767789764,0.1037906021695909,0.07897174523043173,-0.23030377650831982,0.2995182682129292,0.5956177846999485,-0.5844049292499598,-0.776975680773999,3.1484375
1.1084407429646177,-2.4330369644983993,-0.3278805787664846,2.5376892840115297,-0.3456080190245976,-1.9742909100348476,1.7429680430023222,0.1871497040159881,-0.02838964609314086,-0.22726608235305182,0.3021595378780103,0.4857794083474328,-0.485799685643273,-0.5449580125780283,3.15625
-0.7838979278659829,1.7854785191496199,0.20652247342810023,-1.8507635632982027,0.2753346883058579,1.4832699892420735,-1.3231534576069919,-0.14424592046703075,0.02841041315650903,0.1645339626587727,-0.2246595900296239,-0.3520163373547732,0.3484862958875244,0.3879835847413016,3.1640625
-1.1448760186602012,3.46936472889452,-0.08026167091175244,-3.4590394442123285,0.8369306065876622,3.378342575365848,-3.240761357577215,-0.3458087588346226,0.14158632512146055,0.3170882900610571,-0.4355199872946717,-0.5910849526361882,0.5959694396541005,0.56194902625767,3.171875
-0.02457817461330292,1.3275865633068056,-0.554715785396077,-1.1723381044311723,0.6492310500621258,1.8321261575756398,-1.9656508298269488,-0.2056974367872075,0.1495725735931845,0.11656707747444449,-0.16816816142774896,-0.12676080461895686,0.1378554303374322,0.007294669773861318,3.1796875
0.9930012932769446,-0.5000617358133591,-1.0325222651649129,0.7965408322159904,0.533170972919601,0.587227963452165,-0.9780793855905374,-0.0961542425765116,0.16890763748335685,-0.05447296314242435,0.059450549174317524,0.28180004276083076,-0.26554689304067564,-0.49359765612732204,3.1875
1.2814064680172839,-0.764032429406972,-1.275670057160956,1.1278338839077615,0.6245944517970052,0.5866874392395823,-1.0774011522627116,-0.10444086428783544,0.202774887228097,-0.08000879282417499,0.09165055593967777,0.37277438890238734,-0.35420828577268515,-0.6335420037942304,3.1953125
0.7686445961169873,-1.0964462665024983,-0.48439609057035155,1.238212257513804,0.05554074076241304,-0.5422953304303548,0.31787540344250353,0.036915208015302015,0.04861817335321581,-0.10541120356678185,0.13452975423960084,0.2822800197082556,-0.2782954183803987,-0.377722797872093,3.203125
-0.14999636726681545,-1.3152663980504682,0.7642133305806132,1.1070368459594955,-0.7734580652279653,-2.034421966442639,2.2460725537998756,0.23072194054482276,-0.18363304354515722,-0.11753654471353815,0.1644136982951765,0.08656772423285228,-0.10317885626752428,0.07679427783932502,3.2109375
-0.524418884625538,-0.5311387625241698,0.8905417399836341,0.28465780649655165,-0.6751885306625376,-1.4203815017156471,1.7152310336781724,0.172960761820867,-0.1780376791717031,-0.044554664830487214,0.06685681010572594,-0.07387808597661744,0.05726775972904434,0.25999995653409025,3.21875
-0.4873700122113876,0.35241336808313356,0.4598046468570251,-0.4816459160304985,-0.2065177699490428,-0.1382505166173362,0.32088723373659106,0.028472049547347767,-0.06877929648097449,0.03425247502270408,-0.04451334365193721,-0.14795886317652945,0.13914412960524408,0.24170119020371858,3.2265625
-1.0381407798310853,0.4328444963547649,1.120382415708926,-0.7496413912278667,-0.6009387154664261,-0.7403398103298554,1.1616957263839691,0.1120321908336477,-0.1847744919266063,0.046396622040438144,-0.053772606456794485,-0.2874082338294193,0.26565898405327526,0.5175052574654614,3.234375
-1.3688702202736995,0.14043198861671125,1.6628167666162879,-0.6086869050188487,-1.0059226373231467,-1.575724974004684,2.1768546456422295,0.21515010569376172,-0.29290871757192444,0.02294486359237152,-0.016398022326529198,-0.3386133356274264,0.3072158742797371,0.6817774899025695,3.2421875
0.14233834657759573,-0.20368257296663145,-0.09201677533608738,0.23385688085286546,0.012398817818173362,-0.09889066865046828,0.057759944070148964,0.005523319077731824,0.010361922596088894,-0.020992464656147226,0.023787038320088195,0.0527856775994691,-0.05257659237103769,-0.0710987902235824,3.25
